##NAMES=Calcioburbankite
##RRUFFID=R140485
##IDEAL CHEMISTRY=Na_3_(Ca,Ce^3+^,Sr,La)_3_(CO_3_)_5_
##LOCALITY=Eboundja, Kribi, South Region, Cameroon
##OWNER=RRUFF
##SOURCE=Rock Currier
##DESCRIPTION=Pink massive
##STATUS=The identification of this mineral is confirmed by single-crystal X-ray diffraction and chemical analysis.
##URL=rruff.info/R140485
##MEASURED CHEMISTRY=(Na_2.89_K_0.02_)(Ca_1.14_Ce_0.61_La_0.39_Sr_0.23_Nd_0.15_Pr_0.06_)(CO_3_)_5_ ; The dark mineral is analcime.
8.758203e+001, 1.776769e+003
8.806415e+001, 1.722647e+003
8.854626e+001, 1.713104e+003
8.902838e+001, 1.767596e+003
8.951050e+001, 1.836171e+003
8.999261e+001, 1.902932e+003
9.047473e+001, 1.966216e+003
9.095685e+001, 2.026461e+003
9.143896e+001, 2.082590e+003
9.192108e+001, 2.134869e+003
9.240320e+001, 2.191572e+003
9.288531e+001, 2.229569e+003
9.336743e+001, 2.229435e+003
9.384955e+001, 2.197058e+003
9.433167e+001, 2.165641e+003
9.481378e+001, 2.127641e+003
9.529590e+001, 2.091669e+003
9.577802e+001, 2.058783e+003
9.626013e+001, 2.031354e+003
9.674225e+001, 2.010243e+003
9.722437e+001, 1.994554e+003
9.770648e+001, 1.982337e+003
9.818860e+001, 1.972014e+003
9.867072e+001, 1.965719e+003
9.915283e+001, 1.967021e+003
9.963495e+001, 1.975176e+003
1.001171e+002, 1.983285e+003
1.005992e+002, 1.980448e+003
1.010813e+002, 1.957121e+003
1.015634e+002, 1.945306e+003
1.020455e+002, 1.949947e+003
1.025277e+002, 1.961334e+003
1.030098e+002, 1.973220e+003
1.034919e+002, 1.982946e+003
1.039740e+002, 1.990175e+003
1.044561e+002, 1.993735e+003
1.049382e+002, 1.985098e+003
1.054204e+002, 1.981971e+003
1.059025e+002, 1.991506e+003
1.063846e+002, 2.007410e+003
1.068667e+002, 2.017587e+003
1.073488e+002, 2.012871e+003
1.078309e+002, 1.996587e+003
1.083131e+002, 1.995821e+003
1.087952e+002, 2.025072e+003
1.092773e+002, 2.054726e+003
1.097594e+002, 2.066200e+003
1.102415e+002, 2.059753e+003
1.107236e+002, 2.049778e+003
1.112058e+002, 2.045198e+003
1.116879e+002, 2.045848e+003
1.121700e+002, 2.051353e+003
1.126521e+002, 2.067458e+003
1.131342e+002, 2.087002e+003
1.136163e+002, 2.096532e+003
1.140985e+002, 2.090607e+003
1.145806e+002, 2.084721e+003
1.150627e+002, 2.090920e+003
1.155448e+002, 2.105282e+003
1.160269e+002, 2.118700e+003
1.165090e+002, 2.124135e+003
1.169912e+002, 2.121781e+003
1.174733e+002, 2.121638e+003
1.179554e+002, 2.126629e+003
1.184375e+002, 2.131711e+003
1.189196e+002, 2.133380e+003
1.194017e+002, 2.132445e+003
1.198839e+002, 2.132962e+003
1.203660e+002, 2.141478e+003
1.208481e+002, 2.165953e+003
1.213302e+002, 2.177656e+003
1.218123e+002, 2.167363e+003
1.222944e+002, 2.153361e+003
1.227766e+002, 2.147954e+003
1.232587e+002, 2.154319e+003
1.237408e+002, 2.166440e+003
1.242229e+002, 2.172864e+003
1.247050e+002, 2.162243e+003
1.251871e+002, 2.161079e+003
1.256693e+002, 2.180330e+003
1.261514e+002, 2.206538e+003
1.266335e+002, 2.221066e+003
1.271156e+002, 2.214704e+003
1.275977e+002, 2.195368e+003
1.280798e+002, 2.186986e+003
1.285620e+002, 2.193291e+003
1.290441e+002, 2.201282e+003
1.295262e+002, 2.207004e+003
1.300083e+002, 2.210561e+003
1.304904e+002, 2.211670e+003
1.309725e+002, 2.207754e+003
1.314547e+002, 2.202772e+003
1.319368e+002, 2.204971e+003
1.324189e+002, 2.219832e+003
1.329010e+002, 2.235900e+003
1.333831e+002, 2.239809e+003
1.338652e+002, 2.228990e+003
1.343474e+002, 2.219908e+003
1.348295e+002, 2.223543e+003
1.353116e+002, 2.232914e+003
1.357937e+002, 2.240665e+003
1.362758e+002, 2.242797e+003
1.367579e+002, 2.242393e+003
1.372401e+002, 2.248244e+003
1.377222e+002, 2.265688e+003
1.382043e+002, 2.281315e+003
1.386864e+002, 2.292293e+003
1.391685e+002, 2.298723e+003
1.396507e+002, 2.299888e+003
1.401328e+002, 2.293488e+003
1.406149e+002, 2.280059e+003
1.410970e+002, 2.277605e+003
1.415791e+002, 2.298731e+003
1.420612e+002, 2.319627e+003
1.425434e+002, 2.333248e+003
1.430255e+002, 2.341024e+003
1.435076e+002, 2.348582e+003
1.439897e+002, 2.361329e+003
1.444718e+002, 2.380743e+003
1.449539e+002, 2.396891e+003
1.454361e+002, 2.409865e+003
1.459182e+002, 2.420433e+003
1.464003e+002, 2.428051e+003
1.468824e+002, 2.433094e+003
1.473645e+002, 2.437415e+003
1.478466e+002, 2.442568e+003
1.483288e+002, 2.447983e+003
1.488109e+002, 2.458506e+003
1.492930e+002, 2.481714e+003
1.497751e+002, 2.506753e+003
1.502572e+002, 2.521124e+003
1.507393e+002, 2.521402e+003
1.512215e+002, 2.515510e+003
1.517036e+002, 2.512042e+003
1.521857e+002, 2.510226e+003
1.526678e+002, 2.514451e+003
1.531499e+002, 2.528605e+003
1.536320e+002, 2.549935e+003
1.541142e+002, 2.572320e+003
1.545963e+002, 2.595900e+003
1.550784e+002, 2.617567e+003
1.555605e+002, 2.634576e+003
1.560426e+002, 2.646945e+003
1.565247e+002, 2.657180e+003
1.570069e+002, 2.665145e+003
1.574890e+002, 2.670960e+003
1.579711e+002, 2.680764e+003
1.584532e+002, 2.698724e+003
1.589353e+002, 2.719355e+003
1.594174e+002, 2.739937e+003
1.598996e+002, 2.760049e+003
1.603817e+002, 2.778813e+003
1.608638e+002, 2.794955e+003
1.613459e+002, 2.807616e+003
1.618280e+002, 2.820417e+003
1.623102e+002, 2.832825e+003
1.627923e+002, 2.846066e+003
1.632744e+002, 2.861288e+003
1.637565e+002, 2.878808e+003
1.642386e+002, 2.897343e+003
1.647207e+002, 2.914866e+003
1.652029e+002, 2.930939e+003
1.656850e+002, 2.946280e+003
1.661671e+002, 2.958697e+003
1.666492e+002, 2.971394e+003
1.671313e+002, 2.987573e+003
1.676134e+002, 3.008505e+003
1.680956e+002, 3.033058e+003
1.685777e+002, 3.057978e+003
1.690598e+002, 3.084029e+003
1.695419e+002, 3.109576e+003
1.700240e+002, 3.136073e+003
1.705061e+002, 3.161769e+003
1.709883e+002, 3.184667e+003
1.714704e+002, 3.203921e+003
1.719525e+002, 3.219334e+003
1.724346e+002, 3.229250e+003
1.729167e+002, 3.219983e+003
1.733988e+002, 3.221292e+003
1.738810e+002, 3.249334e+003
1.743631e+002, 3.295913e+003
1.748452e+002, 3.339376e+003
1.753273e+002, 3.366815e+003
1.758094e+002, 3.382934e+003
1.762915e+002, 3.405197e+003
1.767737e+002, 3.435520e+003
1.772558e+002, 3.469260e+003
1.777379e+002, 3.506341e+003
1.782200e+002, 3.546063e+003
1.787021e+002, 3.582056e+003
1.791842e+002, 3.608917e+003
1.796664e+002, 3.629980e+003
1.801485e+002, 3.651260e+003
1.806306e+002, 3.668413e+003
1.811127e+002, 3.691287e+003
1.815948e+002, 3.734972e+003
1.820769e+002, 3.803730e+003
1.825591e+002, 3.868905e+003
1.830412e+002, 3.910518e+003
1.835233e+002, 3.941429e+003
1.840054e+002, 3.974419e+003
1.844875e+002, 4.013537e+003
1.849696e+002, 4.056385e+003
1.854518e+002, 4.098097e+003
1.859339e+002, 4.136980e+003
1.864160e+002, 4.178701e+003
1.868981e+002, 4.226935e+003
1.873802e+002, 4.278250e+003
1.878623e+002, 4.328725e+003
1.883445e+002, 4.375840e+003
1.888266e+002, 4.421256e+003
1.893087e+002, 4.469897e+003
1.897908e+002, 4.525474e+003
1.902729e+002, 4.579978e+003
1.907550e+002, 4.631104e+003
1.912372e+002, 4.680300e+003
1.917193e+002, 4.727907e+003
1.922014e+002, 4.773148e+003
1.926835e+002, 4.817951e+003
1.931656e+002, 4.875032e+003
1.936477e+002, 4.966480e+003
1.941299e+002, 5.048083e+003
1.946120e+002, 5.103277e+003
1.950941e+002, 5.144434e+003
1.955762e+002, 5.191414e+003
1.960583e+002, 5.257781e+003
1.965404e+002, 5.342535e+003
1.970226e+002, 5.428465e+003
1.975047e+002, 5.527129e+003
1.979868e+002, 5.614684e+003
1.984689e+002, 5.675693e+003
1.989510e+002, 5.719234e+003
1.994331e+002, 5.764831e+003
1.999153e+002, 5.826012e+003
2.003974e+002, 5.902677e+003
2.008795e+002, 5.986549e+003
2.013616e+002, 6.085682e+003
2.018437e+002, 6.182511e+003
2.023258e+002, 6.268297e+003
2.028080e+002, 6.344787e+003
2.032901e+002, 6.419766e+003
2.037722e+002, 6.498796e+003
2.042543e+002, 6.581975e+003
2.047364e+002, 6.669121e+003
2.052185e+002, 6.767222e+003
2.057007e+002, 6.863236e+003
2.061828e+002, 6.943544e+003
2.066649e+002, 7.009941e+003
2.071470e+002, 7.081539e+003
2.076291e+002, 7.174759e+003
2.081112e+002, 7.285073e+003
2.085934e+002, 7.387332e+003
2.090755e+002, 7.471369e+003
2.095576e+002, 7.552966e+003
2.100397e+002, 7.646419e+003
2.105218e+002, 7.752452e+003
2.110039e+002, 7.860302e+003
2.114861e+002, 7.968075e+003
2.119682e+002, 8.071924e+003
2.124503e+002, 8.164596e+003
2.129324e+002, 8.234417e+003
2.134145e+002, 8.299012e+003
2.138967e+002, 8.382744e+003
2.143788e+002, 8.490242e+003
2.148609e+002, 8.595415e+003
2.153430e+002, 8.674433e+003
2.158251e+002, 8.744244e+003
2.163072e+002, 8.826851e+003
2.167894e+002, 8.935107e+003
2.172715e+002, 9.055097e+003
2.177536e+002, 9.164046e+003
2.182357e+002, 9.259944e+003
2.187178e+002, 9.349441e+003
2.191999e+002, 9.434788e+003
2.196821e+002, 9.516692e+003
2.201642e+002, 9.594495e+003
2.206463e+002, 9.666737e+003
2.211284e+002, 9.736686e+003
2.216105e+002, 9.811469e+003
2.220926e+002, 9.888760e+003
2.225748e+002, 9.976796e+003
2.230569e+002, 1.009146e+004
2.235390e+002, 1.021151e+004
2.240211e+002, 1.031184e+004
2.245032e+002, 1.037867e+004
2.249853e+002, 1.042458e+004
2.254675e+002, 1.048691e+004
2.259496e+002, 1.057737e+004
2.264317e+002, 1.066589e+004
2.269138e+002, 1.074333e+004
2.273959e+002, 1.081641e+004
2.278780e+002, 1.089336e+004
2.283602e+002, 1.097873e+004
2.288423e+002, 1.106807e+004
2.293244e+002, 1.114684e+004
2.298065e+002, 1.120012e+004
2.302886e+002, 1.126274e+004
2.307707e+002, 1.135046e+004
2.312529e+002, 1.144551e+004
2.317350e+002, 1.152783e+004
2.322171e+002, 1.158767e+004
2.326992e+002, 1.163060e+004
2.331813e+002, 1.167444e+004
2.336634e+002, 1.171222e+004
2.341456e+002, 1.176038e+004
2.346277e+002, 1.182901e+004
2.351098e+002, 1.190544e+004
2.355919e+002, 1.197629e+004
2.360740e+002, 1.203549e+004
2.365561e+002, 1.208466e+004
2.370383e+002, 1.212857e+004
2.375204e+002, 1.216438e+004
2.380025e+002, 1.219771e+004
2.384846e+002, 1.222119e+004
2.389667e+002, 1.224504e+004
2.394488e+002, 1.228477e+004
2.399310e+002, 1.234760e+004
2.404131e+002, 1.242186e+004
2.408952e+002, 1.247750e+004
2.413773e+002, 1.249394e+004
2.418594e+002, 1.252074e+004
2.423415e+002, 1.256902e+004
2.428237e+002, 1.262804e+004
2.433058e+002, 1.268386e+004
2.437879e+002, 1.273133e+004
2.442700e+002, 1.277482e+004
2.447521e+002, 1.282432e+004
2.452342e+002, 1.288167e+004
2.457164e+002, 1.294036e+004
2.461985e+002, 1.300522e+004
2.466806e+002, 1.306918e+004
2.471627e+002, 1.312231e+004
2.476448e+002, 1.316138e+004
2.481269e+002, 1.318979e+004
2.486091e+002, 1.320846e+004
2.490912e+002, 1.320739e+004
2.495733e+002, 1.323066e+004
2.500554e+002, 1.330409e+004
2.505375e+002, 1.340278e+004
2.510196e+002, 1.349001e+004
2.515018e+002, 1.355552e+004
2.519839e+002, 1.361050e+004
2.524660e+002, 1.366902e+004
2.529481e+002, 1.373117e+004
2.534302e+002, 1.379563e+004
2.539123e+002, 1.386048e+004
2.543945e+002, 1.392800e+004
2.548766e+002, 1.400275e+004
2.553587e+002, 1.408660e+004
2.558408e+002, 1.417504e+004
2.563229e+002, 1.426761e+004
2.568051e+002, 1.436368e+004
2.572872e+002, 1.444889e+004
2.577693e+002, 1.450462e+004
2.582514e+002, 1.455116e+004
2.587335e+002, 1.462320e+004
2.592156e+002, 1.472794e+004
2.596978e+002, 1.484676e+004
2.601799e+002, 1.496563e+004
2.606620e+002, 1.508503e+004
2.611441e+002, 1.520445e+004
2.616262e+002, 1.532735e+004
2.621083e+002, 1.544912e+004
2.625905e+002, 1.555979e+004
2.630726e+002, 1.565332e+004
2.635547e+002, 1.575275e+004
2.640368e+002, 1.588061e+004
2.645189e+002, 1.602709e+004
2.650010e+002, 1.617360e+004
2.654832e+002, 1.631761e+004
2.659653e+002, 1.645712e+004
2.664474e+002, 1.658770e+004
2.669295e+002, 1.670767e+004
2.674116e+002, 1.682420e+004
2.678937e+002, 1.693556e+004
2.683759e+002, 1.704748e+004
2.688580e+002, 1.717050e+004
2.693401e+002, 1.731250e+004
2.698222e+002, 1.746247e+004
2.703043e+002, 1.760449e+004
2.707864e+002, 1.773742e+004
2.712686e+002, 1.786720e+004
2.717507e+002, 1.800327e+004
2.722328e+002, 1.813620e+004
2.727149e+002, 1.825437e+004
2.731970e+002, 1.835425e+004
2.736791e+002, 1.844037e+004
2.741613e+002, 1.851254e+004
2.746434e+002, 1.856679e+004
2.751255e+002, 1.863032e+004
2.756076e+002, 1.872824e+004
2.760897e+002, 1.883313e+004
2.765718e+002, 1.892334e+004
2.770540e+002, 1.899323e+004
2.775361e+002, 1.905396e+004
2.780182e+002, 1.912169e+004
2.785003e+002, 1.919919e+004
2.789824e+002, 1.926373e+004
2.794645e+002, 1.930147e+004
2.799467e+002, 1.932867e+004
2.804288e+002, 1.935240e+004
2.809109e+002, 1.937407e+004
2.813930e+002, 1.939814e+004
2.818751e+002, 1.942853e+004
2.823572e+002, 1.946521e+004
2.828394e+002, 1.950880e+004
2.833215e+002, 1.957711e+004
2.838036e+002, 1.963738e+004
2.842857e+002, 1.966616e+004
2.847678e+002, 1.966509e+004
2.852499e+002, 1.965743e+004
2.857321e+002, 1.966456e+004
2.862142e+002, 1.968685e+004
2.866963e+002, 1.970304e+004
2.871784e+002, 1.970842e+004
2.876605e+002, 1.971008e+004
2.881426e+002, 1.971450e+004
2.886248e+002, 1.971877e+004
2.891069e+002, 1.971360e+004
2.895890e+002, 1.968609e+004
2.900711e+002, 1.963881e+004
2.905532e+002, 1.960900e+004
2.910353e+002, 1.961365e+004
2.915175e+002, 1.961497e+004
2.919996e+002, 1.959803e+004
2.924817e+002, 1.956735e+004
2.929638e+002, 1.953199e+004
2.934459e+002, 1.949671e+004
2.939280e+002, 1.946134e+004
2.944102e+002, 1.942817e+004
2.948923e+002, 1.941033e+004
2.953744e+002, 1.937258e+004
2.958565e+002, 1.929747e+004
2.963386e+002, 1.920189e+004
2.968207e+002, 1.910532e+004
2.973029e+002, 1.901581e+004
2.977850e+002, 1.893544e+004
2.982671e+002, 1.887137e+004
2.987492e+002, 1.883225e+004
2.992313e+002, 1.879318e+004
2.997134e+002, 1.875632e+004
3.001956e+002, 1.871333e+004
3.006777e+002, 1.865526e+004
3.011598e+002, 1.857881e+004
3.016419e+002, 1.849094e+004
3.021240e+002, 1.840050e+004
3.026061e+002, 1.830115e+004
3.030883e+002, 1.821762e+004
3.035704e+002, 1.815870e+004
3.040525e+002, 1.811122e+004
3.045346e+002, 1.807079e+004
3.050167e+002, 1.803509e+004
3.054988e+002, 1.799813e+004
3.059810e+002, 1.794993e+004
3.064631e+002, 1.788581e+004
3.069452e+002, 1.783166e+004
3.074273e+002, 1.779952e+004
3.079094e+002, 1.776930e+004
3.083915e+002, 1.772930e+004
3.088737e+002, 1.768109e+004
3.093558e+002, 1.763490e+004
3.098379e+002, 1.759979e+004
3.103200e+002, 1.757575e+004
3.108021e+002, 1.756030e+004
3.112842e+002, 1.756583e+004
3.117664e+002, 1.756755e+004
3.122485e+002, 1.755229e+004
3.127306e+002, 1.752634e+004
3.132127e+002, 1.750425e+004
3.136948e+002, 1.749730e+004
3.141769e+002, 1.750255e+004
3.146591e+002, 1.750023e+004
3.151412e+002, 1.747392e+004
3.156233e+002, 1.746423e+004
3.161054e+002, 1.748664e+004
3.165875e+002, 1.752963e+004
3.170696e+002, 1.757938e+004
3.175518e+002, 1.763025e+004
3.180339e+002, 1.768122e+004
3.185160e+002, 1.772940e+004
3.189981e+002, 1.777574e+004
3.194802e+002, 1.781731e+004
3.199623e+002, 1.784509e+004
3.204445e+002, 1.787342e+004
3.209266e+002, 1.791469e+004
3.214087e+002, 1.797286e+004
3.218908e+002, 1.804286e+004
3.223729e+002, 1.811674e+004
3.228550e+002, 1.819366e+004
3.233372e+002, 1.827825e+004
3.238193e+002, 1.837939e+004
3.243014e+002, 1.848211e+004
3.247835e+002, 1.857676e+004
3.252656e+002, 1.866270e+004
3.257477e+002, 1.874868e+004
3.262299e+002, 1.884591e+004
3.267120e+002, 1.895585e+004
3.271941e+002, 1.905694e+004
3.276762e+002, 1.914296e+004
3.281583e+002, 1.922436e+004
3.286404e+002, 1.930067e+004
3.291226e+002, 1.937543e+004
3.296047e+002, 1.945802e+004
3.300868e+002, 1.956078e+004
3.305689e+002, 1.967832e+004
3.310510e+002, 1.977249e+004
3.315331e+002, 1.982415e+004
3.320153e+002, 1.988045e+004
3.324974e+002, 1.996013e+004
3.329795e+002, 2.005459e+004
3.334616e+002, 2.015338e+004
3.339437e+002, 2.025459e+004
3.344258e+002, 2.035267e+004
3.349080e+002, 2.043311e+004
3.353901e+002, 2.049209e+004
3.358722e+002, 2.054485e+004
3.363543e+002, 2.058557e+004
3.368365e+002, 2.062870e+004
3.373186e+002, 2.069026e+004
3.378007e+002, 2.077532e+004
3.382828e+002, 2.086728e+004
3.387649e+002, 2.094464e+004
3.392470e+002, 2.100458e+004
3.397292e+002, 2.106941e+004
3.402113e+002, 2.115848e+004
3.406934e+002, 2.124063e+004
3.411755e+002, 2.128576e+004
3.416576e+002, 2.129663e+004
3.421397e+002, 2.131409e+004
3.426219e+002, 2.138774e+004
3.431040e+002, 2.150861e+004
3.435861e+002, 2.157841e+004
3.440682e+002, 2.155466e+004
3.445503e+002, 2.152665e+004
3.450324e+002, 2.154963e+004
3.455146e+002, 2.160929e+004
3.459967e+002, 2.167110e+004
3.464788e+002, 2.172769e+004
3.469609e+002, 2.177055e+004
3.474430e+002, 2.177238e+004
3.479251e+002, 2.171912e+004
3.484073e+002, 2.166378e+004
3.488894e+002, 2.163702e+004
3.493715e+002, 2.162235e+004
3.498536e+002, 2.160064e+004
3.503357e+002, 2.156668e+004
3.508178e+002, 2.152463e+004
3.513000e+002, 2.147867e+004
3.517821e+002, 2.142898e+004
3.522642e+002, 2.137624e+004
3.527463e+002, 2.132016e+004
3.532284e+002, 2.126124e+004
3.537105e+002, 2.120173e+004
3.541927e+002, 2.114242e+004
3.546748e+002, 2.107665e+004
3.551569e+002, 2.099394e+004
3.556390e+002, 2.089916e+004
3.561211e+002, 2.081613e+004
3.566032e+002, 2.075796e+004
3.570854e+002, 2.069676e+004
3.575675e+002, 2.059953e+004
3.580496e+002, 2.047327e+004
3.585317e+002, 2.035494e+004
3.590138e+002, 2.026440e+004
3.594959e+002, 2.018801e+004
3.599781e+002, 2.010601e+004
3.604602e+002, 2.001876e+004
3.609423e+002, 1.991913e+004
3.614244e+002, 1.979222e+004
3.619065e+002, 1.965068e+004
3.623886e+002, 1.952563e+004
3.628708e+002, 1.942709e+004
3.633529e+002, 1.934054e+004
3.638350e+002, 1.926164e+004
3.643171e+002, 1.918827e+004
3.647992e+002, 1.910317e+004
3.652813e+002, 1.899421e+004
3.657635e+002, 1.887404e+004
3.662456e+002, 1.876788e+004
3.667277e+002, 1.868101e+004
3.672098e+002, 1.859257e+004
3.676919e+002, 1.849237e+004
3.681740e+002, 1.838514e+004
3.686562e+002, 1.828059e+004
3.691383e+002, 1.818167e+004
3.696204e+002, 1.808262e+004
3.701025e+002, 1.797484e+004
3.705846e+002, 1.785799e+004
3.710667e+002, 1.774453e+004
3.715489e+002, 1.763417e+004
3.720310e+002, 1.752891e+004
3.725131e+002, 1.743650e+004
3.729952e+002, 1.735498e+004
3.734773e+002, 1.726604e+004
3.739594e+002, 1.715238e+004
3.744416e+002, 1.701749e+004
3.749237e+002, 1.690658e+004
3.754058e+002, 1.683637e+004
3.758879e+002, 1.676948e+004
3.763700e+002, 1.669203e+004
3.768521e+002, 1.660681e+004
3.773343e+002, 1.652088e+004
3.778164e+002, 1.643726e+004
3.782985e+002, 1.635478e+004
3.787806e+002, 1.627048e+004
3.792627e+002, 1.617860e+004
3.797448e+002, 1.609462e+004
3.802270e+002, 1.602437e+004
3.807091e+002, 1.596009e+004
3.811912e+002, 1.589596e+004
3.816733e+002, 1.582998e+004
3.821554e+002, 1.576020e+004
3.826375e+002, 1.568226e+004
3.831197e+002, 1.559262e+004
3.836018e+002, 1.551394e+004
3.840839e+002, 1.545129e+004
3.845660e+002, 1.539267e+004
3.850481e+002, 1.533146e+004
3.855302e+002, 1.526963e+004
3.860124e+002, 1.521474e+004
3.864945e+002, 1.517267e+004
3.869766e+002, 1.513972e+004
3.874587e+002, 1.509520e+004
3.879408e+002, 1.502321e+004
3.884229e+002, 1.495835e+004
3.889051e+002, 1.490767e+004
3.893872e+002, 1.486418e+004
3.898693e+002, 1.482205e+004
3.903514e+002, 1.477903e+004
3.908335e+002, 1.473309e+004
3.913156e+002, 1.468079e+004
3.917978e+002, 1.461959e+004
3.922799e+002, 1.455867e+004
3.927620e+002, 1.448534e+004
3.932441e+002, 1.442287e+004
3.937262e+002, 1.438993e+004
3.942083e+002, 1.438062e+004
3.946905e+002, 1.437203e+004
3.951726e+002, 1.434480e+004
3.956547e+002, 1.430114e+004
3.961368e+002, 1.426463e+004
3.966189e+002, 1.424298e+004
3.971010e+002, 1.421757e+004
3.975832e+002, 1.418402e+004
3.980653e+002, 1.414324e+004
3.985474e+002, 1.409477e+004
3.990295e+002, 1.403687e+004
3.995116e+002, 1.397743e+004
3.999937e+002, 1.392925e+004
4.004759e+002, 1.389381e+004
4.009580e+002, 1.386249e+004
4.014401e+002, 1.384033e+004
4.019222e+002, 1.381664e+004
4.024043e+002, 1.378143e+004
4.028864e+002, 1.373497e+004
4.033686e+002, 1.368983e+004
4.038507e+002, 1.365526e+004
4.043328e+002, 1.362969e+004
4.048149e+002, 1.360599e+004
4.052970e+002, 1.358268e+004
4.057791e+002, 1.356372e+004
4.062613e+002, 1.356061e+004
4.067434e+002, 1.356333e+004
4.072255e+002, 1.354944e+004
4.077076e+002, 1.350107e+004
4.081897e+002, 1.344368e+004
4.086718e+002, 1.340928e+004
4.091540e+002, 1.339674e+004
4.096361e+002, 1.337900e+004
4.101182e+002, 1.334503e+004
4.106003e+002, 1.329847e+004
4.110824e+002, 1.324419e+004
4.115645e+002, 1.317732e+004
4.120467e+002, 1.312071e+004
4.125288e+002, 1.308887e+004
4.130109e+002, 1.307270e+004
4.134930e+002, 1.306096e+004
4.139751e+002, 1.305300e+004
4.144572e+002, 1.303422e+004
4.149394e+002, 1.298227e+004
4.154215e+002, 1.289552e+004
4.159036e+002, 1.283504e+004
4.163857e+002, 1.282915e+004
4.168678e+002, 1.282810e+004
4.173499e+002, 1.279989e+004
4.178321e+002, 1.274841e+004
4.183142e+002, 1.269176e+004
4.187963e+002, 1.263992e+004
4.192784e+002, 1.259087e+004
4.197605e+002, 1.253785e+004
4.202426e+002, 1.247016e+004
4.207248e+002, 1.241310e+004
4.212069e+002, 1.238016e+004
4.216890e+002, 1.235370e+004
4.221711e+002, 1.231615e+004
4.226532e+002, 1.226350e+004
4.231353e+002, 1.220158e+004
4.236175e+002, 1.213564e+004
4.240996e+002, 1.206266e+004
4.245817e+002, 1.200250e+004
4.250638e+002, 1.196722e+004
4.255459e+002, 1.193098e+004
4.260280e+002, 1.187697e+004
4.265102e+002, 1.181464e+004
4.269923e+002, 1.176614e+004
4.274744e+002, 1.174594e+004
4.279565e+002, 1.174243e+004
4.284386e+002, 1.171718e+004
4.289207e+002, 1.166005e+004
4.294029e+002, 1.159791e+004
4.298850e+002, 1.152686e+004
4.303671e+002, 1.145814e+004
4.308492e+002, 1.140299e+004
4.313313e+002, 1.136224e+004
4.318134e+002, 1.132679e+004
4.322956e+002, 1.128838e+004
4.327777e+002, 1.124690e+004
4.332598e+002, 1.120272e+004
4.337419e+002, 1.115690e+004
4.342241e+002, 1.110671e+004
4.347062e+002, 1.104978e+004
4.351883e+002, 1.098809e+004
4.356704e+002, 1.092518e+004
4.361525e+002, 1.086100e+004
4.366346e+002, 1.079857e+004
4.371168e+002, 1.074241e+004
4.375989e+002, 1.069271e+004
4.380810e+002, 1.064882e+004
4.385631e+002, 1.061586e+004
4.390452e+002, 1.058492e+004
4.395273e+002, 1.054776e+004
4.400095e+002, 1.050443e+004
4.404916e+002, 1.045128e+004
4.409737e+002, 1.037945e+004
4.414558e+002, 1.029759e+004
4.419379e+002, 1.022401e+004
4.424200e+002, 1.016116e+004
4.429022e+002, 1.010393e+004
4.433843e+002, 1.004809e+004
4.438664e+002, 9.994165e+003
4.443485e+002, 9.943323e+003
4.448306e+002, 9.897523e+003
4.453127e+002, 9.852803e+003
4.457949e+002, 9.808975e+003
4.462770e+002, 9.764386e+003
4.467591e+002, 9.713594e+003
4.472412e+002, 9.653367e+003
4.477233e+002, 9.589117e+003
4.482054e+002, 9.531093e+003
4.486876e+002, 9.482454e+003
4.491697e+002, 9.432443e+003
4.496518e+002, 9.382267e+003
4.501339e+002, 9.329698e+003
4.506160e+002, 9.270237e+003
4.510981e+002, 9.205838e+003
4.515803e+002, 9.144779e+003
4.520624e+002, 9.095163e+003
4.525445e+002, 9.055661e+003
4.530266e+002, 9.009917e+003
4.535087e+002, 8.940970e+003
4.539908e+002, 8.885672e+003
4.544730e+002, 8.867986e+003
4.549551e+002, 8.858393e+003
4.554372e+002, 8.819354e+003
4.559193e+002, 8.740896e+003
4.564014e+002, 8.650611e+003
4.568835e+002, 8.587691e+003
4.573657e+002, 8.557600e+003
4.578478e+002, 8.530938e+003
4.583299e+002, 8.524625e+003
4.588120e+002, 8.503984e+003
4.592941e+002, 8.438659e+003
4.597762e+002, 8.347372e+003
4.602584e+002, 8.275567e+003
4.607405e+002, 8.254460e+003
4.612226e+002, 8.260733e+003
4.617047e+002, 8.245154e+003
4.621868e+002, 8.204203e+003
4.626689e+002, 8.158105e+003
4.631511e+002, 8.114648e+003
4.636332e+002, 8.068237e+003
4.641153e+002, 8.011021e+003
4.645974e+002, 7.941423e+003
4.650795e+002, 7.873971e+003
4.655616e+002, 7.816847e+003
4.660438e+002, 7.768041e+003
4.665259e+002, 7.722957e+003
4.670080e+002, 7.681581e+003
4.674901e+002, 7.642525e+003
4.679722e+002, 7.607326e+003
4.684543e+002, 7.573903e+003
4.689365e+002, 7.532795e+003
4.694186e+002, 7.467404e+003
4.699007e+002, 7.410716e+003
4.703828e+002, 7.393583e+003
4.708649e+002, 7.397134e+003
4.713470e+002, 7.376947e+003
4.718292e+002, 7.315963e+003
4.723113e+002, 7.238655e+003
4.727934e+002, 7.181382e+003
4.732755e+002, 7.151541e+003
4.737576e+002, 7.124149e+003
4.742397e+002, 7.097377e+003
4.747219e+002, 7.074473e+003
4.752040e+002, 7.060386e+003
4.756861e+002, 7.052104e+003
4.761682e+002, 7.041337e+003
4.766503e+002, 7.022643e+003
4.771324e+002, 6.998100e+003
4.776146e+002, 6.976217e+003
4.780967e+002, 6.958560e+003
4.785788e+002, 6.940902e+003
4.790609e+002, 6.926041e+003
4.795430e+002, 6.908871e+003
4.800251e+002, 6.883654e+003
4.805073e+002, 6.850800e+003
4.809894e+002, 6.816835e+003
4.814715e+002, 6.786840e+003
4.819536e+002, 6.760971e+003
4.824357e+002, 6.743125e+003
4.829178e+002, 6.743757e+003
4.834000e+002, 6.733787e+003
4.838821e+002, 6.694465e+003
4.843642e+002, 6.640145e+003
4.848463e+002, 6.586703e+003
4.853284e+002, 6.535298e+003
4.858105e+002, 6.495380e+003
4.862927e+002, 6.483475e+003
4.867748e+002, 6.494196e+003
4.872569e+002, 6.494371e+003
4.877390e+002, 6.475909e+003
4.882211e+002, 6.447356e+003
4.887032e+002, 6.415224e+003
4.891854e+002, 6.379982e+003
4.896675e+002, 6.344630e+003
4.901496e+002, 6.307440e+003
4.906317e+002, 6.272214e+003
4.911138e+002, 6.243777e+003
4.915959e+002, 6.220734e+003
4.920781e+002, 6.197378e+003
4.925602e+002, 6.171162e+003
4.930423e+002, 6.143062e+003
4.935244e+002, 6.114203e+003
4.940065e+002, 6.077050e+003
4.944886e+002, 6.054706e+003
4.949708e+002, 6.068541e+003
4.954529e+002, 6.081821e+003
4.959350e+002, 6.061876e+003
4.964171e+002, 6.012650e+003
4.968992e+002, 5.962467e+003
4.973813e+002, 5.932783e+003
4.978635e+002, 5.920521e+003
4.983456e+002, 5.906692e+003
4.988277e+002, 5.897455e+003
4.993098e+002, 5.876119e+003
4.997919e+002, 5.825511e+003
5.002740e+002, 5.772098e+003
5.007562e+002, 5.742205e+003
5.012383e+002, 5.738834e+003
5.017204e+002, 5.740088e+003
5.022025e+002, 5.726001e+003
5.026846e+002, 5.697429e+003
5.031667e+002, 5.661680e+003
5.036489e+002, 5.614637e+003
5.041310e+002, 5.569069e+003
5.046131e+002, 5.529514e+003
5.050952e+002, 5.496510e+003
5.055773e+002, 5.472427e+003
5.060594e+002, 5.460072e+003
5.065416e+002, 5.451143e+003
5.070237e+002, 5.440304e+003
5.075058e+002, 5.427556e+003
5.079879e+002, 5.413299e+003
5.084700e+002, 5.398040e+003
5.089521e+002, 5.379455e+003
5.094343e+002, 5.351697e+003
5.099164e+002, 5.315070e+003
5.103985e+002, 5.289401e+003
5.108806e+002, 5.281508e+003
5.113627e+002, 5.279456e+003
5.118448e+002, 5.282649e+003
5.123270e+002, 5.286134e+003
5.128091e+002, 5.279099e+003
5.132912e+002, 5.256736e+003
5.137733e+002, 5.224722e+003
5.142554e+002, 5.191866e+003
5.147375e+002, 5.150355e+003
5.152197e+002, 5.127759e+003
5.157018e+002, 5.138017e+003
5.161839e+002, 5.151378e+003
5.166660e+002, 5.153013e+003
5.171481e+002, 5.144834e+003
5.176302e+002, 5.135488e+003
5.181124e+002, 5.130365e+003
5.185945e+002, 5.126426e+003
5.190766e+002, 5.112923e+003
5.195587e+002, 5.082353e+003
5.200408e+002, 5.066438e+003
5.205229e+002, 5.092736e+003
5.210051e+002, 5.120321e+003
5.214872e+002, 5.118518e+003
5.219693e+002, 5.089823e+003
5.224514e+002, 5.062069e+003
5.229335e+002, 5.053397e+003
5.234156e+002, 5.055783e+003
5.238978e+002, 5.055341e+003
5.243799e+002, 5.051923e+003
5.248620e+002, 5.046833e+003
5.253441e+002, 5.041185e+003
5.258262e+002, 5.033970e+003
5.263083e+002, 5.020971e+003
5.267905e+002, 4.996672e+003
5.272726e+002, 4.984973e+003
5.277547e+002, 5.006329e+003
5.282368e+002, 5.036187e+003
5.287189e+002, 5.045088e+003
5.292010e+002, 5.032186e+003
5.296832e+002, 5.018015e+003
5.301653e+002, 5.018315e+003
5.306474e+002, 5.030373e+003
5.311295e+002, 5.035760e+003
5.316116e+002, 5.029639e+003
5.320938e+002, 5.022261e+003
5.325759e+002, 5.008450e+003
5.330580e+002, 4.997270e+003
5.335401e+002, 5.002553e+003
5.340222e+002, 5.022483e+003
5.345043e+002, 5.035825e+003
5.349865e+002, 5.016025e+003
5.354686e+002, 4.968078e+003
5.359507e+002, 4.953667e+003
5.364328e+002, 4.993202e+003
5.369149e+002, 5.028059e+003
5.373970e+002, 5.031511e+003
5.378792e+002, 5.022422e+003
5.383613e+002, 5.021622e+003
5.388434e+002, 5.034213e+003
5.393255e+002, 5.043047e+003
5.398076e+002, 5.027336e+003
5.402897e+002, 4.998607e+003
5.407719e+002, 4.989506e+003
5.412540e+002, 5.005921e+003
5.417361e+002, 5.028771e+003
5.422182e+002, 5.046254e+003
5.427003e+002, 5.058740e+003
5.431824e+002, 5.069666e+003
5.436646e+002, 5.079480e+003
5.441467e+002, 5.087148e+003
5.446288e+002, 5.092844e+003
5.451109e+002, 5.095961e+003
5.455930e+002, 5.092797e+003
5.460751e+002, 5.083681e+003
5.465573e+002, 5.077648e+003
5.470394e+002, 5.083767e+003
5.475215e+002, 5.102160e+003
5.480036e+002, 5.127117e+003
5.484857e+002, 5.179406e+003
5.489678e+002, 5.214239e+003
5.494500e+002, 5.208475e+003
5.499321e+002, 5.188593e+003
5.504142e+002, 5.185000e+003
5.508963e+002, 5.205021e+003
5.513784e+002, 5.230479e+003
5.518605e+002, 5.239553e+003
5.523427e+002, 5.233781e+003
5.528248e+002, 5.236317e+003
5.533069e+002, 5.248805e+003
5.537890e+002, 5.267718e+003
5.542711e+002, 5.297504e+003
5.547532e+002, 5.330518e+003
5.552354e+002, 5.355383e+003
5.557175e+002, 5.369336e+003
5.561996e+002, 5.377469e+003
5.566817e+002, 5.376639e+003
5.571638e+002, 5.373590e+003
5.576459e+002, 5.384922e+003
5.581281e+002, 5.413864e+003
5.586102e+002, 5.443853e+003
5.590923e+002, 5.459089e+003
5.595744e+002, 5.460776e+003
5.600565e+002, 5.474046e+003
5.605386e+002, 5.509968e+003
5.610208e+002, 5.541728e+003
5.615029e+002, 5.563167e+003
5.619850e+002, 5.577344e+003
5.624671e+002, 5.586677e+003
5.629492e+002, 5.592431e+003
5.634313e+002, 5.596507e+003
5.639135e+002, 5.598897e+003
5.643956e+002, 5.599905e+003
5.648777e+002, 5.616256e+003
5.653598e+002, 5.660905e+003
5.658419e+002, 5.700457e+003
5.663240e+002, 5.723935e+003
5.668062e+002, 5.738354e+003
5.672883e+002, 5.746662e+003
5.677704e+002, 5.749158e+003
5.682525e+002, 5.760809e+003
5.687346e+002, 5.803069e+003
5.692167e+002, 5.862931e+003
5.696989e+002, 5.902033e+003
5.701810e+002, 5.915309e+003
5.706631e+002, 5.923215e+003
5.711452e+002, 5.935316e+003
5.716273e+002, 5.953078e+003
5.721094e+002, 5.979970e+003
5.725916e+002, 6.019101e+003
5.730737e+002, 6.060951e+003
5.735558e+002, 6.108950e+003
5.740379e+002, 6.154979e+003
5.745200e+002, 6.187144e+003
5.750021e+002, 6.205997e+003
5.754843e+002, 6.222909e+003
5.759664e+002, 6.246236e+003
5.764485e+002, 6.275827e+003
5.769306e+002, 6.311964e+003
5.774127e+002, 6.363260e+003
5.778948e+002, 6.406780e+003
5.783770e+002, 6.433652e+003
5.788591e+002, 6.456459e+003
5.793412e+002, 6.483308e+003
5.798233e+002, 6.515416e+003
5.803054e+002, 6.552159e+003
5.807875e+002, 6.596827e+003
5.812697e+002, 6.644282e+003
5.817518e+002, 6.681563e+003
5.822339e+002, 6.708531e+003
5.827161e+002, 6.725635e+003
5.831982e+002, 6.723250e+003
5.836803e+002, 6.720125e+003
5.841624e+002, 6.748649e+003
5.846445e+002, 6.812911e+003
5.851266e+002, 6.867600e+003
5.856088e+002, 6.895031e+003
5.860909e+002, 6.912667e+003
5.865730e+002, 6.935927e+003
5.870551e+002, 6.963412e+003
5.875372e+002, 6.984692e+003
5.880193e+002, 6.993379e+003
5.885015e+002, 6.998152e+003
5.889836e+002, 7.018686e+003
5.894657e+002, 7.063280e+003
5.899478e+002, 7.106039e+003
5.904299e+002, 7.149651e+003
5.909120e+002, 7.189222e+003
5.913942e+002, 7.220646e+003
5.918763e+002, 7.246225e+003
5.923584e+002, 7.270722e+003
5.928405e+002, 7.296482e+003
5.933226e+002, 7.321805e+003
5.938047e+002, 7.344806e+003
5.942869e+002, 7.365479e+003
5.947690e+002, 7.380940e+003
5.952511e+002, 7.386999e+003
5.957332e+002, 7.394238e+003
5.962153e+002, 7.417077e+003
5.966974e+002, 7.449693e+003
5.971796e+002, 7.471431e+003
5.976617e+002, 7.468180e+003
5.981438e+002, 7.465346e+003
5.986259e+002, 7.478997e+003
5.991080e+002, 7.501759e+003
5.995901e+002, 7.521938e+003
6.000723e+002, 7.536403e+003
6.005544e+002, 7.545734e+003
6.010365e+002, 7.548906e+003
6.015186e+002, 7.545593e+003
6.020007e+002, 7.554842e+003
6.024828e+002, 7.602088e+003
6.029650e+002, 7.630845e+003
6.034471e+002, 7.618166e+003
6.039292e+002, 7.590745e+003
6.044113e+002, 7.574031e+003
6.048934e+002, 7.573037e+003
6.053755e+002, 7.578020e+003
6.058577e+002, 7.581156e+003
6.063398e+002, 7.583465e+003
6.068219e+002, 7.590692e+003
6.073040e+002, 7.604769e+003
6.077861e+002, 7.612053e+003
6.082682e+002, 7.602693e+003
6.087504e+002, 7.585451e+003
6.092325e+002, 7.577165e+003
6.097146e+002, 7.580715e+003
6.101967e+002, 7.577066e+003
6.106788e+002, 7.552166e+003
6.111609e+002, 7.524701e+003
6.116431e+002, 7.516358e+003
6.121252e+002, 7.521371e+003
6.126073e+002, 7.515053e+003
6.130894e+002, 7.483596e+003
6.135715e+002, 7.440950e+003
6.140536e+002, 7.418886e+003
6.145358e+002, 7.429577e+003
6.150179e+002, 7.431171e+003
6.155000e+002, 7.415286e+003
6.159821e+002, 7.398656e+003
6.164642e+002, 7.385413e+003
6.169464e+002, 7.377089e+003
6.174285e+002, 7.377746e+003
6.179106e+002, 7.391835e+003
6.183927e+002, 7.403951e+003
6.188748e+002, 7.394306e+003
6.193569e+002, 7.366419e+003
6.198391e+002, 7.336840e+003
6.203212e+002, 7.306122e+003
6.208033e+002, 7.282874e+003
6.212854e+002, 7.277452e+003
6.217675e+002, 7.286364e+003
6.222496e+002, 7.287570e+003
6.227318e+002, 7.278766e+003
6.232139e+002, 7.265438e+003
6.236960e+002, 7.241043e+003
6.241781e+002, 7.217501e+003
6.246602e+002, 7.208986e+003
6.251423e+002, 7.215869e+003
6.256245e+002, 7.229529e+003
6.261066e+002, 7.244940e+003
6.265887e+002, 7.259198e+003
6.270708e+002, 7.256689e+003
6.275529e+002, 7.225708e+003
6.280350e+002, 7.206488e+003
6.285172e+002, 7.217438e+003
6.289993e+002, 7.235113e+003
6.294814e+002, 7.244750e+003
6.299635e+002, 7.247216e+003
6.304456e+002, 7.251771e+003
6.309277e+002, 7.271288e+003
6.314099e+002, 7.287499e+003
6.318920e+002, 7.272208e+003
6.323741e+002, 7.234179e+003
6.328562e+002, 7.211007e+003
6.333383e+002, 7.215809e+003
6.338204e+002, 7.229348e+003
6.343026e+002, 7.227848e+003
6.347847e+002, 7.208532e+003
6.352668e+002, 7.200696e+003
6.357489e+002, 7.209769e+003
6.362310e+002, 7.221923e+003
6.367131e+002, 7.234053e+003
6.371953e+002, 7.246580e+003
6.376774e+002, 7.260760e+003
6.381595e+002, 7.276501e+003
6.386416e+002, 7.291560e+003
6.391237e+002, 7.301975e+003
6.396058e+002, 7.309623e+003
6.400880e+002, 7.326897e+003
6.405701e+002, 7.357701e+003
6.410522e+002, 7.381979e+003
6.415343e+002, 7.389271e+003
6.420164e+002, 7.388037e+003
6.424985e+002, 7.389944e+003
6.429807e+002, 7.395277e+003
6.434628e+002, 7.400055e+003
6.439449e+002, 7.403523e+003
6.444270e+002, 7.405853e+003
6.449091e+002, 7.404100e+003
6.453912e+002, 7.401478e+003
6.458734e+002, 7.407737e+003
6.463555e+002, 7.426799e+003
6.468376e+002, 7.449667e+003
6.473197e+002, 7.462002e+003
6.478018e+002, 7.461934e+003
6.482839e+002, 7.461981e+003
6.487661e+002, 7.460390e+003
6.492482e+002, 7.461119e+003
6.497303e+002, 7.468407e+003
6.502124e+002, 7.477136e+003
6.506945e+002, 7.478404e+003
6.511766e+002, 7.469998e+003
6.516588e+002, 7.466967e+003
6.521409e+002, 7.488843e+003
6.526230e+002, 7.521685e+003
6.531051e+002, 7.535142e+003
6.535872e+002, 7.527917e+003
6.540693e+002, 7.517522e+003
6.545515e+002, 7.512065e+003
6.550336e+002, 7.510451e+003
6.555157e+002, 7.511051e+003
6.559978e+002, 7.518095e+003
6.564799e+002, 7.516727e+003
6.569620e+002, 7.496639e+003
6.574442e+002, 7.478251e+003
6.579263e+002, 7.474124e+003
6.584084e+002, 7.479144e+003
6.588905e+002, 7.484877e+003
6.593726e+002, 7.487861e+003
6.598547e+002, 7.484379e+003
6.603369e+002, 7.465536e+003
6.608190e+002, 7.432867e+003
6.613011e+002, 7.410657e+003
6.617832e+002, 7.405172e+003
6.622653e+002, 7.395652e+003
6.627474e+002, 7.366086e+003
6.632296e+002, 7.326829e+003
6.637117e+002, 7.298746e+003
6.641938e+002, 7.284391e+003
6.646759e+002, 7.273426e+003
6.651580e+002, 7.264674e+003
6.656401e+002, 7.256397e+003
6.661223e+002, 7.251946e+003
6.666044e+002, 7.246949e+003
6.670865e+002, 7.228412e+003
6.675686e+002, 7.189308e+003
6.680507e+002, 7.137505e+003
6.685328e+002, 7.083804e+003
6.690150e+002, 7.022656e+003
6.694971e+002, 6.985379e+003
6.699792e+002, 7.001231e+003
6.704613e+002, 7.004064e+003
6.709434e+002, 6.951545e+003
6.714255e+002, 6.874050e+003
6.719077e+002, 6.818442e+003
6.723898e+002, 6.797590e+003
6.728719e+002, 6.782314e+003
6.733540e+002, 6.760124e+003
6.738361e+002, 6.729058e+003
6.743182e+002, 6.679116e+003
6.748004e+002, 6.613206e+003
6.752825e+002, 6.558375e+003
6.757646e+002, 6.531671e+003
6.762467e+002, 6.520643e+003
6.767288e+002, 6.495850e+003
6.772109e+002, 6.447732e+003
6.776931e+002, 6.407871e+003
6.781752e+002, 6.388175e+003
6.786573e+002, 6.363356e+003
6.791394e+002, 6.317999e+003
6.796215e+002, 6.261618e+003
6.801036e+002, 6.208682e+003
6.805858e+002, 6.163737e+003
6.810679e+002, 6.128441e+003
6.815500e+002, 6.114277e+003
6.820321e+002, 6.110458e+003
6.825142e+002, 6.082262e+003
6.829963e+002, 6.025912e+003
6.834785e+002, 5.967158e+003
6.839606e+002, 5.918222e+003
6.844427e+002, 5.877938e+003
6.849248e+002, 5.844024e+003
6.854069e+002, 5.821753e+003
6.858890e+002, 5.793587e+003
6.863712e+002, 5.757513e+003
6.868533e+002, 5.717281e+003
6.873354e+002, 5.673415e+003
6.878175e+002, 5.627202e+003
6.882996e+002, 5.578864e+003
6.887817e+002, 5.528618e+003
6.892639e+002, 5.481456e+003
6.897460e+002, 5.443173e+003
6.902281e+002, 5.413323e+003
6.907102e+002, 5.393979e+003
6.911923e+002, 5.389854e+003
6.916744e+002, 5.374769e+003
6.921566e+002, 5.330670e+003
6.926387e+002, 5.271204e+003
6.931208e+002, 5.223041e+003
6.936029e+002, 5.186569e+003
6.940850e+002, 5.156206e+003
6.945671e+002, 5.138587e+003
6.950493e+002, 5.119581e+003
6.955314e+002, 5.087636e+003
6.960135e+002, 5.047943e+003
6.964956e+002, 5.010602e+003
6.969777e+002, 4.979497e+003
6.974598e+002, 4.952914e+003
6.979420e+002, 4.929543e+003
6.984241e+002, 4.909277e+003
6.989062e+002, 4.890370e+003
6.993883e+002, 4.874510e+003
6.998704e+002, 4.855353e+003
7.003525e+002, 4.830966e+003
7.008347e+002, 4.801361e+003
7.013168e+002, 4.765505e+003
7.017989e+002, 4.722908e+003
7.022810e+002, 4.682984e+003
7.027631e+002, 4.646378e+003
7.032452e+002, 4.615419e+003
7.037274e+002, 4.597522e+003
7.042095e+002, 4.585460e+003
7.046916e+002, 4.564460e+003
7.051737e+002, 4.530241e+003
7.056558e+002, 4.490926e+003
7.061379e+002, 4.455116e+003
7.066201e+002, 4.422889e+003
7.071022e+002, 4.396124e+003
7.075843e+002, 4.375456e+003
7.080664e+002, 4.358604e+003
7.085485e+002, 4.349898e+003
7.090306e+002, 4.341008e+003
7.095128e+002, 4.324519e+003
7.099949e+002, 4.300414e+003
7.104770e+002, 4.272885e+003
7.109591e+002, 4.239421e+003
7.114412e+002, 4.206684e+003
7.119233e+002, 4.179946e+003
7.124055e+002, 4.157453e+003
7.128876e+002, 4.137608e+003
7.133697e+002, 4.119475e+003
7.138518e+002, 4.098422e+003
7.143339e+002, 4.069195e+003
7.148160e+002, 4.033479e+003
7.152982e+002, 4.003822e+003
7.157803e+002, 3.981084e+003
7.162624e+002, 3.962542e+003
7.167445e+002, 3.956006e+003
7.172266e+002, 3.946164e+003
7.177087e+002, 3.919971e+003
7.181909e+002, 3.880546e+003
7.186730e+002, 3.841720e+003
7.191551e+002, 3.802985e+003
7.196372e+002, 3.772374e+003
7.201193e+002, 3.761335e+003
7.206014e+002, 3.759779e+003
7.210836e+002, 3.750430e+003
7.215657e+002, 3.730845e+003
7.220478e+002, 3.708537e+003
7.225299e+002, 3.689211e+003
7.230120e+002, 3.671425e+003
7.234941e+002, 3.650533e+003
7.239763e+002, 3.625923e+003
7.244584e+002, 3.599516e+003
7.249405e+002, 3.565548e+003
7.254226e+002, 3.536274e+003
7.259047e+002, 3.522287e+003
7.263868e+002, 3.517007e+003
7.268690e+002, 3.506485e+003
7.273511e+002, 3.487370e+003
7.278332e+002, 3.463160e+003
7.283153e+002, 3.432477e+003
7.287974e+002, 3.399978e+003
7.292795e+002, 3.371306e+003
7.297617e+002, 3.346968e+003
7.302438e+002, 3.325208e+003
7.307259e+002, 3.304849e+003
7.312080e+002, 3.287390e+003
7.316901e+002, 3.277956e+003
7.321722e+002, 3.281614e+003
7.326544e+002, 3.271450e+003
7.331365e+002, 3.236321e+003
7.336186e+002, 3.202464e+003
7.341007e+002, 3.184054e+003
7.345828e+002, 3.171298e+003
7.350649e+002, 3.150165e+003
7.355471e+002, 3.117804e+003
7.360292e+002, 3.090451e+003
7.365113e+002, 3.084368e+003
7.369934e+002, 3.080116e+003
7.374755e+002, 3.055146e+003
7.379576e+002, 3.015445e+003
7.384398e+002, 2.978128e+003
7.389219e+002, 2.949402e+003
7.394040e+002, 2.931092e+003
7.398861e+002, 2.928071e+003
7.403682e+002, 2.939869e+003
7.408503e+002, 2.938486e+003
7.413325e+002, 2.920037e+003
7.418146e+002, 2.896385e+003
7.422967e+002, 2.864646e+003
7.427788e+002, 2.833655e+003
7.432609e+002, 2.812381e+003
7.437430e+002, 2.799779e+003
7.442252e+002, 2.785922e+003
7.447073e+002, 2.767260e+003
7.451894e+002, 2.746901e+003
7.456715e+002, 2.724802e+003
7.461536e+002, 2.703274e+003
7.466357e+002, 2.686541e+003
7.471179e+002, 2.674934e+003
7.476000e+002, 2.666009e+003
7.480821e+002, 2.658333e+003
7.485642e+002, 2.650578e+003
7.490463e+002, 2.636864e+003
7.495284e+002, 2.614458e+003
7.500106e+002, 2.598964e+003
7.504927e+002, 2.596888e+003
7.509748e+002, 2.595935e+003
7.514569e+002, 2.589399e+003
7.519390e+002, 2.577650e+003
7.524211e+002, 2.560352e+003
7.529033e+002, 2.534632e+003
7.533854e+002, 2.509878e+003
7.538675e+002, 2.488058e+003
7.543496e+002, 2.469767e+003
7.548317e+002, 2.457848e+003
7.553138e+002, 2.449876e+003
7.557960e+002, 2.438716e+003
7.562781e+002, 2.421070e+003
7.567602e+002, 2.402765e+003
7.572423e+002, 2.393598e+003
7.577244e+002, 2.393211e+003
7.582065e+002, 2.387624e+003
7.586887e+002, 2.375232e+003
7.591708e+002, 2.362481e+003
7.596529e+002, 2.351061e+003
7.601350e+002, 2.341697e+003
7.606171e+002, 2.337419e+003
7.610992e+002, 2.339100e+003
7.615814e+002, 2.333927e+003
7.620635e+002, 2.311101e+003
7.625456e+002, 2.291570e+003
7.630277e+002, 2.288479e+003
7.635098e+002, 2.292451e+003
7.639919e+002, 2.293689e+003
7.644741e+002, 2.288931e+003
7.649562e+002, 2.275224e+003
7.654383e+002, 2.247113e+003
7.659204e+002, 2.212756e+003
7.664025e+002, 2.190133e+003
7.668846e+002, 2.179156e+003
7.673668e+002, 2.177116e+003
7.678489e+002, 2.186831e+003
7.683310e+002, 2.193118e+003
7.688131e+002, 2.181886e+003
7.692952e+002, 2.156393e+003
7.697773e+002, 2.135291e+003
7.702595e+002, 2.117903e+003
7.707416e+002, 2.105501e+003
7.712237e+002, 2.100798e+003
7.717058e+002, 2.098704e+003
7.721879e+002, 2.098696e+003
7.726700e+002, 2.098245e+003
7.731522e+002, 2.093141e+003
7.736343e+002, 2.081747e+003
7.741164e+002, 2.066551e+003
7.745985e+002, 2.044958e+003
7.750806e+002, 2.022710e+003
7.755627e+002, 2.015099e+003
7.760449e+002, 2.021775e+003
7.765270e+002, 2.030184e+003
7.770091e+002, 2.036065e+003
7.774912e+002, 2.035343e+003
7.779733e+002, 2.020401e+003
7.784554e+002, 1.988480e+003
7.789376e+002, 1.964245e+003
7.794197e+002, 1.946428e+003
7.799019e+002, 1.938465e+003
7.803840e+002, 1.952400e+003
7.808661e+002, 1.967667e+003
7.813482e+002, 1.962404e+003
7.818303e+002, 1.939128e+003
7.823124e+002, 1.921911e+003
7.827946e+002, 1.927813e+003
7.832767e+002, 1.934617e+003
7.837588e+002, 1.918341e+003
7.842409e+002, 1.892457e+003
7.847230e+002, 1.883921e+003
7.852051e+002, 1.894464e+003
7.856873e+002, 1.903922e+003
7.861694e+002, 1.898057e+003
7.866515e+002, 1.882686e+003
7.871336e+002, 1.872446e+003
7.876157e+002, 1.868159e+003
7.880978e+002, 1.865115e+003
7.885800e+002, 1.864699e+003
7.890621e+002, 1.862674e+003
7.895442e+002, 1.854668e+003
7.900263e+002, 1.844529e+003
7.905084e+002, 1.839113e+003
7.909905e+002, 1.840251e+003
7.914727e+002, 1.838205e+003
7.919548e+002, 1.826635e+003
7.924369e+002, 1.815172e+003
7.929190e+002, 1.809817e+003
7.934011e+002, 1.808742e+003
7.938832e+002, 1.809563e+003
7.943654e+002, 1.811037e+003
7.948475e+002, 1.810575e+003
7.953296e+002, 1.805438e+003
7.958117e+002, 1.796989e+003
7.962938e+002, 1.788469e+003
7.967759e+002, 1.779871e+003
7.972581e+002, 1.771442e+003
7.977402e+002, 1.762286e+003
7.982223e+002, 1.757777e+003
7.987044e+002, 1.766102e+003
7.991865e+002, 1.783072e+003
7.996686e+002, 1.783892e+003
8.001508e+002, 1.750519e+003
8.006329e+002, 1.726755e+003
8.011150e+002, 1.717496e+003
8.015971e+002, 1.713850e+003
8.020792e+002, 1.711316e+003
8.025613e+002, 1.710552e+003
8.030435e+002, 1.715756e+003
8.035256e+002, 1.729013e+003
8.040077e+002, 1.736689e+003
8.044898e+002, 1.722884e+003
8.049719e+002, 1.700937e+003
8.054540e+002, 1.690266e+003
8.059362e+002, 1.689417e+003
8.064183e+002, 1.688791e+003
8.069004e+002, 1.684989e+003
8.073825e+002, 1.680455e+003
8.078646e+002, 1.678476e+003
8.083467e+002, 1.678554e+003
8.088289e+002, 1.673235e+003
8.093110e+002, 1.658563e+003
8.097931e+002, 1.649388e+003
8.102752e+002, 1.652103e+003
8.107573e+002, 1.657785e+003
8.112394e+002, 1.660549e+003
8.117216e+002, 1.660516e+003
8.122037e+002, 1.657671e+003
8.126858e+002, 1.649591e+003
8.131679e+002, 1.643071e+003
8.136500e+002, 1.643129e+003
8.141321e+002, 1.643412e+003
8.146143e+002, 1.634625e+003
8.150964e+002, 1.621905e+003
8.155785e+002, 1.619870e+003
8.160606e+002, 1.634270e+003
8.165427e+002, 1.650819e+003
8.170248e+002, 1.651414e+003
8.175070e+002, 1.640807e+003
8.179891e+002, 1.636766e+003
8.184712e+002, 1.639518e+003
8.189533e+002, 1.638212e+003
8.194354e+002, 1.627880e+003
8.199175e+002, 1.616783e+003
8.203997e+002, 1.615443e+003
8.208818e+002, 1.623602e+003
8.213639e+002, 1.625457e+003
8.218460e+002, 1.614272e+003
8.223281e+002, 1.606800e+003
8.228102e+002, 1.606002e+003
8.232924e+002, 1.608186e+003
8.237745e+002, 1.613225e+003
8.242566e+002, 1.619090e+003
8.247387e+002, 1.620901e+003
8.252208e+002, 1.616114e+003
8.257029e+002, 1.611083e+003
8.261851e+002, 1.614106e+003
8.266672e+002, 1.615912e+003
8.271493e+002, 1.601098e+003
8.276314e+002, 1.575039e+003
8.281135e+002, 1.556309e+003
8.285956e+002, 1.552024e+003
8.290778e+002, 1.555578e+003
8.295599e+002, 1.560232e+003
8.300420e+002, 1.565613e+003
8.305241e+002, 1.569300e+003
8.310062e+002, 1.571226e+003
8.314883e+002, 1.571610e+003
8.319705e+002, 1.570259e+003
8.324526e+002, 1.568053e+003
8.329347e+002, 1.567812e+003
8.334168e+002, 1.568301e+003
8.338989e+002, 1.557726e+003
8.343810e+002, 1.513078e+003
8.348632e+002, 1.491758e+003
8.353453e+002, 1.518361e+003
8.358274e+002, 1.550835e+003
8.363095e+002, 1.564911e+003
8.367916e+002, 1.564717e+003
8.372737e+002, 1.560680e+003
8.377559e+002, 1.555578e+003
8.382380e+002, 1.552751e+003
8.387201e+002, 1.558319e+003
8.392022e+002, 1.565146e+003
8.396843e+002, 1.561323e+003
8.401664e+002, 1.550156e+003
8.406486e+002, 1.543614e+003
8.411307e+002, 1.545129e+003
8.416128e+002, 1.547981e+003
8.420949e+002, 1.545305e+003
8.425770e+002, 1.538582e+003
8.430591e+002, 1.534906e+003
8.435413e+002, 1.535022e+003
8.440234e+002, 1.534578e+003
8.445055e+002, 1.533822e+003
8.449876e+002, 1.530376e+003
8.454697e+002, 1.518618e+003
8.459518e+002, 1.503857e+003
8.464340e+002, 1.502143e+003
8.469161e+002, 1.519384e+003
8.473982e+002, 1.533215e+003
8.478803e+002, 1.542537e+003
8.483624e+002, 1.546620e+003
8.488445e+002, 1.540053e+003
8.493267e+002, 1.530626e+003
8.498088e+002, 1.531494e+003
8.502909e+002, 1.543160e+003
8.507730e+002, 1.548708e+003
8.512551e+002, 1.529434e+003
8.517372e+002, 1.506358e+003
8.522194e+002, 1.508148e+003
8.527015e+002, 1.525509e+003
8.531836e+002, 1.535666e+003
8.536657e+002, 1.534974e+003
8.541478e+002, 1.531818e+003
8.546299e+002, 1.531848e+003
8.551121e+002, 1.532993e+003
8.555942e+002, 1.529321e+003
8.560763e+002, 1.519509e+003
8.565584e+002, 1.516525e+003
8.570405e+002, 1.522635e+003
8.575226e+002, 1.530926e+003
8.580048e+002, 1.541054e+003
8.584869e+002, 1.549595e+003
8.589690e+002, 1.550823e+003
8.594511e+002, 1.544334e+003
8.599332e+002, 1.538195e+003
8.604153e+002, 1.531229e+003
8.608975e+002, 1.526544e+003
8.613796e+002, 1.529042e+003
8.618617e+002, 1.530924e+003
8.623438e+002, 1.522072e+003
8.628259e+002, 1.506509e+003
8.633080e+002, 1.498524e+003
8.637902e+002, 1.505649e+003
8.642723e+002, 1.514648e+003
8.647544e+002, 1.515684e+003
8.652365e+002, 1.510908e+003
8.657186e+002, 1.498301e+003
8.662007e+002, 1.482371e+003
8.666829e+002, 1.481273e+003
8.671650e+002, 1.501308e+003
8.676471e+002, 1.525587e+003
8.681292e+002, 1.533756e+003
8.686113e+002, 1.528608e+003
8.690934e+002, 1.527067e+003
8.695756e+002, 1.529967e+003
8.700577e+002, 1.529998e+003
8.705398e+002, 1.524241e+003
8.710219e+002, 1.518347e+003
8.715040e+002, 1.515639e+003
8.719861e+002, 1.516572e+003
8.724683e+002, 1.523544e+003
8.729504e+002, 1.547841e+003
8.734325e+002, 1.556658e+003
8.739146e+002, 1.537415e+003
8.743967e+002, 1.516665e+003
8.748788e+002, 1.501295e+003
8.753610e+002, 1.493254e+003
8.758431e+002, 1.497979e+003
8.763252e+002, 1.514678e+003
8.768073e+002, 1.526374e+003
8.772894e+002, 1.516944e+003
8.777715e+002, 1.507964e+003
8.782537e+002, 1.521235e+003
8.787358e+002, 1.543176e+003
8.792179e+002, 1.552814e+003
8.797000e+002, 1.549250e+003
8.801821e+002, 1.543752e+003
8.806642e+002, 1.542722e+003
8.811464e+002, 1.542731e+003
8.816285e+002, 1.537231e+003
8.821106e+002, 1.527777e+003
8.825927e+002, 1.523798e+003
8.830748e+002, 1.525854e+003
8.835569e+002, 1.528186e+003
8.840391e+002, 1.528659e+003
8.845212e+002, 1.528391e+003
8.850033e+002, 1.528365e+003
8.854854e+002, 1.528695e+003
8.859675e+002, 1.532074e+003
8.864496e+002, 1.542492e+003
8.869318e+002, 1.548002e+003
8.874139e+002, 1.544491e+003
8.878960e+002, 1.538421e+003
8.883781e+002, 1.530895e+003
8.888602e+002, 1.524091e+003
8.893423e+002, 1.522615e+003
8.898245e+002, 1.527989e+003
8.903066e+002, 1.534029e+003
8.907887e+002, 1.541028e+003
8.912708e+002, 1.546105e+003
8.917529e+002, 1.545506e+003
8.922350e+002, 1.543057e+003
8.927172e+002, 1.545541e+003
8.931993e+002, 1.552470e+003
8.936814e+002, 1.554880e+003
8.941635e+002, 1.544487e+003
8.946456e+002, 1.533155e+003
8.951277e+002, 1.539416e+003
8.956099e+002, 1.554430e+003
8.960920e+002, 1.555245e+003
8.965741e+002, 1.542330e+003
8.970562e+002, 1.534679e+003
8.975383e+002, 1.541410e+003
8.980204e+002, 1.556385e+003
8.985026e+002, 1.573099e+003
8.989847e+002, 1.590611e+003
8.994668e+002, 1.594324e+003
8.999489e+002, 1.580633e+003
9.004310e+002, 1.574301e+003
9.009131e+002, 1.584543e+003
9.013953e+002, 1.596955e+003
9.018774e+002, 1.598320e+003
9.023595e+002, 1.591779e+003
9.028416e+002, 1.591740e+003
9.033237e+002, 1.605052e+003
9.038058e+002, 1.612452e+003
9.042880e+002, 1.609386e+003
9.047701e+002, 1.605962e+003
9.052522e+002, 1.605154e+003
9.057343e+002, 1.606852e+003
9.062164e+002, 1.612823e+003
9.066985e+002, 1.622528e+003
9.071807e+002, 1.626697e+003
9.076628e+002, 1.616447e+003
9.081449e+002, 1.606389e+003
9.086270e+002, 1.603889e+003
9.091091e+002, 1.606297e+003
9.095912e+002, 1.611492e+003
9.100734e+002, 1.618692e+003
9.105555e+002, 1.627569e+003
9.110376e+002, 1.638047e+003
9.115197e+002, 1.648033e+003
9.120018e+002, 1.656402e+003
9.124839e+002, 1.662156e+003
9.129661e+002, 1.660689e+003
9.134482e+002, 1.654089e+003
9.139303e+002, 1.653689e+003
9.144124e+002, 1.662393e+003
9.148945e+002, 1.670578e+003
9.153766e+002, 1.669092e+003
9.158588e+002, 1.662086e+003
9.163409e+002, 1.662432e+003
9.168230e+002, 1.670498e+003
9.173051e+002, 1.684606e+003
9.177872e+002, 1.709161e+003
9.182693e+002, 1.723657e+003
9.187515e+002, 1.713261e+003
9.192336e+002, 1.693516e+003
9.197157e+002, 1.688922e+003
9.201978e+002, 1.701316e+003
9.206799e+002, 1.710434e+003
9.211620e+002, 1.712272e+003
9.216442e+002, 1.716358e+003
9.221263e+002, 1.728321e+003
9.226084e+002, 1.738796e+003
9.230905e+002, 1.739525e+003
9.235726e+002, 1.734248e+003
9.240547e+002, 1.731636e+003
9.245369e+002, 1.732880e+003
9.250190e+002, 1.738494e+003
9.255011e+002, 1.751260e+003
9.259832e+002, 1.765747e+003
9.264653e+002, 1.780135e+003
9.269474e+002, 1.793172e+003
9.274296e+002, 1.804460e+003
9.279117e+002, 1.813167e+003
9.283938e+002, 1.815820e+003
9.288759e+002, 1.807658e+003
9.293580e+002, 1.799197e+003
9.298401e+002, 1.805399e+003
9.303223e+002, 1.818147e+003
9.308044e+002, 1.818813e+003
9.312865e+002, 1.810056e+003
9.317686e+002, 1.810905e+003
9.322507e+002, 1.828784e+003
9.327328e+002, 1.851765e+003
9.332150e+002, 1.866976e+003
9.336971e+002, 1.875592e+003
9.341792e+002, 1.881936e+003
9.346613e+002, 1.885986e+003
9.351434e+002, 1.887357e+003
9.356255e+002, 1.885424e+003
9.361077e+002, 1.883869e+003
9.365898e+002, 1.883809e+003
9.370719e+002, 1.888350e+003
9.375540e+002, 1.906929e+003
9.380361e+002, 1.945488e+003
9.385182e+002, 1.963920e+003
9.390004e+002, 1.950479e+003
9.394825e+002, 1.939775e+003
9.399646e+002, 1.942975e+003
9.404467e+002, 1.951033e+003
9.409288e+002, 1.953550e+003
9.414109e+002, 1.953364e+003
9.418931e+002, 1.964080e+003
9.423752e+002, 1.998782e+003
9.428573e+002, 2.021045e+003
9.433394e+002, 2.020323e+003
9.438215e+002, 2.013164e+003
9.443036e+002, 1.999756e+003
9.447858e+002, 1.989472e+003
9.452679e+002, 1.996458e+003
9.457500e+002, 2.020668e+003
9.462321e+002, 2.043589e+003
9.467142e+002, 2.057738e+003
9.471964e+002, 2.068042e+003
9.476785e+002, 2.077144e+003
9.481606e+002, 2.084324e+003
9.486427e+002, 2.086918e+003
9.491248e+002, 2.087105e+003
9.496069e+002, 2.089799e+003
9.500891e+002, 2.096872e+003
9.505712e+002, 2.108328e+003
9.510533e+002, 2.131129e+003
9.515354e+002, 2.153884e+003
9.520175e+002, 2.150929e+003
9.524996e+002, 2.132973e+003
9.529818e+002, 2.133664e+003
9.534639e+002, 2.156696e+003
9.539460e+002, 2.178437e+003
9.544281e+002, 2.183828e+003
9.549102e+002, 2.182087e+003
9.553923e+002, 2.189493e+003
9.558745e+002, 2.204896e+003
9.563566e+002, 2.216731e+003
9.568387e+002, 2.224680e+003
9.573208e+002, 2.233474e+003
9.578029e+002, 2.244894e+003
9.582850e+002, 2.255334e+003
9.587672e+002, 2.260374e+003
9.592493e+002, 2.262806e+003
9.597314e+002, 2.274915e+003
9.602135e+002, 2.300574e+003
9.606956e+002, 2.322274e+003
9.611777e+002, 2.340627e+003
9.616599e+002, 2.351504e+003
9.621420e+002, 2.346002e+003
9.626241e+002, 2.339243e+003
9.631062e+002, 2.352843e+003
9.635883e+002, 2.386674e+003
9.640704e+002, 2.410817e+003
9.645526e+002, 2.417171e+003
9.650347e+002, 2.426229e+003
9.655168e+002, 2.445033e+003
9.659989e+002, 2.461336e+003
9.664810e+002, 2.466125e+003
9.669631e+002, 2.465225e+003
9.674453e+002, 2.466228e+003
9.679274e+002, 2.469936e+003
9.684095e+002, 2.481694e+003
9.688916e+002, 2.512453e+003
9.693737e+002, 2.539844e+003
9.698558e+002, 2.552633e+003
9.703380e+002, 2.558826e+003
9.708201e+002, 2.562542e+003
9.713022e+002, 2.567041e+003
9.717843e+002, 2.579642e+003
9.722664e+002, 2.603506e+003
9.727485e+002, 2.622304e+003
9.732307e+002, 2.616154e+003
9.737128e+002, 2.607958e+003
9.741949e+002, 2.621811e+003
9.746770e+002, 2.648990e+003
9.751591e+002, 2.676525e+003
9.756412e+002, 2.700937e+003
9.761234e+002, 2.719878e+003
9.766055e+002, 2.731290e+003
9.770876e+002, 2.743586e+003
9.775698e+002, 2.769225e+003
9.780519e+002, 2.802224e+003
9.785340e+002, 2.831295e+003
9.790161e+002, 2.855648e+003
9.794982e+002, 2.874498e+003
9.799803e+002, 2.887806e+003
9.804625e+002, 2.896133e+003
9.809446e+002, 2.898715e+003
9.814267e+002, 2.900959e+003
9.819088e+002, 2.916796e+003
9.823909e+002, 2.944485e+003
9.828730e+002, 2.967200e+003
9.833552e+002, 2.983807e+003
9.838373e+002, 2.999420e+003
9.843194e+002, 3.015574e+003
9.848015e+002, 3.034307e+003
9.852836e+002, 3.059416e+003
9.857657e+002, 3.087747e+003
9.862479e+002, 3.101305e+003
9.867300e+002, 3.095396e+003
9.872121e+002, 3.100126e+003
9.876942e+002, 3.119278e+003
9.881763e+002, 3.146275e+003
9.886584e+002, 3.182259e+003
9.891406e+002, 3.217926e+003
9.896227e+002, 3.238585e+003
9.901048e+002, 3.244598e+003
9.905869e+002, 3.260821e+003
9.910690e+002, 3.296437e+003
9.915511e+002, 3.324252e+003
9.920333e+002, 3.339506e+003
9.925154e+002, 3.349294e+003
9.929975e+002, 3.351397e+003
9.934796e+002, 3.353197e+003
9.939617e+002, 3.367040e+003
9.944438e+002, 3.394011e+003
9.949260e+002, 3.421984e+003
9.954081e+002, 3.452920e+003
9.958902e+002, 3.480988e+003
9.963723e+002, 3.502144e+003
9.968544e+002, 3.522774e+003
9.973365e+002, 3.548292e+003
9.978187e+002, 3.576121e+003
9.983008e+002, 3.598443e+003
9.987829e+002, 3.612725e+003
9.992650e+002, 3.637733e+003
9.997471e+002, 3.695565e+003
1.000229e+003, 3.745061e+003
1.000711e+003, 3.762889e+003
1.001193e+003, 3.767103e+003
1.001676e+003, 3.767001e+003
1.002158e+003, 3.770318e+003
1.002640e+003, 3.793995e+003
1.003122e+003, 3.845613e+003
1.003604e+003, 3.889488e+003
1.004086e+003, 3.897148e+003
1.004568e+003, 3.897959e+003
1.005050e+003, 3.912880e+003
1.005533e+003, 3.937411e+003
1.006015e+003, 3.967836e+003
1.006497e+003, 4.000672e+003
1.006979e+003, 4.028337e+003
1.007461e+003, 4.047057e+003
1.007943e+003, 4.064466e+003
1.008425e+003, 4.088734e+003
1.008907e+003, 4.114313e+003
1.009389e+003, 4.129322e+003
1.009872e+003, 4.141198e+003
1.010354e+003, 4.169720e+003
1.010836e+003, 4.214088e+003
1.011318e+003, 4.252032e+003
1.011800e+003, 4.270024e+003
1.012282e+003, 4.281187e+003
1.012764e+003, 4.299794e+003
1.013246e+003, 4.324550e+003
1.013729e+003, 4.355352e+003
1.014211e+003, 4.389901e+003
1.014693e+003, 4.419348e+003
1.015175e+003, 4.442046e+003
1.015657e+003, 4.463706e+003
1.016139e+003, 4.488582e+003
1.016621e+003, 4.512882e+003
1.017103e+003, 4.523916e+003
1.017585e+003, 4.528393e+003
1.018068e+003, 4.563934e+003
1.018550e+003, 4.627154e+003
1.019032e+003, 4.672780e+003
1.019514e+003, 4.687801e+003
1.019996e+003, 4.697718e+003
1.020478e+003, 4.722457e+003
1.020960e+003, 4.757704e+003
1.021442e+003, 4.792368e+003
1.021924e+003, 4.826753e+003
1.022407e+003, 4.879519e+003
1.022889e+003, 4.953618e+003
1.023371e+003, 4.993876e+003
1.023853e+003, 4.976479e+003
1.024335e+003, 4.967270e+003
1.024817e+003, 5.031073e+003
1.025299e+003, 5.137244e+003
1.025781e+003, 5.185646e+003
1.026264e+003, 5.167485e+003
1.026746e+003, 5.165931e+003
1.027228e+003, 5.184525e+003
1.027710e+003, 5.214976e+003
1.028192e+003, 5.258290e+003
1.028674e+003, 5.302178e+003
1.029156e+003, 5.335159e+003
1.029638e+003, 5.358822e+003
1.030120e+003, 5.378542e+003
1.030603e+003, 5.390005e+003
1.031085e+003, 5.413433e+003
1.031567e+003, 5.450667e+003
1.032049e+003, 5.496713e+003
1.032531e+003, 5.554480e+003
1.033013e+003, 5.613643e+003
1.033495e+003, 5.665126e+003
1.033977e+003, 5.708843e+003
1.034459e+003, 5.743583e+003
1.034942e+003, 5.762648e+003
1.035424e+003, 5.788671e+003
1.035906e+003, 5.824846e+003
1.036388e+003, 5.862290e+003
1.036870e+003, 5.895442e+003
1.037352e+003, 5.931321e+003
1.037834e+003, 5.981356e+003
1.038316e+003, 6.041583e+003
1.038799e+003, 6.087877e+003
1.039281e+003, 6.109965e+003
1.039763e+003, 6.138394e+003
1.040245e+003, 6.176731e+003
1.040727e+003, 6.217152e+003
1.041209e+003, 6.255422e+003
1.041691e+003, 6.296264e+003
1.042173e+003, 6.349047e+003
1.042656e+003, 6.409834e+003
1.043138e+003, 6.455605e+003
1.043620e+003, 6.474268e+003
1.044102e+003, 6.500507e+003
1.044584e+003, 6.540526e+003
1.045066e+003, 6.583172e+003
1.045548e+003, 6.625294e+003
1.046030e+003, 6.667324e+003
1.046512e+003, 6.708956e+003
1.046995e+003, 6.750864e+003
1.047477e+003, 6.796490e+003
1.047959e+003, 6.851193e+003
1.048441e+003, 6.898303e+003
1.048923e+003, 6.921373e+003
1.049405e+003, 6.953354e+003
1.049887e+003, 7.021633e+003
1.050369e+003, 7.094809e+003
1.050851e+003, 7.135998e+003
1.051334e+003, 7.152707e+003
1.051816e+003, 7.181987e+003
1.052298e+003, 7.234820e+003
1.052780e+003, 7.287306e+003
1.053262e+003, 7.323005e+003
1.053744e+003, 7.370739e+003
1.054226e+003, 7.464698e+003
1.054708e+003, 7.560999e+003
1.055191e+003, 7.606492e+003
1.055673e+003, 7.613494e+003
1.056155e+003, 7.636788e+003
1.056637e+003, 7.691711e+003
1.057119e+003, 7.750000e+003
1.057601e+003, 7.806197e+003
1.058083e+003, 7.860082e+003
1.058565e+003, 7.909387e+003
1.059047e+003, 7.957881e+003
1.059530e+003, 8.012221e+003
1.060012e+003, 8.069274e+003
1.060494e+003, 8.117364e+003
1.060976e+003, 8.149215e+003
1.061458e+003, 8.192885e+003
1.061940e+003, 8.271275e+003
1.062422e+003, 8.349005e+003
1.062904e+003, 8.406392e+003
1.063386e+003, 8.454897e+003
1.063869e+003, 8.506793e+003
1.064351e+003, 8.560698e+003
1.064833e+003, 8.608265e+003
1.065315e+003, 8.646537e+003
1.065797e+003, 8.685907e+003
1.066279e+003, 8.728135e+003
1.066761e+003, 8.775346e+003
1.067243e+003, 8.830209e+003
1.067726e+003, 8.889226e+003
1.068208e+003, 8.947915e+003
1.068690e+003, 9.008007e+003
1.069172e+003, 9.080191e+003
1.069654e+003, 9.168279e+003
1.070136e+003, 9.238042e+003
1.070618e+003, 9.251719e+003
1.071100e+003, 9.271341e+003
1.071583e+003, 9.334120e+003
1.072065e+003, 9.414104e+003
1.072547e+003, 9.493494e+003
1.073029e+003, 9.567728e+003
1.073511e+003, 9.631876e+003
1.073993e+003, 9.684796e+003
1.074475e+003, 9.741789e+003
1.074957e+003, 9.815554e+003
1.075439e+003, 9.887047e+003
1.075922e+003, 9.943606e+003
1.076404e+003, 9.996682e+003
1.076886e+003, 1.005636e+004
1.077368e+003, 1.012055e+004
1.077850e+003, 1.018666e+004
1.078332e+003, 1.025329e+004
1.078814e+003, 1.030729e+004
1.079296e+003, 1.032541e+004
1.079779e+003, 1.035419e+004
1.080261e+003, 1.042689e+004
1.080743e+003, 1.050851e+004
1.081225e+003, 1.056935e+004
1.081707e+003, 1.061911e+004
1.082189e+003, 1.067784e+004
1.082671e+003, 1.074701e+004
1.083153e+003, 1.081125e+004
1.083635e+003, 1.085787e+004
1.084118e+003, 1.091099e+004
1.084600e+003, 1.098613e+004
1.085082e+003, 1.106694e+004
1.085564e+003, 1.114813e+004
1.086046e+003, 1.122320e+004
1.086528e+003, 1.128056e+004
1.087010e+003, 1.132319e+004
1.087492e+003, 1.137065e+004
1.087974e+003, 1.142963e+004
1.088457e+003, 1.149404e+004
1.088939e+003, 1.156239e+004
1.089421e+003, 1.163465e+004
1.089903e+003, 1.171869e+004
1.090385e+003, 1.180143e+004
1.090867e+003, 1.185907e+004
1.091349e+003, 1.190101e+004
1.091831e+003, 1.196835e+004
1.092314e+003, 1.207902e+004
1.092796e+003, 1.218458e+004
1.093278e+003, 1.226190e+004
1.093760e+003, 1.233561e+004
1.094242e+003, 1.242121e+004
1.094724e+003, 1.250645e+004
1.095206e+003, 1.257652e+004
1.095688e+003, 1.263651e+004
1.096171e+003, 1.270288e+004
1.096653e+003, 1.277993e+004
1.097135e+003, 1.285387e+004
1.097617e+003, 1.291902e+004
1.098099e+003, 1.298282e+004
1.098581e+003, 1.304132e+004
1.099063e+003, 1.310662e+004
1.099545e+003, 1.319871e+004
1.100027e+003, 1.330062e+004
1.100510e+003, 1.337268e+004
1.100992e+003, 1.340906e+004
1.101474e+003, 1.346596e+004
1.101956e+003, 1.356889e+004
1.102438e+003, 1.367571e+004
1.102920e+003, 1.378176e+004
1.103402e+003, 1.388216e+004
1.103884e+003, 1.397281e+004
1.104366e+003, 1.405681e+004
1.104849e+003, 1.414075e+004
1.105331e+003, 1.422411e+004
1.105813e+003, 1.429587e+004
1.106295e+003, 1.432918e+004
1.106777e+003, 1.439051e+004
1.107259e+003, 1.450799e+004
1.107741e+003, 1.463202e+004
1.108223e+003, 1.474730e+004
1.108706e+003, 1.485260e+004
1.109188e+003, 1.494194e+004
1.109670e+003, 1.502029e+004
1.110152e+003, 1.511134e+004
1.110634e+003, 1.522895e+004
1.111116e+003, 1.533166e+004
1.111598e+003, 1.541103e+004
1.112080e+003, 1.548375e+004
1.112563e+003, 1.554108e+004
1.113045e+003, 1.560534e+004
1.113527e+003, 1.569929e+004
1.114009e+003, 1.581291e+004
1.114491e+003, 1.591934e+004
1.114973e+003, 1.601884e+004
1.115455e+003, 1.611008e+004
1.115937e+003, 1.617650e+004
1.116419e+003, 1.626456e+004
1.116901e+003, 1.639720e+004
1.117384e+003, 1.653236e+004
1.117866e+003, 1.664729e+004
1.118348e+003, 1.674760e+004
1.118830e+003, 1.683982e+004
1.119312e+003, 1.692322e+004
1.119794e+003, 1.701914e+004
1.120276e+003, 1.712957e+004
1.120758e+003, 1.724715e+004
1.121241e+003, 1.738112e+004
1.121723e+003, 1.749975e+004
1.122205e+003, 1.758128e+004
1.122687e+003, 1.765393e+004
1.123169e+003, 1.775072e+004
1.123651e+003, 1.786805e+004
1.124133e+003, 1.798509e+004
1.124615e+003, 1.810585e+004
1.125098e+003, 1.820522e+004
1.125580e+003, 1.827554e+004
1.126062e+003, 1.835333e+004
1.126544e+003, 1.844925e+004
1.127026e+003, 1.856191e+004
1.127508e+003, 1.869365e+004
1.127990e+003, 1.883591e+004
1.128472e+003, 1.896669e+004
1.128954e+003, 1.908599e+004
1.129437e+003, 1.920888e+004
1.129919e+003, 1.933672e+004
1.130401e+003, 1.944906e+004
1.130883e+003, 1.954066e+004
1.131365e+003, 1.963806e+004
1.131847e+003, 1.975751e+004
1.132329e+003, 1.988760e+004
1.132811e+003, 2.001119e+004
1.133293e+003, 2.012954e+004
1.133776e+003, 2.024391e+004
1.134258e+003, 2.035588e+004
1.134740e+003, 2.048720e+004
1.135222e+003, 2.063783e+004
1.135704e+003, 2.077530e+004
1.136186e+003, 2.088619e+004
1.136668e+003, 2.100105e+004
1.137150e+003, 2.115550e+004
1.137633e+003, 2.131687e+004
1.138115e+003, 2.139579e+004
1.138597e+003, 2.143217e+004
1.139079e+003, 2.156742e+004
1.139561e+003, 2.178164e+004
1.140043e+003, 2.196184e+004
1.140525e+003, 2.208293e+004
1.141007e+003, 2.219653e+004
1.141490e+003, 2.233683e+004
1.141972e+003, 2.247016e+004
1.142454e+003, 2.253284e+004
1.142936e+003, 2.257949e+004
1.143418e+003, 2.270063e+004
1.143900e+003, 2.287416e+004
1.144382e+003, 2.306753e+004
1.144864e+003, 2.326274e+004
1.145346e+003, 2.342176e+004
1.145828e+003, 2.353017e+004
1.146311e+003, 2.363103e+004
1.146793e+003, 2.375250e+004
1.147275e+003, 2.388673e+004
1.147757e+003, 2.402519e+004
1.148239e+003, 2.417171e+004
1.148721e+003, 2.433234e+004
1.149203e+003, 2.450323e+004
1.149685e+003, 2.468259e+004
1.150168e+003, 2.486685e+004
1.150650e+003, 2.504361e+004
1.151132e+003, 2.520350e+004
1.151614e+003, 2.536511e+004
1.152096e+003, 2.555599e+004
1.152578e+003, 2.573247e+004
1.153060e+003, 2.583828e+004
1.153542e+003, 2.593286e+004
1.154025e+003, 2.609487e+004
1.154507e+003, 2.631010e+004
1.154989e+003, 2.651164e+004
1.155471e+003, 2.668656e+004
1.155953e+003, 2.684576e+004
1.156435e+003, 2.698599e+004
1.156917e+003, 2.712123e+004
1.157399e+003, 2.724059e+004
1.157881e+003, 2.737265e+004
1.158364e+003, 2.753982e+004
1.158846e+003, 2.773209e+004
1.159328e+003, 2.794339e+004
1.159810e+003, 2.817375e+004
1.160292e+003, 2.836218e+004
1.160774e+003, 2.847620e+004
1.161256e+003, 2.860561e+004
1.161738e+003, 2.875391e+004
1.162220e+003, 2.892011e+004
1.162703e+003, 2.911343e+004
1.163185e+003, 2.931138e+004
1.163667e+003, 2.949297e+004
1.164149e+003, 2.966330e+004
1.164631e+003, 2.983977e+004
1.165113e+003, 3.002279e+004
1.165595e+003, 3.021219e+004
1.166077e+003, 3.041444e+004
1.166560e+003, 3.059284e+004
1.167042e+003, 3.073132e+004
1.167524e+003, 3.088695e+004
1.168006e+003, 3.109322e+004
1.168488e+003, 3.133152e+004
1.168970e+003, 3.157505e+004
1.169452e+003, 3.182145e+004
1.169934e+003, 3.205477e+004
1.170417e+003, 3.227561e+004
1.170899e+003, 3.249127e+004
1.171381e+003, 3.270154e+004
1.171863e+003, 3.289829e+004
1.172345e+003, 3.307886e+004
1.172827e+003, 3.325416e+004
1.173309e+003, 3.343052e+004
1.173791e+003, 3.361885e+004
1.174273e+003, 3.384461e+004
1.174755e+003, 3.409354e+004
1.175238e+003, 3.434370e+004
1.175720e+003, 3.458748e+004
1.176202e+003, 3.479422e+004
1.176684e+003, 3.497053e+004
1.177166e+003, 3.516152e+004
1.177648e+003, 3.538854e+004
1.178130e+003, 3.562806e+004
1.178612e+003, 3.587468e+004
1.179095e+003, 3.610978e+004
1.179577e+003, 3.629574e+004
1.180059e+003, 3.647627e+004
1.180541e+003, 3.670310e+004
1.181023e+003, 3.696795e+004
1.181505e+003, 3.725181e+004
1.181987e+003, 3.754675e+004
1.182469e+003, 3.784481e+004
1.182952e+003, 3.815140e+004
1.183434e+003, 3.843170e+004
1.183916e+003, 3.864844e+004
1.184398e+003, 3.885944e+004
1.184880e+003, 3.907314e+004
1.185362e+003, 3.931731e+004
1.185844e+003, 3.964766e+004
1.186326e+003, 4.002037e+004
1.186808e+003, 4.032549e+004
1.187291e+003, 4.054329e+004
1.187773e+003, 4.078779e+004
1.188255e+003, 4.108439e+004
1.188737e+003, 4.138800e+004
1.189219e+003, 4.171241e+004
1.189701e+003, 4.201880e+004
1.190183e+003, 4.227771e+004
1.190665e+003, 4.252494e+004
1.191147e+003, 4.279289e+004
1.191630e+003, 4.308265e+004
1.192112e+003, 4.339659e+004
1.192594e+003, 4.374184e+004
1.193076e+003, 4.407710e+004
1.193558e+003, 4.440149e+004
1.194040e+003, 4.471477e+004
1.194522e+003, 4.501203e+004
1.195004e+003, 4.532499e+004
1.195487e+003, 4.567706e+004
1.195969e+003, 4.603173e+004
1.196451e+003, 4.633446e+004
1.196933e+003, 4.660768e+004
1.197415e+003, 4.694026e+004
1.197897e+003, 4.732325e+004
1.198379e+003, 4.769702e+004
1.198861e+003, 4.806235e+004
1.199344e+003, 4.844729e+004
1.199826e+003, 4.885841e+004
1.200308e+003, 4.925432e+004
1.200790e+003, 4.960554e+004
1.201272e+003, 4.995416e+004
1.201754e+003, 5.036191e+004
1.202236e+003, 5.079046e+004
1.202718e+003, 5.117357e+004
1.203200e+003, 5.154484e+004
1.203682e+003, 5.196048e+004
1.204165e+003, 5.241700e+004
1.204647e+003, 5.288338e+004
1.205129e+003, 5.334986e+004
1.205611e+003, 5.383109e+004
1.206093e+003, 5.435434e+004
1.206575e+003, 5.485347e+004
1.207057e+003, 5.525446e+004
1.207539e+003, 5.566277e+004
1.208022e+003, 5.617182e+004
1.208504e+003, 5.671938e+004
1.208986e+003, 5.722422e+004
1.209468e+003, 5.769964e+004
1.209950e+003, 5.821277e+004
1.210432e+003, 5.879177e+004
1.210914e+003, 5.932929e+004
1.211396e+003, 5.975068e+004
1.211879e+003, 6.024003e+004
1.212361e+003, 6.086182e+004
1.212843e+003, 6.149563e+004
1.213325e+003, 6.208602e+004
1.213807e+003, 6.264588e+004
1.214289e+003, 6.318138e+004
1.214771e+003, 6.370792e+004
1.215253e+003, 6.431514e+004
1.215735e+003, 6.500973e+004
1.216218e+003, 6.569827e+004
1.216700e+003, 6.638137e+004
1.217182e+003, 6.702102e+004
1.217664e+003, 6.761037e+004
1.218146e+003, 6.824380e+004
1.218628e+003, 6.898380e+004
1.219110e+003, 6.976393e+004
1.219592e+003, 7.049571e+004
1.220074e+003, 7.120723e+004
1.220557e+003, 7.195713e+004
1.221039e+003, 7.274104e+004
1.221521e+003, 7.356334e+004
1.222003e+003, 7.441125e+004
1.222485e+003, 7.522827e+004
1.222967e+003, 7.601178e+004
1.223449e+003, 7.683076e+004
1.223931e+003, 7.772086e+004
1.224414e+003, 7.863025e+004
1.224896e+003, 7.949955e+004
1.225378e+003, 8.038673e+004
1.225860e+003, 8.135639e+004
1.226342e+003, 8.234807e+004
1.226824e+003, 8.328697e+004
1.227306e+003, 8.420176e+004
1.227788e+003, 8.514155e+004
1.228271e+003, 8.612077e+004
1.228753e+003, 8.715715e+004
1.229235e+003, 8.827362e+004
1.229717e+003, 8.942386e+004
1.230199e+003, 9.061670e+004
1.230681e+003, 9.181902e+004
1.231163e+003, 9.299983e+004
1.231645e+003, 9.422411e+004
1.232127e+003, 9.556053e+004
1.232609e+003, 9.695386e+004
1.233092e+003, 9.828759e+004
1.233574e+003, 9.957022e+004
1.234056e+003, 1.009170e+005
1.234538e+003, 1.023281e+005
1.235020e+003, 1.038164e+005
1.235502e+003, 1.053772e+005
1.235984e+003, 1.069586e+005
1.236466e+003, 1.085301e+005
1.236949e+003, 1.101273e+005
1.237431e+003, 1.117698e+005
1.237913e+003, 1.134406e+005
1.238395e+003, 1.151036e+005
1.238877e+003, 1.167731e+005
1.239359e+003, 1.184924e+005
1.239841e+003, 1.202612e+005
1.240323e+003, 1.221179e+005
1.240806e+003, 1.240379e+005
1.241288e+003, 1.259243e+005
1.241770e+003, 1.277675e+005
1.242252e+003, 1.297169e+005
1.242734e+003, 1.318948e+005
1.243216e+003, 1.341255e+005
1.243698e+003, 1.362963e+005
1.244180e+003, 1.384673e+005
1.244662e+003, 1.406442e+005
1.245145e+003, 1.428689e+005
1.245627e+003, 1.451845e+005
1.246109e+003, 1.475758e+005
1.246591e+003, 1.500365e+005
1.247073e+003, 1.525552e+005
1.247555e+003, 1.550902e+005
1.248037e+003, 1.575990e+005
1.248519e+003, 1.601630e+005
1.249001e+003, 1.627965e+005
1.249484e+003, 1.654766e+005
1.249966e+003, 1.681947e+005
1.250448e+003, 1.709982e+005
1.250930e+003, 1.739398e+005
1.251412e+003, 1.769659e+005
1.251894e+003, 1.799594e+005
1.252376e+003, 1.829468e+005
1.252858e+003, 1.860689e+005
1.253341e+003, 1.893005e+005
1.253823e+003, 1.924959e+005
1.254305e+003, 1.956582e+005
1.254787e+003, 1.989480e+005
1.255269e+003, 2.024056e+005
1.255751e+003, 2.058465e+005
1.256233e+003, 2.091560e+005
1.256715e+003, 2.124518e+005
1.257198e+003, 2.158513e+005
1.257680e+003, 2.193217e+005
1.258162e+003, 2.228923e+005
1.258644e+003, 2.264586e+005
1.259126e+003, 2.298777e+005
1.259608e+003, 2.332301e+005
1.260090e+003, 2.367199e+005
1.260572e+003, 2.403755e+005
1.261054e+003, 2.440926e+005
1.261536e+003, 2.479705e+005
1.262019e+003, 2.516620e+005
1.262501e+003, 2.549365e+005
1.262983e+003, 2.582560e+005
1.263465e+003, 2.618215e+005
1.263947e+003, 2.653831e+005
1.264429e+003, 2.688296e+005
1.264911e+003, 2.721178e+005
1.265393e+003, 2.751775e+005
1.265876e+003, 2.780361e+005
1.266358e+003, 2.810610e+005
1.266840e+003, 2.842629e+005
1.267322e+003, 2.871972e+005
1.267804e+003, 2.898573e+005
1.268286e+003, 2.924220e+005
1.268768e+003, 2.949448e+005
1.269250e+003, 2.973543e+005
1.269733e+003, 2.996162e+005
1.270215e+003, 3.017159e+005
1.270697e+003, 3.036428e+005
1.271179e+003, 3.054150e+005
1.271661e+003, 3.070158e+005
1.272143e+003, 3.085125e+005
1.272625e+003, 3.099889e+005
1.273107e+003, 3.114419e+005
1.273589e+003, 3.129316e+005
1.274072e+003, 3.143717e+005
1.274554e+003, 3.154897e+005
1.275036e+003, 3.161903e+005
1.275518e+003, 3.166839e+005
1.276000e+003, 3.169490e+005
1.276482e+003, 3.171139e+005
1.276964e+003, 3.171211e+005
1.277446e+003, 3.172192e+005
1.277929e+003, 3.175745e+005
1.278411e+003, 3.178698e+005
1.278893e+003, 3.178107e+005
1.279375e+003, 3.174715e+005
1.279857e+003, 3.170063e+005
1.280339e+003, 3.164171e+005
1.280821e+003, 3.159083e+005
1.281303e+003, 3.155182e+005
1.281786e+003, 3.153943e+005
1.282268e+003, 3.155431e+005
##END=



