##NAMES=Ondrusite
##RRUFFID=R141029
##IDEAL CHEMISTRY=CaCu^2+^_4_(As^5+^O_4_)_2_(As^5+^O_3_OH)_2_&#183;10H_2_O
##LOCALITY=Svornost mine, Jáchymov, Krušné Hory Mts, Karlovy Vary, Bohemia, Czech Republic
##OWNER=RRUFF
##SOURCE=William W. Pinch
##DESCRIPTION=Pale green thin bladed crystals with striations parallel to the elongated direction, associated with quartz
##STATUS=The identification of this mineral has been confirmed by single-crystal X-ray diffraction.
##URL=rruff.info/R141029
8.806445e+001, 1.833464e+002
8.854657e+001, 1.787166e+002
8.902869e+001, 1.771165e+002
8.951080e+001, 1.801354e+002
8.999292e+001, 1.854664e+002
9.047504e+001, 1.909689e+002
9.095715e+001, 1.961923e+002
9.143927e+001, 2.011823e+002
9.192139e+001, 2.060012e+002
9.240350e+001, 2.106413e+002
9.288562e+001, 2.152268e+002
9.336774e+001, 2.182917e+002
9.384985e+001, 2.184630e+002
9.433197e+001, 2.160534e+002
9.481409e+001, 2.144358e+002
9.529620e+001, 2.122892e+002
9.577832e+001, 2.098098e+002
9.626044e+001, 2.070583e+002
9.674255e+001, 2.044889e+002
9.722467e+001, 2.026717e+002
9.770679e+001, 2.017984e+002
9.818890e+001, 2.008798e+002
9.867102e+001, 1.997116e+002
9.915314e+001, 1.984161e+002
9.963525e+001, 1.969802e+002
1.001174e+002, 1.953723e+002
1.005995e+002, 1.937337e+002
1.010816e+002, 1.926141e+002
1.015637e+002, 1.927764e+002
1.020458e+002, 1.926296e+002
1.025280e+002, 1.917083e+002
1.030101e+002, 1.903212e+002
1.034922e+002, 1.889747e+002
1.039743e+002, 1.880170e+002
1.044564e+002, 1.874404e+002
1.049385e+002, 1.870177e+002
1.054207e+002, 1.867207e+002
1.059028e+002, 1.865300e+002
1.063849e+002, 1.865716e+002
1.068670e+002, 1.868002e+002
1.073491e+002, 1.868480e+002
1.078312e+002, 1.862674e+002
1.083134e+002, 1.850867e+002
1.087955e+002, 1.840265e+002
1.092776e+002, 1.831431e+002
1.097597e+002, 1.824344e+002
1.102418e+002, 1.819454e+002
1.107239e+002, 1.817604e+002
1.112061e+002, 1.816116e+002
1.116882e+002, 1.812398e+002
1.121703e+002, 1.806868e+002
1.126524e+002, 1.801308e+002
1.131345e+002, 1.796487e+002
1.136166e+002, 1.792403e+002
1.140988e+002, 1.789278e+002
1.145809e+002, 1.788385e+002
1.150630e+002, 1.787431e+002
1.155451e+002, 1.784619e+002
1.160272e+002, 1.780047e+002
1.165093e+002, 1.775683e+002
1.169915e+002, 1.774586e+002
1.174736e+002, 1.779220e+002
1.179557e+002, 1.780449e+002
1.184378e+002, 1.775757e+002
1.189199e+002, 1.769257e+002
1.194020e+002, 1.763247e+002
1.198842e+002, 1.758613e+002
1.203663e+002, 1.755352e+002
1.208484e+002, 1.753469e+002
1.213305e+002, 1.754376e+002
1.218126e+002, 1.755205e+002
1.222947e+002, 1.755883e+002
1.227769e+002, 1.756425e+002
1.232590e+002, 1.757269e+002
1.237411e+002, 1.758872e+002
1.242232e+002, 1.760450e+002
1.247053e+002, 1.758060e+002
1.251874e+002, 1.748726e+002
1.256696e+002, 1.739653e+002
1.261517e+002, 1.732959e+002
1.266338e+002, 1.728574e+002
1.271159e+002, 1.726259e+002
1.275980e+002, 1.727275e+002
1.280801e+002, 1.729959e+002
1.285623e+002, 1.728950e+002
1.290444e+002, 1.719657e+002
1.295265e+002, 1.709686e+002
1.300086e+002, 1.708420e+002
1.304907e+002, 1.717998e+002
1.309728e+002, 1.725521e+002
1.314550e+002, 1.719358e+002
1.319371e+002, 1.706407e+002
1.324192e+002, 1.695604e+002
1.329013e+002, 1.691039e+002
1.333834e+002, 1.691072e+002
1.338655e+002, 1.691022e+002
1.343477e+002, 1.691087e+002
1.348298e+002, 1.690710e+002
1.353119e+002, 1.690219e+002
1.357940e+002, 1.689209e+002
1.362761e+002, 1.686669e+002
1.367582e+002, 1.680668e+002
1.372404e+002, 1.670983e+002
1.377225e+002, 1.667360e+002
1.382046e+002, 1.679193e+002
1.386867e+002, 1.689061e+002
1.391688e+002, 1.690489e+002
1.396509e+002, 1.684369e+002
1.401331e+002, 1.675618e+002
1.406152e+002, 1.668891e+002
1.410973e+002, 1.664162e+002
1.415794e+002, 1.662401e+002
1.420615e+002, 1.667238e+002
1.425436e+002, 1.671778e+002
1.430258e+002, 1.670453e+002
1.435079e+002, 1.662827e+002
1.439900e+002, 1.654178e+002
1.444721e+002, 1.652046e+002
1.449542e+002, 1.660655e+002
1.454363e+002, 1.664986e+002
1.459185e+002, 1.660971e+002
1.464006e+002, 1.653784e+002
1.468827e+002, 1.649855e+002
1.473648e+002, 1.651411e+002
1.478469e+002, 1.654762e+002
1.483290e+002, 1.652775e+002
1.488112e+002, 1.644793e+002
1.492933e+002, 1.638742e+002
1.497754e+002, 1.638900e+002
1.502575e+002, 1.643401e+002
1.507396e+002, 1.646698e+002
1.512217e+002, 1.646723e+002
1.517039e+002, 1.645317e+002
1.521860e+002, 1.645043e+002
1.526681e+002, 1.646053e+002
1.531502e+002, 1.647026e+002
1.536323e+002, 1.646708e+002
1.541144e+002, 1.645049e+002
1.545966e+002, 1.643892e+002
1.550787e+002, 1.645988e+002
1.555608e+002, 1.647334e+002
1.560429e+002, 1.644007e+002
1.565250e+002, 1.635045e+002
1.570071e+002, 1.625123e+002
1.574893e+002, 1.621487e+002
1.579714e+002, 1.627276e+002
1.584535e+002, 1.630935e+002
1.589356e+002, 1.629021e+002
1.594177e+002, 1.625234e+002
1.598998e+002, 1.622148e+002
1.603820e+002, 1.620755e+002
1.608641e+002, 1.620614e+002
1.613462e+002, 1.620713e+002
1.618283e+002, 1.620979e+002
1.623104e+002, 1.621648e+002
1.627925e+002, 1.623600e+002
1.632747e+002, 1.625633e+002
1.637568e+002, 1.626576e+002
1.642389e+002, 1.625853e+002
1.647210e+002, 1.623565e+002
1.652031e+002, 1.620031e+002
1.656852e+002, 1.611816e+002
1.661674e+002, 1.606238e+002
1.666495e+002, 1.605856e+002
1.671316e+002, 1.608825e+002
1.676137e+002, 1.612038e+002
1.680958e+002, 1.613775e+002
1.685779e+002, 1.614247e+002
1.690601e+002, 1.614844e+002
1.695422e+002, 1.616239e+002
1.700243e+002, 1.617076e+002
1.705064e+002, 1.616945e+002
1.709885e+002, 1.615833e+002
1.714706e+002, 1.613532e+002
1.719528e+002, 1.609211e+002
1.724349e+002, 1.603751e+002
1.729170e+002, 1.600692e+002
1.733991e+002, 1.602045e+002
1.738812e+002, 1.604151e+002
1.743633e+002, 1.603292e+002
1.748455e+002, 1.599352e+002
1.753276e+002, 1.597341e+002
1.758097e+002, 1.603117e+002
1.762918e+002, 1.612415e+002
1.767739e+002, 1.617498e+002
1.772560e+002, 1.614868e+002
1.777382e+002, 1.608664e+002
1.782203e+002, 1.604434e+002
1.787024e+002, 1.602520e+002
1.791845e+002, 1.601552e+002
1.796666e+002, 1.602102e+002
1.801487e+002, 1.602851e+002
1.806309e+002, 1.601824e+002
1.811130e+002, 1.597400e+002
1.815951e+002, 1.591125e+002
1.820772e+002, 1.586995e+002
1.825593e+002, 1.584993e+002
1.830414e+002, 1.585620e+002
1.835236e+002, 1.591274e+002
1.840057e+002, 1.598740e+002
1.844878e+002, 1.603152e+002
1.849699e+002, 1.600902e+002
1.854520e+002, 1.593403e+002
1.859341e+002, 1.589853e+002
1.864163e+002, 1.594887e+002
1.868984e+002, 1.598960e+002
1.873805e+002, 1.599666e+002
1.878626e+002, 1.597891e+002
1.883447e+002, 1.595101e+002
1.888268e+002, 1.592021e+002
1.893090e+002, 1.588749e+002
1.897911e+002, 1.588339e+002
1.902732e+002, 1.595523e+002
1.907553e+002, 1.600799e+002
1.912374e+002, 1.600085e+002
1.917195e+002, 1.595247e+002
1.922017e+002, 1.590986e+002
1.926838e+002, 1.591171e+002
1.931659e+002, 1.596127e+002
1.936480e+002, 1.597417e+002
1.941301e+002, 1.592306e+002
1.946122e+002, 1.587066e+002
1.950944e+002, 1.584633e+002
1.955765e+002, 1.584598e+002
1.960586e+002, 1.584637e+002
1.965407e+002, 1.582720e+002
1.970228e+002, 1.578761e+002
1.975049e+002, 1.576458e+002
1.979871e+002, 1.577077e+002
1.984692e+002, 1.578100e+002
1.989513e+002, 1.577786e+002
1.994334e+002, 1.576177e+002
1.999155e+002, 1.574611e+002
2.003976e+002, 1.573869e+002
2.008798e+002, 1.574172e+002
2.013619e+002, 1.576042e+002
2.018440e+002, 1.582139e+002
2.023261e+002, 1.588166e+002
2.028082e+002, 1.589526e+002
2.032903e+002, 1.585819e+002
2.037725e+002, 1.581692e+002
2.042546e+002, 1.581626e+002
2.047367e+002, 1.584053e+002
2.052188e+002, 1.584420e+002
2.057009e+002, 1.579253e+002
2.061830e+002, 1.572692e+002
2.066652e+002, 1.570703e+002
2.071473e+002, 1.574264e+002
2.076294e+002, 1.578848e+002
2.081115e+002, 1.582119e+002
2.085936e+002, 1.584287e+002
2.090757e+002, 1.585434e+002
2.095579e+002, 1.585591e+002
2.100400e+002, 1.584725e+002
2.105221e+002, 1.582288e+002
2.110042e+002, 1.577102e+002
2.114863e+002, 1.573067e+002
2.119685e+002, 1.571914e+002
2.124506e+002, 1.572998e+002
2.129327e+002, 1.575857e+002
2.134148e+002, 1.581259e+002
2.138969e+002, 1.587810e+002
2.143790e+002, 1.591133e+002
2.148612e+002, 1.590353e+002
2.153433e+002, 1.587411e+002
2.158254e+002, 1.580312e+002
2.163075e+002, 1.572463e+002
2.167896e+002, 1.569205e+002
2.172717e+002, 1.574739e+002
2.177539e+002, 1.586231e+002
2.182360e+002, 1.590416e+002
2.187181e+002, 1.579638e+002
2.192002e+002, 1.571374e+002
2.196823e+002, 1.570565e+002
2.201644e+002, 1.574556e+002
2.206466e+002, 1.580151e+002
2.211287e+002, 1.585843e+002
2.216108e+002, 1.591006e+002
2.220929e+002, 1.591824e+002
2.225750e+002, 1.581427e+002
2.230571e+002, 1.574095e+002
2.235393e+002, 1.574286e+002
2.240214e+002, 1.578627e+002
2.245035e+002, 1.582215e+002
2.249856e+002, 1.582085e+002
2.254677e+002, 1.578851e+002
2.259498e+002, 1.576338e+002
2.264320e+002, 1.574181e+002
2.269141e+002, 1.573210e+002
2.273962e+002, 1.574449e+002
2.278783e+002, 1.576842e+002
2.283604e+002, 1.579115e+002
2.288425e+002, 1.580659e+002
2.293247e+002, 1.581194e+002
2.298068e+002, 1.578945e+002
2.302889e+002, 1.568112e+002
2.307710e+002, 1.561238e+002
2.312531e+002, 1.563806e+002
2.317352e+002, 1.571836e+002
2.322174e+002, 1.578095e+002
2.326995e+002, 1.578506e+002
2.331816e+002, 1.574679e+002
2.336637e+002, 1.573788e+002
2.341458e+002, 1.580014e+002
2.346279e+002, 1.583831e+002
2.351101e+002, 1.580417e+002
2.355922e+002, 1.572994e+002
2.360743e+002, 1.568254e+002
2.365564e+002, 1.569868e+002
2.370385e+002, 1.575572e+002
2.375206e+002, 1.577898e+002
2.380028e+002, 1.575133e+002
2.384849e+002, 1.572542e+002
2.389670e+002, 1.571953e+002
2.394491e+002, 1.572837e+002
2.399312e+002, 1.574299e+002
2.404133e+002, 1.576411e+002
2.408955e+002, 1.578183e+002
2.413776e+002, 1.577123e+002
2.418597e+002, 1.572049e+002
2.423418e+002, 1.567630e+002
2.428239e+002, 1.566338e+002
2.433060e+002, 1.567276e+002
2.437882e+002, 1.568006e+002
2.442703e+002, 1.567725e+002
2.447524e+002, 1.566780e+002
2.452345e+002, 1.565462e+002
2.457166e+002, 1.563449e+002
2.461987e+002, 1.562511e+002
2.466809e+002, 1.563838e+002
2.471630e+002, 1.566987e+002
2.476451e+002, 1.570961e+002
2.481272e+002, 1.576707e+002
2.486093e+002, 1.581283e+002
2.490914e+002, 1.580867e+002
2.495736e+002, 1.575430e+002
2.500557e+002, 1.569547e+002
2.505378e+002, 1.565378e+002
2.510199e+002, 1.562765e+002
2.515020e+002, 1.561034e+002
2.519841e+002, 1.560079e+002
2.524663e+002, 1.560053e+002
2.529484e+002, 1.561969e+002
2.534305e+002, 1.565451e+002
2.539126e+002, 1.567102e+002
2.543947e+002, 1.563056e+002
2.548768e+002, 1.554885e+002
2.553590e+002, 1.550425e+002
2.558411e+002, 1.552552e+002
2.563232e+002, 1.555810e+002
2.568053e+002, 1.556193e+002
2.572874e+002, 1.554331e+002
2.577695e+002, 1.552470e+002
2.582516e+002, 1.551399e+002
2.587338e+002, 1.551292e+002
2.592159e+002, 1.553511e+002
2.596980e+002, 1.560366e+002
2.601801e+002, 1.566212e+002
2.606622e+002, 1.568490e+002
2.611443e+002, 1.567707e+002
2.616265e+002, 1.564868e+002
2.621086e+002, 1.559458e+002
2.625907e+002, 1.552370e+002
2.630728e+002, 1.547906e+002
2.635549e+002, 1.547091e+002
2.640370e+002, 1.547543e+002
2.645192e+002, 1.548332e+002
2.650013e+002, 1.549487e+002
2.654834e+002, 1.551327e+002
2.659655e+002, 1.554671e+002
2.664476e+002, 1.558418e+002
2.669297e+002, 1.558168e+002
2.674119e+002, 1.550259e+002
2.678940e+002, 1.544320e+002
2.683761e+002, 1.545002e+002
2.688582e+002, 1.548497e+002
2.693403e+002, 1.549775e+002
2.698224e+002, 1.546035e+002
2.703046e+002, 1.539580e+002
2.707867e+002, 1.536847e+002
2.712688e+002, 1.539732e+002
2.717509e+002, 1.543241e+002
2.722330e+002, 1.547204e+002
2.727151e+002, 1.550748e+002
2.731973e+002, 1.552848e+002
2.736794e+002, 1.553066e+002
2.741615e+002, 1.552201e+002
2.746436e+002, 1.552280e+002
2.751257e+002, 1.555362e+002
2.756078e+002, 1.555077e+002
2.760900e+002, 1.547199e+002
2.765721e+002, 1.538248e+002
2.770542e+002, 1.533888e+002
2.775363e+002, 1.535669e+002
2.780184e+002, 1.540681e+002
2.785005e+002, 1.544454e+002
2.789827e+002, 1.547549e+002
2.794648e+002, 1.547865e+002
2.799469e+002, 1.542740e+002
2.804290e+002, 1.537110e+002
2.809111e+002, 1.534877e+002
2.813932e+002, 1.536411e+002
2.818754e+002, 1.538678e+002
2.823575e+002, 1.537117e+002
2.828396e+002, 1.528888e+002
2.833217e+002, 1.525224e+002
2.838038e+002, 1.529914e+002
2.842859e+002, 1.535406e+002
2.847681e+002, 1.537474e+002
2.852502e+002, 1.536116e+002
2.857323e+002, 1.534077e+002
2.862144e+002, 1.534436e+002
2.866965e+002, 1.538044e+002
2.871786e+002, 1.539055e+002
2.876608e+002, 1.534234e+002
2.881429e+002, 1.530079e+002
2.886250e+002, 1.530664e+002
2.891071e+002, 1.534488e+002
2.895892e+002, 1.536615e+002
2.900714e+002, 1.532453e+002
2.905535e+002, 1.521852e+002
2.910356e+002, 1.516388e+002
2.915177e+002, 1.520830e+002
2.919998e+002, 1.525385e+002
2.924819e+002, 1.528147e+002
2.929641e+002, 1.529035e+002
2.934462e+002, 1.528134e+002
2.939283e+002, 1.525272e+002
2.944104e+002, 1.520969e+002
2.948925e+002, 1.518696e+002
2.953746e+002, 1.521543e+002
2.958568e+002, 1.523050e+002
2.963389e+002, 1.520189e+002
2.968210e+002, 1.516011e+002
2.973031e+002, 1.515374e+002
2.977852e+002, 1.520697e+002
2.982673e+002, 1.529345e+002
2.987495e+002, 1.533402e+002
2.992316e+002, 1.527077e+002
2.997137e+002, 1.523163e+002
3.001958e+002, 1.523911e+002
3.006779e+002, 1.526433e+002
3.011600e+002, 1.528109e+002
3.016422e+002, 1.528012e+002
3.021243e+002, 1.526447e+002
3.026064e+002, 1.523834e+002
3.030885e+002, 1.518710e+002
3.035706e+002, 1.515197e+002
3.040527e+002, 1.514267e+002
3.045349e+002, 1.514154e+002
3.050170e+002, 1.513587e+002
3.054991e+002, 1.512337e+002
3.059812e+002, 1.510931e+002
3.064633e+002, 1.510013e+002
3.069454e+002, 1.509705e+002
3.074276e+002, 1.509543e+002
3.079097e+002, 1.510110e+002
3.083918e+002, 1.510325e+002
3.088739e+002, 1.509443e+002
3.093560e+002, 1.507584e+002
3.098381e+002, 1.505392e+002
3.103203e+002, 1.503319e+002
3.108024e+002, 1.501337e+002
3.112845e+002, 1.500254e+002
3.117666e+002, 1.500194e+002
3.122487e+002, 1.500755e+002
3.127308e+002, 1.502092e+002
3.132130e+002, 1.503947e+002
3.136951e+002, 1.505900e+002
3.141772e+002, 1.507715e+002
3.146593e+002, 1.509345e+002
3.151414e+002, 1.510398e+002
3.156235e+002, 1.510926e+002
3.161057e+002, 1.510795e+002
3.165878e+002, 1.510074e+002
3.170699e+002, 1.508637e+002
3.175520e+002, 1.505923e+002
3.180341e+002, 1.501665e+002
3.185162e+002, 1.496836e+002
3.189984e+002, 1.493982e+002
3.194805e+002, 1.494360e+002
3.199626e+002, 1.495318e+002
3.204447e+002, 1.497704e+002
3.209268e+002, 1.500164e+002
3.214089e+002, 1.501604e+002
3.218911e+002, 1.501690e+002
3.223732e+002, 1.500597e+002
3.228553e+002, 1.498493e+002
3.233374e+002, 1.494948e+002
3.238195e+002, 1.491417e+002
3.243016e+002, 1.485395e+002
3.247838e+002, 1.481319e+002
3.252659e+002, 1.484273e+002
3.257480e+002, 1.493056e+002
3.262301e+002, 1.500536e+002
3.267122e+002, 1.499049e+002
3.271943e+002, 1.486821e+002
3.276765e+002, 1.480550e+002
3.281586e+002, 1.484930e+002
3.286407e+002, 1.489719e+002
3.291228e+002, 1.491195e+002
3.296049e+002, 1.490007e+002
3.300870e+002, 1.488382e+002
3.305692e+002, 1.487785e+002
3.310513e+002, 1.488089e+002
3.315334e+002, 1.488344e+002
3.320155e+002, 1.488757e+002
3.324976e+002, 1.488881e+002
3.329797e+002, 1.488538e+002
3.334619e+002, 1.487916e+002
3.339440e+002, 1.487075e+002
3.344261e+002, 1.486046e+002
3.349082e+002, 1.485225e+002
3.353904e+002, 1.485580e+002
3.358725e+002, 1.487860e+002
3.363546e+002, 1.490280e+002
3.368367e+002, 1.494725e+002
3.373188e+002, 1.498106e+002
3.378009e+002, 1.496661e+002
3.382831e+002, 1.490203e+002
3.387652e+002, 1.482990e+002
3.392473e+002, 1.481301e+002
3.397294e+002, 1.488296e+002
3.402115e+002, 1.490814e+002
3.406936e+002, 1.485005e+002
3.411758e+002, 1.478751e+002
3.416579e+002, 1.475790e+002
3.421400e+002, 1.475971e+002
3.426221e+002, 1.477270e+002
3.431042e+002, 1.478061e+002
3.435863e+002, 1.478337e+002
3.440685e+002, 1.478578e+002
3.445506e+002, 1.478678e+002
3.450327e+002, 1.478833e+002
3.455148e+002, 1.479578e+002
3.459969e+002, 1.480307e+002
3.464790e+002, 1.479834e+002
3.469612e+002, 1.477369e+002
3.474433e+002, 1.473873e+002
3.479254e+002, 1.472390e+002
3.484075e+002, 1.473685e+002
3.488896e+002, 1.475982e+002
3.493717e+002, 1.480652e+002
3.498539e+002, 1.485159e+002
3.503360e+002, 1.487210e+002
3.508181e+002, 1.486132e+002
3.513002e+002, 1.483134e+002
3.517823e+002, 1.479864e+002
3.522644e+002, 1.476303e+002
3.527466e+002, 1.472547e+002
3.532287e+002, 1.467838e+002
3.537108e+002, 1.463551e+002
3.541929e+002, 1.460129e+002
3.546750e+002, 1.457754e+002
3.551571e+002, 1.456729e+002
3.556393e+002, 1.457873e+002
3.561214e+002, 1.461169e+002
3.566035e+002, 1.462722e+002
3.570856e+002, 1.460164e+002
3.575677e+002, 1.458697e+002
3.580498e+002, 1.462267e+002
3.585320e+002, 1.467849e+002
3.590141e+002, 1.469785e+002
3.594962e+002, 1.464083e+002
3.599783e+002, 1.454202e+002
3.604604e+002, 1.449999e+002
3.609425e+002, 1.454559e+002
3.614247e+002, 1.457570e+002
3.619068e+002, 1.453681e+002
3.623889e+002, 1.448206e+002
3.628710e+002, 1.446592e+002
3.633531e+002, 1.450433e+002
3.638352e+002, 1.455138e+002
3.643174e+002, 1.453832e+002
3.647995e+002, 1.445487e+002
3.652816e+002, 1.441920e+002
3.657637e+002, 1.450946e+002
3.662458e+002, 1.460230e+002
3.667279e+002, 1.460787e+002
3.672101e+002, 1.453443e+002
3.676922e+002, 1.445851e+002
3.681743e+002, 1.443099e+002
3.686564e+002, 1.444482e+002
3.691385e+002, 1.447268e+002
3.696206e+002, 1.452751e+002
3.701028e+002, 1.456951e+002
3.705849e+002, 1.456652e+002
3.710670e+002, 1.453650e+002
3.715491e+002, 1.451072e+002
3.720312e+002, 1.450455e+002
3.725133e+002, 1.450326e+002
3.729955e+002, 1.447979e+002
3.734776e+002, 1.443049e+002
3.739597e+002, 1.439604e+002
3.744418e+002, 1.440773e+002
3.749239e+002, 1.443534e+002
3.754060e+002, 1.443928e+002
3.758882e+002, 1.441198e+002
3.763703e+002, 1.437985e+002
3.768524e+002, 1.435300e+002
3.773345e+002, 1.433454e+002
3.778166e+002, 1.434182e+002
3.782987e+002, 1.439006e+002
3.787809e+002, 1.444424e+002
3.792630e+002, 1.446463e+002
3.797451e+002, 1.445539e+002
3.802272e+002, 1.443984e+002
3.807093e+002, 1.442894e+002
3.811914e+002, 1.441443e+002
3.816736e+002, 1.437307e+002
3.821557e+002, 1.430148e+002
3.826378e+002, 1.425484e+002
3.831199e+002, 1.429352e+002
3.836020e+002, 1.439183e+002
3.840841e+002, 1.443062e+002
3.845663e+002, 1.435621e+002
3.850484e+002, 1.427338e+002
3.855305e+002, 1.424678e+002
3.860126e+002, 1.426196e+002
3.864947e+002, 1.427339e+002
3.869768e+002, 1.426223e+002
3.874590e+002, 1.423748e+002
3.879411e+002, 1.421432e+002
3.884232e+002, 1.418470e+002
3.889053e+002, 1.417749e+002
3.893874e+002, 1.422066e+002
3.898695e+002, 1.427863e+002
3.903517e+002, 1.431227e+002
3.908338e+002, 1.431423e+002
3.913159e+002, 1.429638e+002
3.917980e+002, 1.426871e+002
3.922801e+002, 1.422977e+002
3.927622e+002, 1.419203e+002
3.932444e+002, 1.413836e+002
3.937265e+002, 1.410174e+002
3.942086e+002, 1.411276e+002
3.946907e+002, 1.415579e+002
3.951728e+002, 1.419015e+002
3.956549e+002, 1.419180e+002
3.961371e+002, 1.416771e+002
3.966192e+002, 1.414545e+002
3.971013e+002, 1.412413e+002
3.975834e+002, 1.410590e+002
3.980655e+002, 1.409075e+002
3.985476e+002, 1.407892e+002
3.990298e+002, 1.407192e+002
3.995119e+002, 1.406966e+002
3.999940e+002, 1.406871e+002
4.004761e+002, 1.406411e+002
4.009582e+002, 1.405392e+002
4.014403e+002, 1.404697e+002
4.019225e+002, 1.405273e+002
4.024046e+002, 1.405249e+002
4.028867e+002, 1.402566e+002
4.033688e+002, 1.398489e+002
4.038509e+002, 1.396396e+002
4.043330e+002, 1.399069e+002
4.048152e+002, 1.405226e+002
4.052973e+002, 1.407366e+002
4.057794e+002, 1.401943e+002
4.062615e+002, 1.397693e+002
4.067436e+002, 1.396760e+002
4.072257e+002, 1.397403e+002
4.077079e+002, 1.398150e+002
4.081900e+002, 1.398507e+002
4.086721e+002, 1.398275e+002
4.091542e+002, 1.396550e+002
4.096363e+002, 1.392611e+002
4.101184e+002, 1.391261e+002
4.106006e+002, 1.396275e+002
4.110827e+002, 1.401068e+002
4.115648e+002, 1.402061e+002
4.120469e+002, 1.399841e+002
4.125290e+002, 1.397090e+002
4.130111e+002, 1.395976e+002
4.134933e+002, 1.395580e+002
4.139754e+002, 1.392135e+002
4.144575e+002, 1.383703e+002
4.149396e+002, 1.377433e+002
4.154217e+002, 1.378465e+002
4.159038e+002, 1.382957e+002
4.163860e+002, 1.387101e+002
4.168681e+002, 1.390396e+002
4.173502e+002, 1.392132e+002
4.178323e+002, 1.390481e+002
4.183144e+002, 1.385968e+002
4.187965e+002, 1.383623e+002
4.192787e+002, 1.386260e+002
4.197608e+002, 1.389141e+002
4.202429e+002, 1.386153e+002
4.207250e+002, 1.377861e+002
4.212071e+002, 1.370855e+002
4.216892e+002, 1.366535e+002
4.221714e+002, 1.365165e+002
4.226535e+002, 1.368711e+002
4.231356e+002, 1.377319e+002
4.236177e+002, 1.384605e+002
4.240998e+002, 1.385790e+002
4.245819e+002, 1.382171e+002
4.250641e+002, 1.380281e+002
4.255462e+002, 1.381173e+002
4.260283e+002, 1.382424e+002
4.265104e+002, 1.383923e+002
4.269925e+002, 1.384939e+002
4.274746e+002, 1.383452e+002
4.279568e+002, 1.378545e+002
4.284389e+002, 1.372840e+002
4.289210e+002, 1.370366e+002
4.294031e+002, 1.372744e+002
4.298852e+002, 1.374030e+002
4.303673e+002, 1.374529e+002
4.308495e+002, 1.373703e+002
4.313316e+002, 1.369921e+002
4.318137e+002, 1.364117e+002
4.322958e+002, 1.359680e+002
4.327779e+002, 1.359162e+002
4.332600e+002, 1.362085e+002
4.337422e+002, 1.364561e+002
4.342243e+002, 1.367000e+002
4.347064e+002, 1.368443e+002
4.351885e+002, 1.368041e+002
4.356706e+002, 1.366902e+002
4.361527e+002, 1.366282e+002
4.366349e+002, 1.366523e+002
4.371170e+002, 1.366932e+002
4.375991e+002, 1.366160e+002
4.380812e+002, 1.363208e+002
4.385633e+002, 1.362767e+002
4.390454e+002, 1.367837e+002
4.395276e+002, 1.372621e+002
4.400097e+002, 1.375451e+002
4.404918e+002, 1.376137e+002
4.409739e+002, 1.374561e+002
4.414560e+002, 1.370042e+002
4.419381e+002, 1.363960e+002
4.424203e+002, 1.360395e+002
4.429024e+002, 1.360137e+002
4.433845e+002, 1.360380e+002
4.438666e+002, 1.361351e+002
4.443487e+002, 1.361836e+002
4.448308e+002, 1.360224e+002
4.453130e+002, 1.356263e+002
4.457951e+002, 1.352715e+002
4.462772e+002, 1.352366e+002
4.467593e+002, 1.354587e+002
4.472414e+002, 1.356432e+002
4.477235e+002, 1.358206e+002
4.482057e+002, 1.358231e+002
4.486878e+002, 1.353060e+002
4.491699e+002, 1.345077e+002
4.496520e+002, 1.340225e+002
4.501341e+002, 1.342180e+002
4.506162e+002, 1.345798e+002
4.510984e+002, 1.345840e+002
4.515805e+002, 1.342963e+002
4.520626e+002, 1.341520e+002
4.525447e+002, 1.343754e+002
4.530268e+002, 1.347633e+002
4.535089e+002, 1.349086e+002
4.539911e+002, 1.347656e+002
4.544732e+002, 1.346689e+002
4.549553e+002, 1.347318e+002
4.554374e+002, 1.348538e+002
4.559195e+002, 1.350199e+002
4.564016e+002, 1.351906e+002
4.568838e+002, 1.350928e+002
4.573659e+002, 1.344046e+002
4.578480e+002, 1.331926e+002
4.583301e+002, 1.326981e+002
4.588122e+002, 1.336275e+002
4.592943e+002, 1.343142e+002
4.597765e+002, 1.341546e+002
4.602586e+002, 1.335911e+002
4.607407e+002, 1.332329e+002
4.612228e+002, 1.332798e+002
4.617049e+002, 1.334775e+002
4.621870e+002, 1.334367e+002
4.626692e+002, 1.330510e+002
4.631513e+002, 1.327676e+002
4.636334e+002, 1.326883e+002
4.641155e+002, 1.326085e+002
4.645976e+002, 1.322623e+002
4.650797e+002, 1.318540e+002
4.655619e+002, 1.319176e+002
4.660440e+002, 1.329029e+002
4.665261e+002, 1.342925e+002
4.670082e+002, 1.344907e+002
4.674903e+002, 1.329227e+002
4.679724e+002, 1.317314e+002
4.684546e+002, 1.317591e+002
4.689367e+002, 1.321486e+002
4.694188e+002, 1.323143e+002
4.699009e+002, 1.321953e+002
4.703830e+002, 1.320688e+002
4.708651e+002, 1.322122e+002
4.713473e+002, 1.325256e+002
4.718294e+002, 1.326463e+002
4.723115e+002, 1.325368e+002
4.727936e+002, 1.322825e+002
4.732757e+002, 1.317564e+002
4.737578e+002, 1.311569e+002
4.742400e+002, 1.308935e+002
4.747221e+002, 1.311975e+002
4.752042e+002, 1.315679e+002
4.756863e+002, 1.316401e+002
4.761684e+002, 1.315053e+002
4.766505e+002, 1.314714e+002
4.771327e+002, 1.316665e+002
4.776148e+002, 1.318075e+002
4.780969e+002, 1.314313e+002
4.785790e+002, 1.304137e+002
4.790611e+002, 1.298714e+002
4.795432e+002, 1.303291e+002
4.800254e+002, 1.308686e+002
4.805075e+002, 1.308606e+002
4.809896e+002, 1.304262e+002
4.814717e+002, 1.300406e+002
4.819538e+002, 1.299751e+002
4.824359e+002, 1.300835e+002
4.829181e+002, 1.299337e+002
4.834002e+002, 1.289997e+002
4.838823e+002, 1.285951e+002
4.843644e+002, 1.292126e+002
4.848465e+002, 1.299765e+002
4.853286e+002, 1.302642e+002
4.858108e+002, 1.300445e+002
4.862929e+002, 1.296301e+002
4.867750e+002, 1.292511e+002
4.872571e+002, 1.289156e+002
4.877392e+002, 1.286892e+002
4.882213e+002, 1.286028e+002
4.887035e+002, 1.285815e+002
4.891856e+002, 1.285998e+002
4.896677e+002, 1.286638e+002
4.901498e+002, 1.288022e+002
4.906319e+002, 1.290219e+002
4.911140e+002, 1.292321e+002
4.915962e+002, 1.293535e+002
4.920783e+002, 1.293885e+002
4.925604e+002, 1.293498e+002
4.930425e+002, 1.292349e+002
4.935246e+002, 1.290545e+002
4.940067e+002, 1.287705e+002
4.944889e+002, 1.284281e+002
4.949710e+002, 1.281224e+002
4.954531e+002, 1.278360e+002
4.959352e+002, 1.276387e+002
4.964173e+002, 1.276322e+002
4.968994e+002, 1.277715e+002
4.973816e+002, 1.279235e+002
4.978637e+002, 1.280754e+002
4.983458e+002, 1.281150e+002
4.988279e+002, 1.278091e+002
4.993100e+002, 1.270323e+002
4.997921e+002, 1.265581e+002
5.002743e+002, 1.267152e+002
5.007564e+002, 1.269461e+002
5.012385e+002, 1.268126e+002
5.017206e+002, 1.264238e+002
5.022027e+002, 1.262035e+002
5.026848e+002, 1.264108e+002
5.031670e+002, 1.268534e+002
5.036491e+002, 1.269492e+002
5.041312e+002, 1.263716e+002
5.046133e+002, 1.259707e+002
5.050954e+002, 1.259210e+002
5.055775e+002, 1.259207e+002
5.060597e+002, 1.257272e+002
5.065418e+002, 1.253684e+002
5.070239e+002, 1.250625e+002
5.075060e+002, 1.249933e+002
5.079881e+002, 1.251116e+002
5.084702e+002, 1.251744e+002
5.089524e+002, 1.251368e+002
5.094345e+002, 1.251471e+002
5.099166e+002, 1.253219e+002
5.103987e+002, 1.255269e+002
5.108808e+002, 1.256760e+002
5.113629e+002, 1.257565e+002
5.118451e+002, 1.256862e+002
5.123271e+002, 1.251960e+002
5.128093e+002, 1.245133e+002
5.132914e+002, 1.244018e+002
5.137735e+002, 1.250464e+002
5.142556e+002, 1.256567e+002
5.147377e+002, 1.257127e+002
5.152198e+002, 1.252834e+002
5.157020e+002, 1.246906e+002
5.161841e+002, 1.236528e+002
5.166662e+002, 1.228708e+002
5.171483e+002, 1.228467e+002
5.176304e+002, 1.232251e+002
5.181125e+002, 1.233841e+002
5.185947e+002, 1.231759e+002
5.190768e+002, 1.229643e+002
5.195589e+002, 1.232028e+002
5.200410e+002, 1.239942e+002
5.205231e+002, 1.242313e+002
5.210052e+002, 1.234787e+002
5.214874e+002, 1.227537e+002
5.219695e+002, 1.223207e+002
5.224516e+002, 1.221301e+002
5.229337e+002, 1.221050e+002
5.234158e+002, 1.222120e+002
5.238979e+002, 1.224257e+002
5.243801e+002, 1.227683e+002
5.248622e+002, 1.233121e+002
5.253443e+002, 1.235973e+002
5.258264e+002, 1.234542e+002
5.263085e+002, 1.232095e+002
5.267906e+002, 1.229473e+002
5.272728e+002, 1.226981e+002
5.277549e+002, 1.225211e+002
5.282370e+002, 1.224747e+002
5.287191e+002, 1.224316e+002
5.292012e+002, 1.221647e+002
5.296833e+002, 1.216976e+002
5.301655e+002, 1.214053e+002
5.306476e+002, 1.214409e+002
5.311297e+002, 1.215803e+002
5.316118e+002, 1.215930e+002
5.320939e+002, 1.214942e+002
5.325760e+002, 1.213480e+002
5.330582e+002, 1.210045e+002
5.335403e+002, 1.207567e+002
5.340224e+002, 1.209389e+002
5.345045e+002, 1.214177e+002
5.349866e+002, 1.217943e+002
5.354688e+002, 1.218989e+002
5.359509e+002, 1.217843e+002
5.364330e+002, 1.215247e+002
5.369151e+002, 1.209821e+002
5.373972e+002, 1.206355e+002
5.378793e+002, 1.206051e+002
5.383615e+002, 1.206403e+002
5.388436e+002, 1.206683e+002
5.393257e+002, 1.206455e+002
5.398078e+002, 1.204789e+002
5.402899e+002, 1.200958e+002
5.407720e+002, 1.196500e+002
5.412542e+002, 1.195226e+002
5.417363e+002, 1.198127e+002
5.422184e+002, 1.200872e+002
5.427005e+002, 1.203059e+002
5.431826e+002, 1.204660e+002
5.436647e+002, 1.206304e+002
5.441469e+002, 1.207486e+002
5.446290e+002, 1.206321e+002
5.451111e+002, 1.199685e+002
5.455932e+002, 1.191761e+002
5.460753e+002, 1.189773e+002
5.465574e+002, 1.193500e+002
5.470396e+002, 1.196174e+002
5.475217e+002, 1.195057e+002
5.480038e+002, 1.192003e+002
5.484859e+002, 1.189779e+002
5.489680e+002, 1.188466e+002
5.494501e+002, 1.186976e+002
5.499323e+002, 1.185122e+002
5.504144e+002, 1.183026e+002
5.508965e+002, 1.180475e+002
5.513786e+002, 1.177728e+002
5.518607e+002, 1.175518e+002
5.523428e+002, 1.174242e+002
5.528250e+002, 1.173729e+002
5.533071e+002, 1.173484e+002
5.537892e+002, 1.172669e+002
5.542713e+002, 1.173775e+002
5.547534e+002, 1.179453e+002
5.552355e+002, 1.184410e+002
5.557177e+002, 1.185009e+002
5.561998e+002, 1.182281e+002
5.566819e+002, 1.179783e+002
5.571640e+002, 1.179983e+002
5.576461e+002, 1.180922e+002
5.581282e+002, 1.177566e+002
5.586104e+002, 1.168945e+002
5.590925e+002, 1.162313e+002
5.595746e+002, 1.160182e+002
5.600567e+002, 1.159966e+002
5.605388e+002, 1.159354e+002
5.610209e+002, 1.158430e+002
5.615031e+002, 1.157858e+002
5.619852e+002, 1.157713e+002
5.624673e+002, 1.158161e+002
5.629494e+002, 1.159614e+002
5.634315e+002, 1.161895e+002
5.639136e+002, 1.164516e+002
5.643958e+002, 1.167626e+002
5.648779e+002, 1.169851e+002
5.653600e+002, 1.168515e+002
5.658421e+002, 1.161548e+002
5.663242e+002, 1.156951e+002
5.668063e+002, 1.156017e+002
5.672885e+002, 1.156152e+002
5.677706e+002, 1.156001e+002
5.682527e+002, 1.155767e+002
5.687348e+002, 1.156611e+002
5.692169e+002, 1.159172e+002
5.696990e+002, 1.161689e+002
5.701812e+002, 1.160098e+002
5.706633e+002, 1.152848e+002
5.711454e+002, 1.147815e+002
5.716275e+002, 1.147269e+002
5.721096e+002, 1.147370e+002
5.725917e+002, 1.145955e+002
5.730739e+002, 1.143717e+002
5.735560e+002, 1.142567e+002
5.740381e+002, 1.143966e+002
5.745202e+002, 1.145413e+002
5.750023e+002, 1.143538e+002
5.754844e+002, 1.138973e+002
5.759666e+002, 1.135176e+002
5.764487e+002, 1.132912e+002
5.769308e+002, 1.131875e+002
5.774129e+002, 1.132203e+002
5.778950e+002, 1.133919e+002
5.783771e+002, 1.134459e+002
5.788593e+002, 1.132559e+002
5.793414e+002, 1.130776e+002
5.798235e+002, 1.130391e+002
5.803056e+002, 1.130835e+002
5.807877e+002, 1.131052e+002
5.812698e+002, 1.130749e+002
5.817520e+002, 1.130719e+002
5.822341e+002, 1.132533e+002
5.827162e+002, 1.136862e+002
5.831984e+002, 1.136429e+002
5.836805e+002, 1.125041e+002
5.841626e+002, 1.116602e+002
5.846447e+002, 1.116958e+002
5.851268e+002, 1.121342e+002
5.856089e+002, 1.124023e+002
5.860911e+002, 1.123459e+002
5.865732e+002, 1.121847e+002
5.870553e+002, 1.120688e+002
5.875374e+002, 1.120098e+002
5.880195e+002, 1.121206e+002
5.885016e+002, 1.124751e+002
5.889838e+002, 1.126596e+002
5.894659e+002, 1.123246e+002
5.899480e+002, 1.116457e+002
5.904301e+002, 1.111631e+002
5.909122e+002, 1.108838e+002
5.913943e+002, 1.107789e+002
5.918765e+002, 1.109672e+002
5.923586e+002, 1.112484e+002
5.928407e+002, 1.114084e+002
5.933228e+002, 1.114297e+002
5.938049e+002, 1.114238e+002
5.942870e+002, 1.114859e+002
5.947692e+002, 1.115680e+002
5.952513e+002, 1.114147e+002
5.957334e+002, 1.107212e+002
5.962155e+002, 1.103428e+002
5.966976e+002, 1.106628e+002
5.971797e+002, 1.110455e+002
5.976619e+002, 1.110358e+002
5.981440e+002, 1.106711e+002
5.986261e+002, 1.102793e+002
5.991082e+002, 1.099969e+002
5.995903e+002, 1.098645e+002
6.000724e+002, 1.100841e+002
6.005546e+002, 1.106582e+002
6.010367e+002, 1.109136e+002
6.015188e+002, 1.105144e+002
6.020009e+002, 1.098964e+002
6.024830e+002, 1.095973e+002
6.029651e+002, 1.096012e+002
6.034473e+002, 1.096670e+002
6.039294e+002, 1.098493e+002
6.044115e+002, 1.099991e+002
6.048936e+002, 1.100058e+002
6.053757e+002, 1.099145e+002
6.058578e+002, 1.098535e+002
6.063400e+002, 1.098659e+002
6.068221e+002, 1.098008e+002
6.073042e+002, 1.093884e+002
6.077863e+002, 1.085224e+002
6.082684e+002, 1.080171e+002
6.087505e+002, 1.081686e+002
6.092327e+002, 1.083529e+002
6.097148e+002, 1.083711e+002
6.101969e+002, 1.083282e+002
6.106790e+002, 1.083989e+002
6.111611e+002, 1.086353e+002
6.116432e+002, 1.088152e+002
6.121254e+002, 1.086221e+002
6.126075e+002, 1.082167e+002
6.130896e+002, 1.082082e+002
6.135717e+002, 1.087137e+002
6.140538e+002, 1.090208e+002
6.145359e+002, 1.086027e+002
6.150181e+002, 1.077256e+002
6.155002e+002, 1.071703e+002
6.159823e+002, 1.069776e+002
6.164644e+002, 1.069529e+002
6.169465e+002, 1.072264e+002
6.174286e+002, 1.075267e+002
6.179108e+002, 1.076197e+002
6.183929e+002, 1.075159e+002
6.188750e+002, 1.073374e+002
6.193571e+002, 1.071559e+002
6.198392e+002, 1.069717e+002
6.203214e+002, 1.067756e+002
6.208035e+002, 1.065417e+002
6.212856e+002, 1.063797e+002
6.217677e+002, 1.064656e+002
6.222498e+002, 1.064662e+002
6.227319e+002, 1.060835e+002
6.232141e+002, 1.054799e+002
6.236962e+002, 1.050787e+002
6.241783e+002, 1.050809e+002
6.246604e+002, 1.052625e+002
6.251425e+002, 1.055271e+002
6.256246e+002, 1.057999e+002
6.261068e+002, 1.057675e+002
6.265889e+002, 1.053318e+002
6.270710e+002, 1.048535e+002
6.275531e+002, 1.046718e+002
6.280352e+002, 1.047736e+002
6.285173e+002, 1.048492e+002
6.289995e+002, 1.048886e+002
6.294816e+002, 1.049177e+002
6.299637e+002, 1.049482e+002
6.304458e+002, 1.049658e+002
6.309279e+002, 1.048994e+002
6.314100e+002, 1.047808e+002
6.318922e+002, 1.047945e+002
6.323743e+002, 1.051468e+002
6.328564e+002, 1.057078e+002
6.333385e+002, 1.060144e+002
6.338206e+002, 1.060623e+002
6.343027e+002, 1.058478e+002
6.347849e+002, 1.051038e+002
6.352670e+002, 1.043409e+002
6.357491e+002, 1.040672e+002
6.362312e+002, 1.042436e+002
6.367133e+002, 1.044730e+002
6.371954e+002, 1.048369e+002
6.376776e+002, 1.050274e+002
6.381597e+002, 1.045837e+002
6.386418e+002, 1.037858e+002
6.391239e+002, 1.033855e+002
6.396060e+002, 1.036303e+002
6.400881e+002, 1.040604e+002
6.405703e+002, 1.040993e+002
6.410524e+002, 1.037129e+002
6.415345e+002, 1.033492e+002
6.420166e+002, 1.027876e+002
6.424987e+002, 1.025302e+002
6.429808e+002, 1.029888e+002
6.434630e+002, 1.036200e+002
6.439451e+002, 1.038491e+002
6.444272e+002, 1.035857e+002
6.449093e+002, 1.031960e+002
6.453914e+002, 1.029502e+002
6.458735e+002, 1.027920e+002
6.463557e+002, 1.025927e+002
6.468378e+002, 1.023489e+002
6.473199e+002, 1.020484e+002
6.478020e+002, 1.016161e+002
6.482841e+002, 1.012202e+002
6.487662e+002, 1.011730e+002
6.492484e+002, 1.015471e+002
6.497305e+002, 1.018394e+002
6.502126e+002, 1.020381e+002
6.506947e+002, 1.021173e+002
6.511768e+002, 1.020139e+002
6.516589e+002, 1.017940e+002
6.521411e+002, 1.015440e+002
6.526232e+002, 1.013013e+002
6.531053e+002, 1.011084e+002
6.535874e+002, 1.010192e+002
6.540695e+002, 1.010340e+002
6.545516e+002, 1.011505e+002
6.550338e+002, 1.014921e+002
6.555159e+002, 1.016858e+002
6.559980e+002, 1.014448e+002
6.564801e+002, 1.010287e+002
6.569622e+002, 1.006997e+002
6.574443e+002, 1.004848e+002
6.579265e+002, 1.003184e+002
6.584086e+002, 1.001110e+002
6.588907e+002, 9.997959e+001
6.593728e+002, 1.002032e+002
6.598549e+002, 1.006580e+002
6.603370e+002, 1.007630e+002
6.608192e+002, 1.002253e+002
6.613013e+002, 9.945831e+001
6.617834e+002, 9.922066e+001
6.622655e+002, 9.972665e+001
6.627476e+002, 9.995448e+001
6.632297e+002, 9.962479e+001
6.637119e+002, 9.932168e+001
6.641940e+002, 9.917964e+001
6.646761e+002, 9.918638e+001
6.651582e+002, 9.938197e+001
6.656403e+002, 9.977746e+001
6.661224e+002, 1.000852e+002
6.666046e+002, 1.000092e+002
6.670867e+002, 9.968322e+001
6.675688e+002, 9.932178e+001
6.680509e+002, 9.893800e+001
6.685330e+002, 9.896111e+001
6.690151e+002, 9.979466e+001
6.694973e+002, 1.008759e+002
6.699794e+002, 1.010327e+002
6.704615e+002, 9.979898e+001
6.709436e+002, 9.888149e+001
6.714257e+002, 9.835082e+001
6.719078e+002, 9.809553e+001
6.723900e+002, 9.825742e+001
6.728721e+002, 9.859769e+001
6.733542e+002, 9.871815e+001
6.738363e+002, 9.848221e+001
6.743184e+002, 9.814075e+001
6.748005e+002, 9.799615e+001
6.752827e+002, 9.802641e+001
6.757648e+002, 9.801076e+001
6.762469e+002, 9.792860e+001
6.767290e+002, 9.785916e+001
6.772111e+002, 9.788004e+001
6.776932e+002, 9.790939e+001
6.781754e+002, 9.778147e+001
6.786575e+002, 9.745134e+001
6.791396e+002, 9.721464e+001
6.796217e+002, 9.711441e+001
6.801038e+002, 9.715327e+001
6.805859e+002, 9.751202e+001
6.810681e+002, 9.799032e+001
6.815502e+002, 9.808813e+001
6.820323e+002, 9.762153e+001
6.825144e+002, 9.698853e+001
6.829965e+002, 9.677447e+001
6.834786e+002, 9.700718e+001
6.839608e+002, 9.720544e+001
6.844429e+002, 9.742524e+001
6.849250e+002, 9.750617e+001
6.854071e+002, 9.724935e+001
6.858892e+002, 9.689165e+001
6.863713e+002, 9.673367e+001
6.868535e+002, 9.681915e+001
6.873356e+002, 9.675526e+001
6.878177e+002, 9.612257e+001
6.882998e+002, 9.544588e+001
6.887819e+002, 9.534023e+001
6.892640e+002, 9.567066e+001
6.897462e+002, 9.593195e+001
6.902283e+002, 9.592764e+001
6.907104e+002, 9.580078e+001
6.911925e+002, 9.574837e+001
6.916746e+002, 9.577534e+001
6.921567e+002, 9.583827e+001
6.926389e+002, 9.606036e+001
6.931210e+002, 9.614652e+001
6.936031e+002, 9.592172e+001
6.940852e+002, 9.559585e+001
6.945673e+002, 9.539115e+001
6.950494e+002, 9.532977e+001
6.955316e+002, 9.525893e+001
6.960137e+002, 9.496905e+001
6.964958e+002, 9.469641e+001
6.969779e+002, 9.490112e+001
6.974600e+002, 9.544785e+001
6.979421e+002, 9.567431e+001
6.984243e+002, 9.533151e+001
6.989064e+002, 9.473522e+001
6.993885e+002, 9.424877e+001
6.998706e+002, 9.386899e+001
7.003527e+002, 9.364207e+001
7.008348e+002, 9.356801e+001
7.013170e+002, 9.365639e+001
7.017991e+002, 9.420168e+001
7.022812e+002, 9.471603e+001
7.027633e+002, 9.464059e+001
7.032454e+002, 9.400534e+001
7.037275e+002, 9.342221e+001
7.042097e+002, 9.329782e+001
7.046918e+002, 9.342959e+001
7.051739e+002, 9.356831e+001
7.056560e+002, 9.370000e+001
7.061381e+002, 9.368075e+001
7.066202e+002, 9.343298e+001
7.071024e+002, 9.324500e+001
7.075845e+002, 9.345753e+001
7.080666e+002, 9.406088e+001
7.085487e+002, 9.440341e+001
7.090308e+002, 9.450685e+001
7.095129e+002, 9.433364e+001
7.099951e+002, 9.347971e+001
7.104772e+002, 9.264525e+001
7.109593e+002, 9.249161e+001
7.114414e+002, 9.294487e+001
7.119235e+002, 9.346692e+001
7.124056e+002, 9.380495e+001
7.128878e+002, 9.394287e+001
7.133699e+002, 9.376791e+001
7.138520e+002, 9.333135e+001
7.143341e+002, 9.301729e+001
7.148162e+002, 9.291543e+001
7.152983e+002, 9.284746e+001
7.157805e+002, 9.265466e+001
7.162626e+002, 9.237389e+001
7.167447e+002, 9.221591e+001
7.172268e+002, 9.227352e+001
7.177089e+002, 9.231341e+001
7.181910e+002, 9.232807e+001
7.186732e+002, 9.231095e+001
7.191553e+002, 9.222753e+001
7.196374e+002, 9.211105e+001
7.201195e+002, 9.204704e+001
7.206016e+002, 9.208460e+001
7.210837e+002, 9.213693e+001
7.215659e+002, 9.205467e+001
7.220480e+002, 9.187402e+001
7.225301e+002, 9.182943e+001
7.230122e+002, 9.197300e+001
7.234943e+002, 9.206409e+001
7.239764e+002, 9.194791e+001
7.244586e+002, 9.169123e+001
7.249407e+002, 9.145531e+001
7.254228e+002, 9.122603e+001
7.259049e+002, 9.105012e+001
7.263870e+002, 9.086311e+001
7.268691e+002, 9.079793e+001
7.273513e+002, 9.110143e+001
7.278334e+002, 9.152348e+001
7.283155e+002, 9.163010e+001
7.287976e+002, 9.128552e+001
7.292797e+002, 9.076830e+001
7.297618e+002, 9.020499e+001
7.302440e+002, 8.970798e+001
7.307261e+002, 8.984962e+001
7.312082e+002, 9.070485e+001
7.316903e+002, 9.123535e+001
7.321724e+002, 9.090514e+001
7.326545e+002, 9.024325e+001
7.331367e+002, 9.002796e+001
7.336188e+002, 9.037163e+001
7.341009e+002, 9.055148e+001
7.345830e+002, 9.046693e+001
7.350651e+002, 9.034222e+001
7.355472e+002, 9.025132e+001
7.360294e+002, 9.016195e+001
7.365115e+002, 9.002844e+001
7.369936e+002, 8.984815e+001
7.374757e+002, 8.964881e+001
7.379578e+002, 8.940063e+001
7.384399e+002, 8.919528e+001
7.389221e+002, 8.929173e+001
7.394042e+002, 8.966293e+001
7.398863e+002, 8.989284e+001
7.403684e+002, 8.987267e+001
7.408505e+002, 8.970451e+001
7.413326e+002, 8.942876e+001
7.418148e+002, 8.906956e+001
7.422969e+002, 8.891222e+001
7.427790e+002, 8.920298e+001
7.432611e+002, 8.933792e+001
7.437432e+002, 8.912234e+001
7.442253e+002, 8.883316e+001
7.447075e+002, 8.865416e+001
7.451896e+002, 8.858409e+001
7.456717e+002, 8.855363e+001
7.461538e+002, 8.853108e+001
7.466359e+002, 8.853307e+001
7.471180e+002, 8.863934e+001
7.476002e+002, 8.879021e+001
7.480823e+002, 8.875593e+001
7.485644e+002, 8.850631e+001
7.490465e+002, 8.813850e+001
7.495286e+002, 8.762704e+001
7.500107e+002, 8.715655e+001
7.504929e+002, 8.718999e+001
7.509750e+002, 8.802942e+001
7.514571e+002, 8.863166e+001
7.519392e+002, 8.906303e+001
7.524213e+002, 8.920450e+001
7.529034e+002, 8.879180e+001
7.533856e+002, 8.815979e+001
7.538677e+002, 8.774201e+001
7.543498e+002, 8.763781e+001
7.548319e+002, 8.766572e+001
7.553140e+002, 8.774055e+001
7.557961e+002, 8.783675e+001
7.562783e+002, 8.796819e+001
7.567604e+002, 8.810098e+001
7.572425e+002, 8.798486e+001
7.577246e+002, 8.750876e+001
7.582067e+002, 8.706045e+001
7.586888e+002, 8.715100e+001
7.591710e+002, 8.777368e+001
7.596531e+002, 8.797810e+001
7.601352e+002, 8.743777e+001
7.606173e+002, 8.696931e+001
7.610994e+002, 8.659229e+001
7.615815e+002, 8.640414e+001
7.620637e+002, 8.662918e+001
7.625458e+002, 8.712294e+001
7.630279e+002, 8.738912e+001
7.635100e+002, 8.716436e+001
7.639921e+002, 8.678255e+001
7.644742e+002, 8.638575e+001
7.649564e+002, 8.606908e+001
7.654385e+002, 8.607169e+001
7.659206e+002, 8.638255e+001
7.664027e+002, 8.672208e+001
7.668848e+002, 8.692094e+001
7.673669e+002, 8.699712e+001
7.678491e+002, 8.698090e+001
7.683312e+002, 8.685149e+001
7.688133e+002, 8.670582e+001
7.692954e+002, 8.652161e+001
7.697775e+002, 8.635669e+001
7.702596e+002, 8.628715e+001
7.707418e+002, 8.622587e+001
7.712239e+002, 8.603020e+001
7.717060e+002, 8.566648e+001
7.721881e+002, 8.536964e+001
7.726702e+002, 8.513370e+001
7.731523e+002, 8.508458e+001
7.736345e+002, 8.552441e+001
7.741166e+002, 8.618286e+001
7.745987e+002, 8.651012e+001
7.750808e+002, 8.636281e+001
7.755629e+002, 8.600296e+001
7.760450e+002, 8.564902e+001
7.765272e+002, 8.532583e+001
7.770093e+002, 8.517779e+001
7.774914e+002, 8.524361e+001
7.779735e+002, 8.527309e+001
7.784556e+002, 8.518513e+001
7.789377e+002, 8.508366e+001
7.794199e+002, 8.510564e+001
7.799020e+002, 8.520265e+001
7.803841e+002, 8.513282e+001
7.808662e+002, 8.470069e+001
7.813483e+002, 8.437858e+001
7.818304e+002, 8.432288e+001
7.823126e+002, 8.438134e+001
7.827947e+002, 8.448413e+001
7.832768e+002, 8.458566e+001
7.837589e+002, 8.459566e+001
7.842410e+002, 8.446809e+001
7.847231e+002, 8.434798e+001
7.852053e+002, 8.447295e+001
7.856874e+002, 8.475883e+001
7.861695e+002, 8.484397e+001
7.866516e+002, 8.470107e+001
7.871337e+002, 8.457967e+001
7.876158e+002, 8.460408e+001
7.880980e+002, 8.466984e+001
7.885801e+002, 8.460991e+001
7.890622e+002, 8.439600e+001
7.895443e+002, 8.424528e+001
7.900264e+002, 8.420136e+001
7.905085e+002, 8.416405e+001
7.909907e+002, 8.407275e+001
7.914728e+002, 8.400736e+001
7.919549e+002, 8.408676e+001
7.924370e+002, 8.427690e+001
7.929191e+002, 8.438885e+001
7.934012e+002, 8.429086e+001
7.938834e+002, 8.413688e+001
7.943655e+002, 8.412331e+001
7.948476e+002, 8.415364e+001
7.953297e+002, 8.396380e+001
7.958118e+002, 8.354745e+001
7.962939e+002, 8.320619e+001
7.967761e+002, 8.313831e+001
7.972582e+002, 8.325855e+001
7.977403e+002, 8.339515e+001
7.982224e+002, 8.359724e+001
7.987045e+002, 8.359170e+001
7.991866e+002, 8.320152e+001
7.996688e+002, 8.287269e+001
8.001509e+002, 8.289880e+001
8.006330e+002, 8.305254e+001
8.011151e+002, 8.303831e+001
8.015972e+002, 8.282223e+001
8.020793e+002, 8.269223e+001
8.025615e+002, 8.285086e+001
8.030436e+002, 8.299224e+001
8.035257e+002, 8.285487e+001
8.040078e+002, 8.261092e+001
8.044899e+002, 8.255379e+001
8.049720e+002, 8.270921e+001
8.054542e+002, 8.283580e+001
8.059363e+002, 8.271181e+001
8.064184e+002, 8.249536e+001
8.069005e+002, 8.262922e+001
8.073826e+002, 8.308659e+001
8.078647e+002, 8.320741e+001
8.083469e+002, 8.281306e+001
8.088290e+002, 8.238726e+001
8.093111e+002, 8.224627e+001
8.097932e+002, 8.233456e+001
8.102753e+002, 8.249415e+001
8.107574e+002, 8.284402e+001
8.112396e+002, 8.301945e+001
8.117217e+002, 8.288553e+001
8.122038e+002, 8.273381e+001
8.126859e+002, 8.273594e+001
8.131680e+002, 8.277266e+001
8.136501e+002, 8.261192e+001
8.141323e+002, 8.222990e+001
8.146144e+002, 8.199303e+001
8.150965e+002, 8.230575e+001
8.155786e+002, 8.274147e+001
8.160607e+002, 8.277596e+001
8.165428e+002, 8.253178e+001
8.170250e+002, 8.232088e+001
8.175071e+002, 8.222144e+001
8.179892e+002, 8.220814e+001
8.184713e+002, 8.228394e+001
8.189534e+002, 8.238175e+001
8.194355e+002, 8.220894e+001
8.199177e+002, 8.165547e+001
8.203998e+002, 8.136080e+001
8.208819e+002, 8.156370e+001
8.213640e+002, 8.174429e+001
8.218461e+002, 8.148007e+001
8.223282e+002, 8.101855e+001
8.228104e+002, 8.085389e+001
8.232925e+002, 8.105893e+001
8.237746e+002, 8.132034e+001
8.242567e+002, 8.163891e+001
8.247388e+002, 8.193583e+001
8.252209e+002, 8.225864e+001
8.257031e+002, 8.248969e+001
8.261852e+002, 8.239870e+001
8.266673e+002, 8.198647e+001
8.271494e+002, 8.156962e+001
8.276315e+002, 8.137239e+001
8.281136e+002, 8.133681e+001
8.285958e+002, 8.141390e+001
8.290779e+002, 8.157357e+001
8.295600e+002, 8.165212e+001
8.300421e+002, 8.161494e+001
8.305242e+002, 8.159837e+001
8.310063e+002, 8.171263e+001
8.314885e+002, 8.190262e+001
8.319706e+002, 8.199725e+001
8.324527e+002, 8.196793e+001
8.329348e+002, 8.192029e+001
8.334169e+002, 8.191409e+001
8.338990e+002, 8.181019e+001
8.343812e+002, 8.136929e+001
8.348633e+002, 8.090553e+001
8.353454e+002, 8.086961e+001
8.358275e+002, 8.131384e+001
8.363096e+002, 8.169005e+001
8.367917e+002, 8.175919e+001
8.372739e+002, 8.177077e+001
8.377560e+002, 8.189545e+001
8.382381e+002, 8.205297e+001
8.387202e+002, 8.215353e+001
8.392023e+002, 8.216531e+001
8.396844e+002, 8.204015e+001
8.401666e+002, 8.172253e+001
8.406487e+002, 8.133391e+001
8.411308e+002, 8.106899e+001
8.416129e+002, 8.092325e+001
8.420950e+002, 8.088906e+001
8.425771e+002, 8.097363e+001
8.430593e+002, 8.105518e+001
8.435414e+002, 8.105489e+001
8.440235e+002, 8.104236e+001
8.445056e+002, 8.115879e+001
8.449877e+002, 8.144677e+001
8.454698e+002, 8.164803e+001
8.459520e+002, 8.176460e+001
8.464341e+002, 8.178810e+001
8.469162e+002, 8.170562e+001
8.473983e+002, 8.154131e+001
8.478804e+002, 8.124888e+001
8.483625e+002, 8.087476e+001
8.488447e+002, 8.063769e+001
8.493268e+002, 8.066179e+001
8.498089e+002, 8.075113e+001
8.502910e+002, 8.073875e+001
8.507731e+002, 8.077028e+001
8.512552e+002, 8.113501e+001
8.517374e+002, 8.170862e+001
8.522195e+002, 8.206072e+001
8.527016e+002, 8.199273e+001
8.531837e+002, 8.171220e+001
8.536658e+002, 8.145219e+001
8.541479e+002, 8.120888e+001
8.546301e+002, 8.092918e+001
8.551122e+002, 8.061037e+001
8.555943e+002, 8.043136e+001
8.560764e+002, 8.047164e+001
8.565585e+002, 8.061666e+001
8.570406e+002, 8.078194e+001
8.575228e+002, 8.094980e+001
8.580049e+002, 8.088472e+001
8.584870e+002, 8.023728e+001
8.589691e+002, 7.995747e+001
8.594512e+002, 8.061006e+001
8.599333e+002, 8.114510e+001
8.604155e+002, 8.083078e+001
8.608976e+002, 8.006229e+001
8.613797e+002, 7.962791e+001
8.618618e+002, 7.972025e+001
8.623439e+002, 7.981509e+001
8.628260e+002, 7.961324e+001
8.633082e+002, 7.940749e+001
8.637903e+002, 7.955032e+001
8.642724e+002, 7.980916e+001
8.647545e+002, 7.971517e+001
8.652366e+002, 7.921443e+001
8.657188e+002, 7.870580e+001
8.662009e+002, 7.849150e+001
8.666830e+002, 7.846801e+001
8.671651e+002, 7.848164e+001
8.676472e+002, 7.851582e+001
8.681293e+002, 7.843568e+001
8.686115e+002, 7.821352e+001
8.690936e+002, 7.806187e+001
8.695757e+002, 7.812439e+001
8.700578e+002, 7.829311e+001
8.705399e+002, 7.834191e+001
8.710220e+002, 7.823689e+001
8.715042e+002, 7.818903e+001
8.719863e+002, 7.831347e+001
8.724684e+002, 7.831110e+001
8.729505e+002, 7.803719e+001
8.734326e+002, 7.763635e+001
8.739147e+002, 7.711391e+001
8.743969e+002, 7.653386e+001
8.748790e+002, 7.627795e+001
8.753611e+002, 7.674998e+001
8.758432e+002, 7.708675e+001
8.763253e+002, 7.683485e+001
8.768074e+002, 7.645128e+001
8.772896e+002, 7.631828e+001
8.777717e+002, 7.639376e+001
8.782538e+002, 7.651806e+001
8.787359e+002, 7.663052e+001
8.792180e+002, 7.665345e+001
8.797001e+002, 7.648145e+001
8.801823e+002, 7.618733e+001
8.806644e+002, 7.578635e+001
8.811465e+002, 7.536633e+001
8.816286e+002, 7.541457e+001
8.821107e+002, 7.603852e+001
8.825928e+002, 7.653006e+001
8.830750e+002, 7.621159e+001
8.835571e+002, 7.539258e+001
8.840392e+002, 7.520532e+001
8.845213e+002, 7.581283e+001
8.850034e+002, 7.607784e+001
8.854855e+002, 7.574687e+001
8.859677e+002, 7.543821e+001
8.864498e+002, 7.552395e+001
8.869319e+002, 7.577707e+001
8.874140e+002, 7.579567e+001
8.878961e+002, 7.553298e+001
8.883782e+002, 7.535125e+001
8.888604e+002, 7.536933e+001
8.893425e+002, 7.532978e+001
8.898246e+002, 7.506177e+001
8.903067e+002, 7.478795e+001
8.907888e+002, 7.478409e+001
8.912709e+002, 7.495255e+001
8.917531e+002, 7.490434e+001
8.922352e+002, 7.440804e+001
8.927173e+002, 7.398473e+001
8.931994e+002, 7.408859e+001
8.936815e+002, 7.438539e+001
8.941636e+002, 7.451363e+001
8.946458e+002, 7.449007e+001
8.951279e+002, 7.441485e+001
8.956100e+002, 7.433008e+001
8.960921e+002, 7.429529e+001
8.965742e+002, 7.442309e+001
8.970563e+002, 7.458538e+001
8.975385e+002, 7.431156e+001
8.980206e+002, 7.365986e+001
8.985027e+002, 7.349892e+001
8.989848e+002, 7.403407e+001
8.994669e+002, 7.443494e+001
8.999490e+002, 7.409052e+001
9.004312e+002, 7.340808e+001
9.009133e+002, 7.337926e+001
9.013954e+002, 7.425194e+001
9.018775e+002, 7.462177e+001
9.023596e+002, 7.423547e+001
9.028417e+002, 7.377511e+001
9.033239e+002, 7.336613e+001
9.038060e+002, 7.304038e+001
9.042881e+002, 7.284209e+001
9.047702e+002, 7.275855e+001
9.052523e+002, 7.270668e+001
9.057344e+002, 7.264191e+001
9.062166e+002, 7.266004e+001
9.066987e+002, 7.291187e+001
9.071808e+002, 7.313335e+001
9.076629e+002, 7.304541e+001
9.081450e+002, 7.281657e+001
9.086271e+002, 7.282605e+001
9.091093e+002, 7.315833e+001
9.095914e+002, 7.339026e+001
9.100735e+002, 7.315008e+001
9.105556e+002, 7.272961e+001
9.110377e+002, 7.233685e+001
9.115198e+002, 7.204489e+001
9.120020e+002, 7.206759e+001
9.124841e+002, 7.238513e+001
9.129662e+002, 7.271966e+001
9.134483e+002, 7.290848e+001
9.139304e+002, 7.293121e+001
9.144125e+002, 7.266143e+001
9.148947e+002, 7.215745e+001
9.153768e+002, 7.193832e+001
9.158589e+002, 7.204256e+001
9.163410e+002, 7.200526e+001
9.168231e+002, 7.159949e+001
9.173052e+002, 7.124818e+001
9.177874e+002, 7.150279e+001
9.182695e+002, 7.225607e+001
9.187516e+002, 7.240775e+001
9.192337e+002, 7.155305e+001
9.197158e+002, 7.108279e+001
9.201979e+002, 7.141676e+001
9.206801e+002, 7.178396e+001
9.211622e+002, 7.163621e+001
9.216443e+002, 7.130360e+001
9.221264e+002, 7.138483e+001
9.226085e+002, 7.199393e+001
9.230906e+002, 7.229838e+001
9.235728e+002, 7.201454e+001
9.240549e+002, 7.161697e+001
9.245370e+002, 7.111049e+001
9.250191e+002, 7.070185e+001
9.255012e+002, 7.068404e+001
9.259833e+002, 7.093517e+001
9.264655e+002, 7.099962e+001
9.269476e+002, 7.063476e+001
9.274297e+002, 7.036842e+001
9.279118e+002, 7.073250e+001
9.283939e+002, 7.125439e+001
9.288760e+002, 7.144606e+001
9.293582e+002, 7.134818e+001
9.298403e+002, 7.103892e+001
9.303224e+002, 7.059382e+001
9.308045e+002, 7.030360e+001
9.312866e+002, 7.045004e+001
9.317687e+002, 7.079234e+001
9.322509e+002, 7.086364e+001
9.327330e+002, 7.072781e+001
9.332151e+002, 7.070144e+001
9.336972e+002, 7.081170e+001
9.341793e+002, 7.081907e+001
9.346614e+002, 7.059641e+001
9.351436e+002, 7.028047e+001
9.356257e+002, 7.006243e+001
9.361078e+002, 6.993993e+001
9.365899e+002, 6.986332e+001
9.370720e+002, 6.982085e+001
9.375541e+002, 6.989539e+001
9.380363e+002, 7.018919e+001
9.385184e+002, 7.042333e+001
9.390005e+002, 7.036877e+001
9.394826e+002, 7.011451e+001
9.399647e+002, 6.990053e+001
9.404468e+002, 6.969942e+001
9.409290e+002, 6.961553e+001
9.414111e+002, 6.966413e+001
9.418932e+002, 6.980447e+001
9.423753e+002, 7.025174e+001
9.428574e+002, 7.061336e+001
9.433395e+002, 7.039015e+001
9.438217e+002, 6.971254e+001
9.443038e+002, 6.928977e+001
9.447859e+002, 6.937456e+001
9.452680e+002, 6.954757e+001
9.457501e+002, 6.976195e+001
9.462322e+002, 6.991108e+001
9.467144e+002, 6.992073e+001
9.471965e+002, 6.980531e+001
9.476786e+002, 6.949637e+001
9.481607e+002, 6.903590e+001
9.486428e+002, 6.882215e+001
9.491249e+002, 6.925395e+001
9.496071e+002, 6.985511e+001
9.500892e+002, 7.029754e+001
9.505713e+002, 7.050066e+001
9.510534e+002, 7.016903e+001
9.515355e+002, 6.943455e+001
9.520176e+002, 6.883791e+001
9.524998e+002, 6.862281e+001
9.529819e+002, 6.866970e+001
9.534640e+002, 6.893394e+001
9.539461e+002, 6.931538e+001
9.544282e+002, 6.954433e+001
9.549103e+002, 6.961513e+001
9.553925e+002, 6.942796e+001
9.558746e+002, 6.895980e+001
9.563567e+002, 6.850188e+001
9.568388e+002, 6.824989e+001
9.573209e+002, 6.816005e+001
9.578030e+002, 6.814346e+001
9.582852e+002, 6.820168e+001
9.587673e+002, 6.835791e+001
9.592494e+002, 6.869590e+001
9.597315e+002, 6.876983e+001
9.602136e+002, 6.834447e+001
9.606957e+002, 6.781159e+001
9.611779e+002, 6.753976e+001
9.616600e+002, 6.748398e+001
9.621421e+002, 6.740020e+001
9.626242e+002, 6.716464e+001
9.631063e+002, 6.715169e+001
9.635884e+002, 6.759568e+001
9.640706e+002, 6.797178e+001
9.645527e+002, 6.810924e+001
9.650348e+002, 6.806699e+001
9.655169e+002, 6.781081e+001
9.659990e+002, 6.737389e+001
9.664811e+002, 6.717464e+001
9.669633e+002, 6.748730e+001
9.674454e+002, 6.773544e+001
9.679275e+002, 6.780173e+001
9.684096e+002, 6.775241e+001
9.688917e+002, 6.752768e+001
9.693738e+002, 6.726344e+001
9.698560e+002, 6.720142e+001
9.703381e+002, 6.738036e+001
9.708202e+002, 6.752350e+001
9.713023e+002, 6.747308e+001
9.717844e+002, 6.737414e+001
9.722665e+002, 6.725865e+001
9.727487e+002, 6.719234e+001
9.732308e+002, 6.732537e+001
9.737129e+002, 6.757349e+001
9.741950e+002, 6.767823e+001
9.746771e+002, 6.754036e+001
9.751592e+002, 6.733818e+001
9.756414e+002, 6.716060e+001
9.761235e+002, 6.706440e+001
9.766056e+002, 6.717967e+001
9.770877e+002, 6.742848e+001
9.775698e+002, 6.766282e+001
9.780519e+002, 6.783626e+001
9.785341e+002, 6.788197e+001
9.790162e+002, 6.775449e+001
9.794983e+002, 6.754555e+001
9.799804e+002, 6.739097e+001
9.804625e+002, 6.726785e+001
9.809446e+002, 6.704082e+001
9.814268e+002, 6.673251e+001
9.819089e+002, 6.661319e+001
9.823910e+002, 6.675582e+001
9.828731e+002, 6.693947e+001
9.833552e+002, 6.700610e+001
9.838373e+002, 6.693124e+001
9.843195e+002, 6.654754e+001
9.848016e+002, 6.582106e+001
9.852837e+002, 6.562742e+001
9.857658e+002, 6.610181e+001
9.862479e+002, 6.648423e+001
9.867300e+002, 6.648005e+001
9.872122e+002, 6.639900e+001
9.876943e+002, 6.659238e+001
9.881764e+002, 6.696646e+001
9.886585e+002, 6.697311e+001
9.891406e+002, 6.638201e+001
9.896227e+002, 6.610301e+001
9.901049e+002, 6.631956e+001
9.905870e+002, 6.658477e+001
9.910691e+002, 6.677783e+001
9.915512e+002, 6.687282e+001
9.920333e+002, 6.682857e+001
9.925154e+002, 6.664736e+001
9.929976e+002, 6.640727e+001
9.934797e+002, 6.599724e+001
9.939618e+002, 6.569817e+001
9.944439e+002, 6.554606e+001
9.949260e+002, 6.548170e+001
9.954081e+002, 6.552564e+001
9.958903e+002, 6.561370e+001
9.963724e+002, 6.566270e+001
9.968545e+002, 6.566734e+001
9.973366e+002, 6.567152e+001
9.978187e+002, 6.567130e+001
9.983008e+002, 6.568815e+001
9.987830e+002, 6.582352e+001
9.992651e+002, 6.588539e+001
9.997472e+002, 6.564672e+001
1.000229e+003, 6.527086e+001
1.000711e+003, 6.503506e+001
1.001194e+003, 6.499449e+001
1.001676e+003, 6.505370e+001
1.002158e+003, 6.525928e+001
1.002640e+003, 6.544868e+001
1.003122e+003, 6.554089e+001
1.003604e+003, 6.556026e+001
1.004086e+003, 6.548152e+001
1.004568e+003, 6.536396e+001
1.005050e+003, 6.534096e+001
1.005533e+003, 6.545274e+001
1.006015e+003, 6.557697e+001
1.006497e+003, 6.570487e+001
1.006979e+003, 6.573188e+001
1.007461e+003, 6.542715e+001
1.007943e+003, 6.502291e+001
1.008425e+003, 6.491976e+001
1.008907e+003, 6.507835e+001
1.009390e+003, 6.515162e+001
1.009872e+003, 6.499348e+001
1.010354e+003, 6.493510e+001
1.010836e+003, 6.560949e+001
1.011318e+003, 6.638149e+001
1.011800e+003, 6.595091e+001
1.012282e+003, 6.483870e+001
1.012764e+003, 6.439432e+001
1.013246e+003, 6.472909e+001
1.013729e+003, 6.510585e+001
1.014211e+003, 6.513857e+001
1.014693e+003, 6.500283e+001
1.015175e+003, 6.488506e+001
1.015657e+003, 6.479295e+001
1.016139e+003, 6.474017e+001
1.016621e+003, 6.473222e+001
1.017103e+003, 6.485514e+001
1.017586e+003, 6.510410e+001
1.018068e+003, 6.518038e+001
1.018550e+003, 6.488537e+001
1.019032e+003, 6.445572e+001
1.019514e+003, 6.431702e+001
1.019996e+003, 6.441337e+001
1.020478e+003, 6.431310e+001
1.020960e+003, 6.402372e+001
1.021442e+003, 6.382084e+001
1.021925e+003, 6.376500e+001
1.022407e+003, 6.387622e+001
1.022889e+003, 6.420724e+001
1.023371e+003, 6.456855e+001
1.023853e+003, 6.453409e+001
1.024335e+003, 6.409856e+001
1.024817e+003, 6.383594e+001
1.025299e+003, 6.375828e+001
1.025781e+003, 6.376928e+001
1.026264e+003, 6.385982e+001
1.026746e+003, 6.398592e+001
1.027228e+003, 6.414069e+001
1.027710e+003, 6.425976e+001
1.028192e+003, 6.415231e+001
1.028674e+003, 6.376170e+001
1.029156e+003, 6.362917e+001
1.029638e+003, 6.386151e+001
1.030120e+003, 6.397919e+001
1.030603e+003, 6.380160e+001
1.031085e+003, 6.361658e+001
1.031567e+003, 6.366628e+001
1.032049e+003, 6.385789e+001
1.032531e+003, 6.395275e+001
1.033013e+003, 6.395303e+001
1.033495e+003, 6.382800e+001
1.033977e+003, 6.343925e+001
1.034460e+003, 6.322534e+001
1.034942e+003, 6.335512e+001
1.035424e+003, 6.361096e+001
1.035906e+003, 6.389669e+001
1.036388e+003, 6.415205e+001
1.036870e+003, 6.418430e+001
1.037352e+003, 6.389942e+001
1.037834e+003, 6.372056e+001
1.038317e+003, 6.370669e+001
1.038799e+003, 6.371161e+001
1.039281e+003, 6.379346e+001
1.039763e+003, 6.379055e+001
1.040245e+003, 6.349067e+001
1.040727e+003, 6.302069e+001
1.041209e+003, 6.274047e+001
1.041691e+003, 6.270314e+001
1.042173e+003, 6.268933e+001
1.042656e+003, 6.278911e+001
1.043138e+003, 6.278507e+001
1.043620e+003, 6.244236e+001
1.044102e+003, 6.214400e+001
1.044584e+003, 6.228298e+001
1.045066e+003, 6.267327e+001
1.045548e+003, 6.279797e+001
1.046030e+003, 6.251541e+001
1.046512e+003, 6.239983e+001
1.046995e+003, 6.279271e+001
1.047477e+003, 6.298893e+001
1.047959e+003, 6.254711e+001
1.048441e+003, 6.204321e+001
1.048923e+003, 6.197491e+001
1.049405e+003, 6.219371e+001
1.049887e+003, 6.228409e+001
1.050369e+003, 6.215267e+001
1.050852e+003, 6.212968e+001
1.051334e+003, 6.238468e+001
1.051816e+003, 6.261798e+001
1.052298e+003, 6.279380e+001
1.052780e+003, 6.284746e+001
1.053262e+003, 6.260141e+001
1.053744e+003, 6.222826e+001
1.054226e+003, 6.215076e+001
1.054708e+003, 6.248766e+001
1.055191e+003, 6.267693e+001
1.055673e+003, 6.243095e+001
1.056155e+003, 6.218957e+001
1.056637e+003, 6.210899e+001
1.057119e+003, 6.211482e+001
1.057601e+003, 6.220427e+001
1.058083e+003, 6.230959e+001
1.058565e+003, 6.227844e+001
1.059047e+003, 6.207080e+001
1.059530e+003, 6.195916e+001
1.060012e+003, 6.216105e+001
1.060494e+003, 6.231175e+001
1.060976e+003, 6.223195e+001
1.061458e+003, 6.206066e+001
1.061940e+003, 6.188707e+001
1.062422e+003, 6.172075e+001
1.062904e+003, 6.151278e+001
1.063387e+003, 6.125710e+001
1.063869e+003, 6.119492e+001
1.064351e+003, 6.163293e+001
1.064833e+003, 6.200129e+001
1.065315e+003, 6.202100e+001
1.065797e+003, 6.188981e+001
1.066279e+003, 6.165756e+001
1.066761e+003, 6.144688e+001
1.067244e+003, 6.148531e+001
1.067726e+003, 6.179359e+001
1.068208e+003, 6.204359e+001
1.068690e+003, 6.212121e+001
1.069172e+003, 6.208819e+001
1.069654e+003, 6.187199e+001
1.070136e+003, 6.165216e+001
1.070618e+003, 6.158034e+001
1.071100e+003, 6.160443e+001
1.071583e+003, 6.165099e+001
1.072065e+003, 6.169516e+001
1.072547e+003, 6.167564e+001
1.073029e+003, 6.149596e+001
1.073511e+003, 6.137104e+001
1.073993e+003, 6.151404e+001
1.074475e+003, 6.163947e+001
1.074957e+003, 6.143847e+001
1.075439e+003, 6.112355e+001
1.075922e+003, 6.105738e+001
1.076404e+003, 6.124017e+001
1.076886e+003, 6.132451e+001
1.077368e+003, 6.110046e+001
1.077850e+003, 6.094452e+001
1.078332e+003, 6.112439e+001
1.078814e+003, 6.133895e+001
1.079297e+003, 6.139026e+001
1.079779e+003, 6.132883e+001
1.080261e+003, 6.119663e+001
1.080743e+003, 6.103021e+001
1.081225e+003, 6.092895e+001
1.081707e+003, 6.094189e+001
1.082189e+003, 6.096814e+001
1.082671e+003, 6.103059e+001
1.083153e+003, 6.101461e+001
1.083635e+003, 6.074385e+001
1.084118e+003, 6.042670e+001
1.084600e+003, 6.032203e+001
1.085082e+003, 6.039526e+001
1.085564e+003, 6.044628e+001
1.086046e+003, 6.041220e+001
1.086528e+003, 6.038912e+001
1.087010e+003, 6.039033e+001
1.087492e+003, 6.044661e+001
1.087975e+003, 6.065156e+001
1.088457e+003, 6.085866e+001
1.088939e+003, 6.094928e+001
1.089421e+003, 6.091222e+001
1.089903e+003, 6.074755e+001
1.090385e+003, 6.044844e+001
1.090867e+003, 6.011610e+001
1.091349e+003, 5.963901e+001
1.091832e+003, 5.933147e+001
1.092314e+003, 5.941890e+001
1.092796e+003, 5.966443e+001
1.093278e+003, 5.995210e+001
1.093760e+003, 6.021100e+001
1.094242e+003, 6.038391e+001
1.094724e+003, 6.045701e+001
1.095206e+003, 6.030194e+001
1.095688e+003, 5.948970e+001
1.096171e+003, 5.897987e+001
1.096653e+003, 5.933089e+001
1.097135e+003, 5.986448e+001
1.097617e+003, 6.017899e+001
1.098099e+003, 6.033475e+001
1.098581e+003, 6.047528e+001
1.099063e+003, 6.061020e+001
1.099545e+003, 6.064751e+001
1.100027e+003, 6.052784e+001
1.100510e+003, 6.037239e+001
1.100992e+003, 6.018256e+001
1.101474e+003, 5.999744e+001
1.101956e+003, 5.978540e+001
1.102438e+003, 5.962658e+001
1.102920e+003, 5.965603e+001
1.103402e+003, 5.983336e+001
1.103884e+003, 5.993528e+001
1.104367e+003, 5.991637e+001
1.104849e+003, 5.984716e+001
1.105331e+003, 5.959388e+001
1.105813e+003, 5.947691e+001
1.106295e+003, 5.978695e+001
1.106777e+003, 6.014314e+001
1.107259e+003, 6.017287e+001
1.107741e+003, 5.996945e+001
1.108224e+003, 5.982692e+001
1.108706e+003, 5.976404e+001
1.109188e+003, 5.978242e+001
1.109670e+003, 6.003361e+001
1.110152e+003, 6.015624e+001
1.110634e+003, 6.006257e+001
1.111116e+003, 5.982069e+001
1.111598e+003, 5.928817e+001
1.112080e+003, 5.870877e+001
1.112563e+003, 5.859674e+001
1.113045e+003, 5.902439e+001
1.113527e+003, 5.930325e+001
1.114009e+003, 5.940125e+001
1.114491e+003, 5.940346e+001
1.114973e+003, 5.928418e+001
1.115455e+003, 5.911036e+001
1.115937e+003, 5.879424e+001
1.116419e+003, 5.854649e+001
1.116902e+003, 5.872338e+001
1.117384e+003, 5.926923e+001
1.117866e+003, 5.950421e+001
1.118348e+003, 5.926530e+001
1.118830e+003, 5.909044e+001
1.119312e+003, 5.898735e+001
1.119794e+003, 5.897447e+001
1.120276e+003, 5.911283e+001
1.120759e+003, 5.925497e+001
1.121241e+003, 5.924590e+001
1.121723e+003, 5.913832e+001
1.122205e+003, 5.913751e+001
1.122687e+003, 5.930387e+001
1.123169e+003, 5.927044e+001
1.123651e+003, 5.894599e+001
1.124133e+003, 5.871797e+001
1.124615e+003, 5.867413e+001
1.125098e+003, 5.878357e+001
1.125580e+003, 5.907632e+001
1.126062e+003, 5.940781e+001
1.126544e+003, 5.948769e+001
1.127026e+003, 5.932072e+001
1.127508e+003, 5.910620e+001
1.127990e+003, 5.882009e+001
1.128472e+003, 5.873616e+001
1.128954e+003, 5.893505e+001
1.129437e+003, 5.902171e+001
1.129919e+003, 5.877324e+001
1.130401e+003, 5.848432e+001
1.130883e+003, 5.852628e+001
1.131365e+003, 5.882218e+001
1.131847e+003, 5.911605e+001
1.132329e+003, 5.939748e+001
1.132811e+003, 5.943379e+001
1.133294e+003, 5.921078e+001
1.133776e+003, 5.880659e+001
1.134258e+003, 5.824598e+001
1.134740e+003, 5.787619e+001
1.135222e+003, 5.802082e+001
1.135704e+003, 5.839793e+001
1.136186e+003, 5.842996e+001
1.136668e+003, 5.821912e+001
1.137151e+003, 5.819812e+001
1.137633e+003, 5.832815e+001
1.138115e+003, 5.833929e+001
1.138597e+003, 5.819434e+001
1.139079e+003, 5.809114e+001
1.139561e+003, 5.814218e+001
1.140043e+003, 5.818469e+001
1.140525e+003, 5.794717e+001
1.141007e+003, 5.762257e+001
1.141490e+003, 5.759338e+001
1.141972e+003, 5.776277e+001
1.142454e+003, 5.796548e+001
1.142936e+003, 5.814962e+001
1.143418e+003, 5.822864e+001
1.143900e+003, 5.818248e+001
1.144382e+003, 5.811934e+001
1.144864e+003, 5.811282e+001
1.145346e+003, 5.814077e+001
1.145829e+003, 5.817661e+001
1.146311e+003, 5.823491e+001
1.146793e+003, 5.834750e+001
1.147275e+003, 5.849256e+001
1.147757e+003, 5.865338e+001
1.148239e+003, 5.880514e+001
1.148721e+003, 5.887709e+001
1.149203e+003, 5.884053e+001
1.149686e+003, 5.870847e+001
1.150168e+003, 5.835790e+001
1.150650e+003, 5.806364e+001
1.151132e+003, 5.814376e+001
1.151614e+003, 5.830122e+001
1.152096e+003, 5.812421e+001
1.152578e+003, 5.774698e+001
1.153060e+003, 5.756264e+001
1.153542e+003, 5.766112e+001
1.154025e+003, 5.789027e+001
1.154507e+003, 5.841242e+001
1.154989e+003, 5.875607e+001
1.155471e+003, 5.865104e+001
1.155953e+003, 5.842715e+001
1.156435e+003, 5.825391e+001
1.156917e+003, 5.812180e+001
1.157399e+003, 5.798800e+001
1.157881e+003, 5.785828e+001
1.158364e+003, 5.780691e+001
1.158846e+003, 5.793555e+001
1.159328e+003, 5.796144e+001
1.159810e+003, 5.768829e+001
1.160292e+003, 5.755577e+001
1.160774e+003, 5.783888e+001
1.161256e+003, 5.814193e+001
1.161738e+003, 5.814021e+001
1.162221e+003, 5.793964e+001
1.162703e+003, 5.779490e+001
1.163185e+003, 5.771815e+001
1.163667e+003, 5.758957e+001
1.164149e+003, 5.735416e+001
1.164631e+003, 5.722400e+001
1.165113e+003, 5.721812e+001
1.165595e+003, 5.737923e+001
1.166078e+003, 5.779620e+001
1.166560e+003, 5.822508e+001
1.167042e+003, 5.836531e+001
1.167524e+003, 5.825730e+001
1.168006e+003, 5.804188e+001
1.168488e+003, 5.770703e+001
1.168970e+003, 5.761907e+001
1.169452e+003, 5.780647e+001
1.169934e+003, 5.785823e+001
1.170417e+003, 5.765068e+001
1.170899e+003, 5.748167e+001
1.171381e+003, 5.757522e+001
1.171863e+003, 5.779100e+001
1.172345e+003, 5.795010e+001
1.172827e+003, 5.802261e+001
1.173309e+003, 5.770373e+001
1.173791e+003, 5.720393e+001
1.174273e+003, 5.753957e+001
1.174756e+003, 5.863001e+001
1.175238e+003, 5.934462e+001
1.175720e+003, 5.924617e+001
1.176202e+003, 5.878738e+001
1.176684e+003, 5.820902e+001
1.177166e+003, 5.776665e+001
1.177648e+003, 5.800000e+001
1.178130e+003, 5.841195e+001
1.178613e+003, 5.816423e+001
1.179095e+003, 5.755048e+001
1.179577e+003, 5.724962e+001
1.180059e+003, 5.733259e+001
1.180541e+003, 5.746115e+001
1.181023e+003, 5.749527e+001
1.181505e+003, 5.752672e+001
1.181987e+003, 5.766886e+001
1.182469e+003, 5.775900e+001
1.182952e+003, 5.765804e+001
1.183434e+003, 5.747982e+001
1.183916e+003, 5.727476e+001
1.184398e+003, 5.710603e+001
1.184880e+003, 5.709776e+001
1.185362e+003, 5.726080e+001
1.185844e+003, 5.738897e+001
1.186326e+003, 5.742975e+001
1.186808e+003, 5.743933e+001
1.187291e+003, 5.740368e+001
1.187773e+003, 5.736702e+001
1.188255e+003, 5.735363e+001
1.188737e+003, 5.733970e+001
1.189219e+003, 5.711128e+001
1.189701e+003, 5.690858e+001
1.190183e+003, 5.764161e+001
1.190665e+003, 5.978494e+001
1.191148e+003, 6.027262e+001
1.191630e+003, 5.827372e+001
1.192112e+003, 5.698114e+001
1.192594e+003, 5.710789e+001
1.193076e+003, 5.746781e+001
1.193558e+003, 5.747131e+001
1.194040e+003, 5.735076e+001
1.194522e+003, 5.741893e+001
1.195005e+003, 5.759359e+001
1.195487e+003, 5.747192e+001
1.195969e+003, 5.707333e+001
1.196451e+003, 5.698968e+001
1.196933e+003, 5.722628e+001
1.197415e+003, 5.714773e+001
1.197897e+003, 5.661143e+001
1.198379e+003, 5.623101e+001
1.198861e+003, 5.640998e+001
1.199344e+003, 5.674763e+001
1.199826e+003, 5.664050e+001
1.200308e+003, 5.634681e+001
1.200790e+003, 5.648913e+001
1.201272e+003, 5.682685e+001
1.201754e+003, 5.675863e+001
1.202236e+003, 5.638165e+001
1.202718e+003, 5.617808e+001
1.203200e+003, 5.627833e+001
1.203683e+003, 5.649866e+001
1.204165e+003, 5.677265e+001
1.204647e+003, 5.701455e+001
1.205129e+003, 5.720403e+001
1.205611e+003, 5.728786e+001
1.206093e+003, 5.712731e+001
1.206575e+003, 5.690211e+001
1.207057e+003, 5.681761e+001
1.207540e+003, 5.686501e+001
1.208022e+003, 5.700212e+001
1.208504e+003, 5.724464e+001
1.208986e+003, 5.724598e+001
1.209468e+003, 5.653188e+001
1.209950e+003, 5.615386e+001
1.210432e+003, 5.670878e+001
1.210914e+003, 5.721787e+001
1.211396e+003, 5.711798e+001
1.211879e+003, 5.678296e+001
1.212361e+003, 5.652813e+001
1.212843e+003, 5.637555e+001
1.213325e+003, 5.644722e+001
1.213807e+003, 5.683682e+001
1.214289e+003, 5.698120e+001
1.214771e+003, 5.681406e+001
1.215253e+003, 5.664436e+001
1.215735e+003, 5.650068e+001
1.216218e+003, 5.656060e+001
1.216700e+003, 5.696844e+001
1.217182e+003, 5.736895e+001
1.217664e+003, 5.728141e+001
1.218146e+003, 5.689961e+001
1.218628e+003, 5.689307e+001
1.219110e+003, 5.715597e+001
1.219592e+003, 5.710814e+001
1.220075e+003, 5.678059e+001
1.220557e+003, 5.651115e+001
1.221039e+003, 5.637430e+001
1.221521e+003, 5.623294e+001
1.222003e+003, 5.600689e+001
1.222485e+003, 5.587189e+001
1.222967e+003, 5.609018e+001
1.223449e+003, 5.640879e+001
1.223932e+003, 5.661402e+001
1.224414e+003, 5.668244e+001
1.224896e+003, 5.645790e+001
1.225378e+003, 5.612669e+001
1.225860e+003, 5.611981e+001
1.226342e+003, 5.643328e+001
1.226824e+003, 5.653734e+001
1.227306e+003, 5.613874e+001
1.227788e+003, 5.583754e+001
1.228271e+003, 5.593940e+001
1.228753e+003, 5.604396e+001
1.229235e+003, 5.590093e+001
1.229717e+003, 5.577131e+001
1.230199e+003, 5.597285e+001
1.230681e+003, 5.627710e+001
1.231163e+003, 5.620169e+001
1.231645e+003, 5.576075e+001
1.232127e+003, 5.566623e+001
1.232610e+003, 5.612508e+001
1.233092e+003, 5.625413e+001
1.233574e+003, 5.586454e+001
1.234056e+003, 5.571452e+001
1.234538e+003, 5.610124e+001
1.235020e+003, 5.644220e+001
1.235502e+003, 5.628105e+001
1.235984e+003, 5.593860e+001
1.236467e+003, 5.600636e+001
1.236949e+003, 5.635307e+001
1.237431e+003, 5.640190e+001
1.237913e+003, 5.621941e+001
1.238395e+003, 5.608022e+001
1.238877e+003, 5.601260e+001
1.239359e+003, 5.601092e+001
1.239841e+003, 5.605287e+001
1.240323e+003, 5.597785e+001
1.240806e+003, 5.563689e+001
1.241288e+003, 5.538626e+001
1.241770e+003, 5.570270e+001
1.242252e+003, 5.613135e+001
1.242734e+003, 5.622909e+001
1.243216e+003, 5.616935e+001
1.243698e+003, 5.616762e+001
1.244180e+003, 5.620595e+001
1.244662e+003, 5.618659e+001
1.245145e+003, 5.609703e+001
1.245627e+003, 5.601283e+001
1.246109e+003, 5.592230e+001
1.246591e+003, 5.589652e+001
1.247073e+003, 5.605954e+001
1.247555e+003, 5.613678e+001
1.248037e+003, 5.597075e+001
1.248519e+003, 5.576880e+001
1.249002e+003, 5.565967e+001
1.249484e+003, 5.562555e+001
1.249966e+003, 5.564228e+001
1.250448e+003, 5.570588e+001
1.250930e+003, 5.575838e+001
1.251412e+003, 5.580733e+001
1.251894e+003, 5.572720e+001
1.252376e+003, 5.550004e+001
1.252859e+003, 5.541436e+001
1.253341e+003, 5.555554e+001
1.253823e+003, 5.561517e+001
1.254305e+003, 5.536789e+001
1.254787e+003, 5.508013e+001
1.255269e+003, 5.514418e+001
1.255751e+003, 5.540078e+001
1.256233e+003, 5.557896e+001
1.256715e+003, 5.571549e+001
1.257198e+003, 5.595519e+001
1.257680e+003, 5.619474e+001
1.258162e+003, 5.605262e+001
1.258644e+003, 5.556790e+001
1.259126e+003, 5.541656e+001
1.259608e+003, 5.598594e+001
1.260090e+003, 5.651947e+001
1.260572e+003, 5.675752e+001
1.261054e+003, 5.675741e+001
1.261537e+003, 5.640226e+001
1.262019e+003, 5.596441e+001
1.262501e+003, 5.551390e+001
1.262983e+003, 5.519482e+001
1.263465e+003, 5.527194e+001
1.263947e+003, 5.568885e+001
1.264429e+003, 5.602575e+001
1.264911e+003, 5.632158e+001
1.265394e+003, 5.637987e+001
1.265876e+003, 5.615153e+001
1.266358e+003, 5.587849e+001
1.266840e+003, 5.559567e+001
1.267322e+003, 5.541484e+001
1.267804e+003, 5.540057e+001
1.268286e+003, 5.548326e+001
1.268768e+003, 5.558213e+001
1.269250e+003, 5.571108e+001
1.269733e+003, 5.596940e+001
1.270215e+003, 5.625380e+001
1.270697e+003, 5.624670e+001
1.271179e+003, 5.605627e+001
1.271661e+003, 5.601839e+001
1.272143e+003, 5.614257e+001
1.272625e+003, 5.621434e+001
1.273107e+003, 5.615322e+001
1.273589e+003, 5.602150e+001
1.274072e+003, 5.571182e+001
1.274554e+003, 5.554322e+001
1.275036e+003, 5.585485e+001
1.275518e+003, 5.615536e+001
1.276000e+003, 5.612273e+001
1.276482e+003, 5.589954e+001
1.276964e+003, 5.548800e+001
1.277446e+003, 5.507470e+001
1.277929e+003, 5.525890e+001
1.278411e+003, 5.615493e+001
1.278893e+003, 5.642234e+001
1.279375e+003, 5.582024e+001
1.279857e+003, 5.550410e+001
1.280339e+003, 5.563678e+001
1.280821e+003, 5.582985e+001
1.281303e+003, 5.596590e+001
1.281786e+003, 5.599469e+001
1.282268e+003, 5.587177e+001
##END=



