##NAMES=Tundrite-(Ce)
##RRUFFID=R130563
##IDEAL CHEMISTRY=Na_2_Ce^3+^_2_Ti^4+^O_2_SiO_4_(CO_3_)_2_
##LOCALITY=Poudrette quarry, Mount St. Hilaire, Quebec, Canada
##OWNER=RRUFF
##SOURCE=Don Doell
##DESCRIPTION=Yellow bladed crystals, associated with white orthoclase
##STATUS=The identification of this mineral has been confirmed only by single crystal X-ray diffraction.
##URL=rruff.info/R130563
8.806445e+001, 1.954236e+003
8.854657e+001, 1.921741e+003
8.902869e+001, 1.910544e+003
8.951080e+001, 1.922495e+003
8.999292e+001, 1.954609e+003
9.047504e+001, 2.009940e+003
9.095715e+001, 2.093194e+003
9.143927e+001, 2.183814e+003
9.192139e+001, 2.250441e+003
9.240350e+001, 2.293252e+003
9.288562e+001, 2.338540e+003
9.336774e+001, 2.386100e+003
9.384985e+001, 2.416987e+003
9.433197e+001, 2.411770e+003
9.481409e+001, 2.397154e+003
9.529620e+001, 2.371813e+003
9.577832e+001, 2.346777e+003
9.626044e+001, 2.323493e+003
9.674255e+001, 2.306001e+003
9.722467e+001, 2.299521e+003
9.770679e+001, 2.305768e+003
9.818890e+001, 2.315020e+003
9.867102e+001, 2.330688e+003
9.915314e+001, 2.345310e+003
9.963525e+001, 2.350502e+003
1.001174e+002, 2.342052e+003
1.005995e+002, 2.325796e+003
1.010816e+002, 2.323380e+003
1.015637e+002, 2.351974e+003
1.020458e+002, 2.376709e+003
1.025280e+002, 2.389192e+003
1.030101e+002, 2.394713e+003
1.034922e+002, 2.403002e+003
1.039743e+002, 2.421214e+003
1.044564e+002, 2.449317e+003
1.049385e+002, 2.471893e+003
1.054207e+002, 2.488533e+003
1.059028e+002, 2.501407e+003
1.063849e+002, 2.509215e+003
1.068670e+002, 2.512630e+003
1.073491e+002, 2.517270e+003
1.078312e+002, 2.529239e+003
1.083134e+002, 2.548153e+003
1.087955e+002, 2.566021e+003
1.092776e+002, 2.585310e+003
1.097597e+002, 2.602033e+003
1.102418e+002, 2.607826e+003
1.107239e+002, 2.596804e+003
1.112061e+002, 2.585937e+003
1.116882e+002, 2.592312e+003
1.121703e+002, 2.612549e+003
1.126524e+002, 2.633369e+003
1.131345e+002, 2.647558e+003
1.136166e+002, 2.655380e+003
1.140988e+002, 2.660857e+003
1.145809e+002, 2.664144e+003
1.150630e+002, 2.665054e+003
1.155451e+002, 2.661611e+003
1.160272e+002, 2.654375e+003
1.165093e+002, 2.647682e+003
1.169915e+002, 2.647183e+003
1.174736e+002, 2.655172e+003
1.179557e+002, 2.663560e+003
1.184378e+002, 2.670986e+003
1.189199e+002, 2.678898e+003
1.194020e+002, 2.689692e+003
1.198842e+002, 2.703794e+003
1.203663e+002, 2.718091e+003
1.208484e+002, 2.725554e+003
1.213305e+002, 2.716709e+003
1.218126e+002, 2.711008e+003
1.222947e+002, 2.712248e+003
1.227769e+002, 2.716136e+003
1.232590e+002, 2.716767e+003
1.237411e+002, 2.710794e+003
1.242232e+002, 2.700009e+003
1.247053e+002, 2.692678e+003
1.251874e+002, 2.688190e+003
1.256696e+002, 2.686675e+003
1.261517e+002, 2.690716e+003
1.266338e+002, 2.698775e+003
1.271159e+002, 2.704400e+003
1.275980e+002, 2.702810e+003
1.280801e+002, 2.695578e+003
1.285623e+002, 2.689727e+003
1.290444e+002, 2.688922e+003
1.295265e+002, 2.687198e+003
1.300086e+002, 2.675339e+003
1.304907e+002, 2.650334e+003
1.309728e+002, 2.630653e+003
1.314550e+002, 2.635047e+003
1.319371e+002, 2.651203e+003
1.324192e+002, 2.663033e+003
1.329013e+002, 2.662465e+003
1.333834e+002, 2.653263e+003
1.338655e+002, 2.646764e+003
1.343477e+002, 2.645535e+003
1.348298e+002, 2.643247e+003
1.353119e+002, 2.636269e+003
1.357940e+002, 2.626504e+003
1.362761e+002, 2.617315e+003
1.367582e+002, 2.610494e+003
1.372404e+002, 2.606000e+003
1.377225e+002, 2.606408e+003
1.382046e+002, 2.618816e+003
1.386867e+002, 2.630074e+003
1.391688e+002, 2.637958e+003
1.396509e+002, 2.641261e+003
1.401331e+002, 2.638080e+003
1.406152e+002, 2.624471e+003
1.410973e+002, 2.593040e+003
1.415794e+002, 2.580056e+003
1.420615e+002, 2.594314e+003
1.425436e+002, 2.616287e+003
1.430258e+002, 2.637054e+003
1.435079e+002, 2.653947e+003
1.439900e+002, 2.665975e+003
1.444721e+002, 2.670991e+003
1.449542e+002, 2.664684e+003
1.454363e+002, 2.662118e+003
1.459185e+002, 2.663836e+003
1.464006e+002, 2.669450e+003
1.468827e+002, 2.680901e+003
1.473648e+002, 2.700044e+003
1.478469e+002, 2.719164e+003
1.483290e+002, 2.720783e+003
1.488112e+002, 2.702401e+003
1.492933e+002, 2.691939e+003
1.497754e+002, 2.706346e+003
1.502575e+002, 2.737449e+003
1.507396e+002, 2.761151e+003
1.512217e+002, 2.768397e+003
1.517039e+002, 2.766868e+003
1.521860e+002, 2.765896e+003
1.526681e+002, 2.765075e+003
1.531502e+002, 2.767793e+003
1.536323e+002, 2.777249e+003
1.541144e+002, 2.793549e+003
1.545966e+002, 2.812465e+003
1.550787e+002, 2.834183e+003
1.555608e+002, 2.857470e+003
1.560429e+002, 2.881822e+003
1.565250e+002, 2.907299e+003
1.570071e+002, 2.932930e+003
1.574893e+002, 2.957683e+003
1.579714e+002, 2.981928e+003
1.584535e+002, 3.004069e+003
1.589356e+002, 3.023276e+003
1.594177e+002, 3.040938e+003
1.598998e+002, 3.058015e+003
1.603820e+002, 3.074801e+003
1.608641e+002, 3.090975e+003
1.613462e+002, 3.105131e+003
1.618283e+002, 3.110268e+003
1.623104e+002, 3.123985e+003
1.627925e+002, 3.152227e+003
1.632747e+002, 3.187550e+003
1.637568e+002, 3.222053e+003
1.642389e+002, 3.251565e+003
1.647210e+002, 3.277971e+003
1.652031e+002, 3.308976e+003
1.656852e+002, 3.356470e+003
1.661674e+002, 3.395308e+003
1.666495e+002, 3.414587e+003
1.671316e+002, 3.423004e+003
1.676137e+002, 3.435385e+003
1.680958e+002, 3.460622e+003
1.685779e+002, 3.496766e+003
1.690601e+002, 3.531407e+003
1.695422e+002, 3.563805e+003
1.700243e+002, 3.595744e+003
1.705064e+002, 3.628131e+003
1.709885e+002, 3.660769e+003
1.714706e+002, 3.693204e+003
1.719528e+002, 3.725517e+003
1.724349e+002, 3.757135e+003
1.729170e+002, 3.786611e+003
1.733991e+002, 3.810118e+003
1.738812e+002, 3.834592e+003
1.743633e+002, 3.865376e+003
1.748455e+002, 3.902596e+003
1.753276e+002, 3.943518e+003
1.758097e+002, 3.987162e+003
1.762918e+002, 4.033694e+003
1.767739e+002, 4.083855e+003
1.772560e+002, 4.140367e+003
1.777382e+002, 4.198657e+003
1.782203e+002, 4.254566e+003
1.787024e+002, 4.310866e+003
1.791845e+002, 4.354646e+003
1.796666e+002, 4.365066e+003
1.801487e+002, 4.362406e+003
1.806309e+002, 4.373381e+003
1.811130e+002, 4.414005e+003
1.815951e+002, 4.472763e+003
1.820772e+002, 4.519324e+003
1.825593e+002, 4.550101e+003
1.830414e+002, 4.572669e+003
1.835236e+002, 4.584681e+003
1.840057e+002, 4.592713e+003
1.844878e+002, 4.605478e+003
1.849699e+002, 4.627573e+003
1.854520e+002, 4.658769e+003
1.859341e+002, 4.698499e+003
1.864163e+002, 4.764863e+003
1.868984e+002, 4.819019e+003
1.873805e+002, 4.846411e+003
1.878626e+002, 4.856312e+003
1.883447e+002, 4.864899e+003
1.888268e+002, 4.883952e+003
1.893090e+002, 4.912930e+003
1.897911e+002, 4.935282e+003
1.902732e+002, 4.944765e+003
1.907553e+002, 4.954059e+003
1.912374e+002, 4.961293e+003
1.917195e+002, 4.970728e+003
1.922017e+002, 4.992780e+003
1.926838e+002, 5.038198e+003
1.931659e+002, 5.109518e+003
1.936480e+002, 5.147845e+003
1.941301e+002, 5.131891e+003
1.946122e+002, 5.111794e+003
1.950944e+002, 5.106231e+003
1.955765e+002, 5.115205e+003
1.960586e+002, 5.132373e+003
1.965407e+002, 5.154751e+003
1.970228e+002, 5.182327e+003
1.975049e+002, 5.198001e+003
1.979871e+002, 5.189947e+003
1.984692e+002, 5.180943e+003
1.989513e+002, 5.187576e+003
1.994334e+002, 5.209110e+003
1.999155e+002, 5.230272e+003
2.003976e+002, 5.237928e+003
2.008798e+002, 5.232702e+003
2.013619e+002, 5.231481e+003
2.018440e+002, 5.235524e+003
2.023261e+002, 5.243342e+003
2.028082e+002, 5.256022e+003
2.032903e+002, 5.273869e+003
2.037725e+002, 5.289075e+003
2.042546e+002, 5.294126e+003
2.047367e+002, 5.291390e+003
2.052188e+002, 5.287321e+003
2.057009e+002, 5.281526e+003
2.061830e+002, 5.275697e+003
2.066652e+002, 5.271429e+003
2.071473e+002, 5.268248e+003
2.076294e+002, 5.268723e+003
2.081115e+002, 5.275784e+003
2.085936e+002, 5.287453e+003
2.090757e+002, 5.302055e+003
2.095579e+002, 5.324948e+003
2.100400e+002, 5.348002e+003
2.105221e+002, 5.353079e+003
2.110042e+002, 5.333569e+003
2.114863e+002, 5.310444e+003
2.119685e+002, 5.284612e+003
2.124506e+002, 5.263604e+003
2.129327e+002, 5.261645e+003
2.134148e+002, 5.293354e+003
2.138969e+002, 5.344891e+003
2.143790e+002, 5.370683e+003
2.148612e+002, 5.351083e+003
2.153433e+002, 5.337774e+003
2.158254e+002, 5.355646e+003
2.163075e+002, 5.388604e+003
2.167896e+002, 5.413259e+003
2.172717e+002, 5.413950e+003
2.177539e+002, 5.398371e+003
2.182360e+002, 5.401847e+003
2.187181e+002, 5.441713e+003
2.192002e+002, 5.478976e+003
2.196823e+002, 5.500879e+003
2.201644e+002, 5.515093e+003
2.206466e+002, 5.531931e+003
2.211287e+002, 5.557206e+003
2.216108e+002, 5.590348e+003
2.220929e+002, 5.628305e+003
2.225750e+002, 5.686500e+003
2.230571e+002, 5.731880e+003
2.235393e+002, 5.744191e+003
2.240214e+002, 5.742855e+003
2.245035e+002, 5.755713e+003
2.249856e+002, 5.799724e+003
2.254677e+002, 5.870496e+003
2.259498e+002, 5.940329e+003
2.264320e+002, 6.017989e+003
2.269141e+002, 6.084937e+003
2.273962e+002, 6.134049e+003
2.278783e+002, 6.171098e+003
2.283604e+002, 6.202911e+003
2.288425e+002, 6.232304e+003
2.293247e+002, 6.262171e+003
2.298068e+002, 6.310420e+003
2.302889e+002, 6.388890e+003
2.307710e+002, 6.470552e+003
2.312531e+002, 6.557997e+003
2.317352e+002, 6.644245e+003
2.322174e+002, 6.713904e+003
2.326995e+002, 6.755708e+003
2.331816e+002, 6.780698e+003
2.336637e+002, 6.839828e+003
2.341458e+002, 6.962276e+003
2.346279e+002, 7.078329e+003
2.351101e+002, 7.163001e+003
2.355922e+002, 7.229311e+003
2.360743e+002, 7.304319e+003
2.365564e+002, 7.401896e+003
2.370385e+002, 7.514479e+003
2.375206e+002, 7.614492e+003
2.380028e+002, 7.696912e+003
2.384849e+002, 7.778544e+003
2.389670e+002, 7.859062e+003
2.394491e+002, 7.942166e+003
2.399312e+002, 8.041599e+003
2.404133e+002, 8.168559e+003
2.408955e+002, 8.305070e+003
2.413776e+002, 8.409137e+003
2.418597e+002, 8.467395e+003
2.423418e+002, 8.531706e+003
2.428239e+002, 8.627708e+003
2.433060e+002, 8.746509e+003
2.437882e+002, 8.865260e+003
2.442703e+002, 8.976415e+003
2.447524e+002, 9.082372e+003
2.452345e+002, 9.184651e+003
2.457166e+002, 9.280525e+003
2.461987e+002, 9.383062e+003
2.466809e+002, 9.513305e+003
2.471630e+002, 9.657893e+003
2.476451e+002, 9.767112e+003
2.481272e+002, 9.806350e+003
2.486093e+002, 9.833306e+003
2.490914e+002, 9.921355e+003
2.495736e+002, 1.007048e+004
2.500557e+002, 1.022290e+004
2.505378e+002, 1.034629e+004
2.510199e+002, 1.044600e+004
2.515020e+002, 1.054493e+004
2.519841e+002, 1.064894e+004
2.524663e+002, 1.075106e+004
2.529484e+002, 1.084769e+004
2.534305e+002, 1.093859e+004
2.539126e+002, 1.102447e+004
2.543947e+002, 1.110076e+004
2.548768e+002, 1.117100e+004
2.553590e+002, 1.125112e+004
2.558411e+002, 1.134830e+004
2.563232e+002, 1.144914e+004
2.568053e+002, 1.154573e+004
2.572874e+002, 1.163826e+004
2.577695e+002, 1.172750e+004
2.582516e+002, 1.181021e+004
2.587338e+002, 1.188909e+004
2.592159e+002, 1.197599e+004
2.596980e+002, 1.207500e+004
2.601801e+002, 1.217758e+004
2.606622e+002, 1.228142e+004
2.611443e+002, 1.238489e+004
2.616265e+002, 1.248405e+004
2.621086e+002, 1.257110e+004
2.625907e+002, 1.265135e+004
2.630728e+002, 1.274781e+004
2.635549e+002, 1.286549e+004
2.640370e+002, 1.299386e+004
2.645192e+002, 1.312837e+004
2.650013e+002, 1.326864e+004
2.654834e+002, 1.341504e+004
2.659655e+002, 1.357029e+004
2.664476e+002, 1.373072e+004
2.669297e+002, 1.388478e+004
2.674119e+002, 1.402406e+004
2.678940e+002, 1.417030e+004
2.683761e+002, 1.432923e+004
2.688582e+002, 1.449751e+004
2.693403e+002, 1.467336e+004
2.698224e+002, 1.485640e+004
2.703046e+002, 1.504335e+004
2.707867e+002, 1.522193e+004
2.712688e+002, 1.537328e+004
2.717509e+002, 1.555183e+004
2.722330e+002, 1.578771e+004
2.727151e+002, 1.604319e+004
2.731973e+002, 1.628178e+004
2.736794e+002, 1.648888e+004
2.741615e+002, 1.667721e+004
2.746436e+002, 1.687416e+004
2.751257e+002, 1.707804e+004
2.756078e+002, 1.729568e+004
2.760900e+002, 1.753932e+004
2.765721e+002, 1.778691e+004
2.770542e+002, 1.801734e+004
2.775363e+002, 1.822552e+004
2.780184e+002, 1.842291e+004
2.785005e+002, 1.862892e+004
2.789827e+002, 1.885338e+004
2.794648e+002, 1.906357e+004
2.799469e+002, 1.926638e+004
2.804290e+002, 1.945184e+004
2.809111e+002, 1.960400e+004
2.813932e+002, 1.972430e+004
2.818754e+002, 1.983554e+004
2.823575e+002, 1.997094e+004
2.828396e+002, 2.014831e+004
2.833217e+002, 2.029703e+004
2.838038e+002, 2.042175e+004
2.842859e+002, 2.051892e+004
2.847681e+002, 2.057571e+004
2.852502e+002, 2.059833e+004
2.857323e+002, 2.060846e+004
2.862144e+002, 2.062535e+004
2.866965e+002, 2.064625e+004
2.871786e+002, 2.069176e+004
2.876608e+002, 2.079392e+004
2.881429e+002, 2.088876e+004
2.886250e+002, 2.095793e+004
2.891071e+002, 2.099787e+004
2.895892e+002, 2.100706e+004
2.900714e+002, 2.098007e+004
2.905535e+002, 2.091621e+004
2.910356e+002, 2.087242e+004
2.915177e+002, 2.086463e+004
2.919998e+002, 2.086032e+004
2.924819e+002, 2.085326e+004
2.929641e+002, 2.084312e+004
2.934462e+002, 2.083210e+004
2.939283e+002, 2.082213e+004
2.944104e+002, 2.081158e+004
2.948925e+002, 2.078863e+004
2.953746e+002, 2.071768e+004
2.958568e+002, 2.067424e+004
2.963389e+002, 2.068210e+004
2.968210e+002, 2.072026e+004
2.973031e+002, 2.076404e+004
2.977852e+002, 2.080201e+004
2.982673e+002, 2.083106e+004
2.987495e+002, 2.084112e+004
2.992316e+002, 2.078481e+004
2.997137e+002, 2.077028e+004
3.001958e+002, 2.083729e+004
3.006779e+002, 2.093048e+004
3.011600e+002, 2.098655e+004
3.016422e+002, 2.098677e+004
3.021243e+002, 2.097015e+004
3.026064e+002, 2.100844e+004
3.030885e+002, 2.113964e+004
3.035706e+002, 2.126288e+004
3.040527e+002, 2.138612e+004
3.045349e+002, 2.149678e+004
3.050170e+002, 2.157783e+004
3.054991e+002, 2.162995e+004
3.059812e+002, 2.167475e+004
3.064633e+002, 2.173954e+004
3.069454e+002, 2.183271e+004
3.074276e+002, 2.191698e+004
3.079097e+002, 2.199561e+004
3.083918e+002, 2.206396e+004
3.088739e+002, 2.211597e+004
3.093560e+002, 2.215423e+004
3.098381e+002, 2.218829e+004
3.103203e+002, 2.222778e+004
3.108024e+002, 2.227371e+004
3.112845e+002, 2.230618e+004
3.117666e+002, 2.231738e+004
3.122487e+002, 2.232547e+004
3.127308e+002, 2.234650e+004
3.132130e+002, 2.236945e+004
3.136951e+002, 2.236838e+004
3.141772e+002, 2.232479e+004
3.146593e+002, 2.224554e+004
3.151414e+002, 2.217992e+004
3.156235e+002, 2.214713e+004
3.161057e+002, 2.210502e+004
3.165878e+002, 2.204573e+004
3.170699e+002, 2.197324e+004
3.175520e+002, 2.189228e+004
3.180341e+002, 2.180511e+004
3.185162e+002, 2.171259e+004
3.189984e+002, 2.161819e+004
3.194805e+002, 2.153032e+004
3.199626e+002, 2.142822e+004
3.204447e+002, 2.131479e+004
3.209268e+002, 2.118603e+004
3.214089e+002, 2.103566e+004
3.218911e+002, 2.086268e+004
3.223732e+002, 2.067540e+004
3.228553e+002, 2.048136e+004
3.233374e+002, 2.026722e+004
3.238195e+002, 2.008522e+004
3.243016e+002, 1.996427e+004
3.247838e+002, 1.984942e+004
3.252659e+002, 1.970419e+004
3.257480e+002, 1.952827e+004
3.262301e+002, 1.934897e+004
3.267122e+002, 1.919364e+004
3.271943e+002, 1.906823e+004
3.276765e+002, 1.892068e+004
3.281586e+002, 1.872746e+004
3.286407e+002, 1.853903e+004
3.291228e+002, 1.838107e+004
3.296049e+002, 1.824270e+004
3.300870e+002, 1.809277e+004
3.305692e+002, 1.790724e+004
3.310513e+002, 1.769454e+004
3.315334e+002, 1.752369e+004
3.320155e+002, 1.744770e+004
3.324976e+002, 1.735405e+004
3.329797e+002, 1.721645e+004
3.334619e+002, 1.705551e+004
3.339440e+002, 1.689778e+004
3.344261e+002, 1.675496e+004
3.349082e+002, 1.662209e+004
3.353904e+002, 1.648493e+004
3.358725e+002, 1.633619e+004
3.363546e+002, 1.619660e+004
3.368367e+002, 1.606422e+004
3.373188e+002, 1.594184e+004
3.378009e+002, 1.583372e+004
3.382831e+002, 1.574014e+004
3.387652e+002, 1.565611e+004
3.392473e+002, 1.557842e+004
3.397294e+002, 1.551453e+004
3.402115e+002, 1.543139e+004
3.406936e+002, 1.531799e+004
3.411758e+002, 1.519773e+004
3.416579e+002, 1.507328e+004
3.421400e+002, 1.495034e+004
3.426221e+002, 1.484185e+004
3.431042e+002, 1.476024e+004
3.435863e+002, 1.470539e+004
3.440685e+002, 1.464970e+004
3.445506e+002, 1.459855e+004
3.450327e+002, 1.454068e+004
3.455148e+002, 1.446742e+004
3.459969e+002, 1.438682e+004
3.464790e+002, 1.431066e+004
3.469612e+002, 1.424453e+004
3.474433e+002, 1.418871e+004
3.479254e+002, 1.414375e+004
3.484075e+002, 1.411823e+004
3.488896e+002, 1.409052e+004
3.493717e+002, 1.406133e+004
3.498539e+002, 1.402710e+004
3.503360e+002, 1.397935e+004
3.508181e+002, 1.391714e+004
3.513002e+002, 1.385561e+004
3.517823e+002, 1.381750e+004
3.522644e+002, 1.380724e+004
3.527466e+002, 1.380663e+004
3.532287e+002, 1.383316e+004
3.537108e+002, 1.385376e+004
3.541929e+002, 1.384643e+004
3.546750e+002, 1.381434e+004
3.551571e+002, 1.377872e+004
3.556393e+002, 1.375763e+004
3.561214e+002, 1.375094e+004
3.566035e+002, 1.374693e+004
3.570856e+002, 1.374664e+004
3.575677e+002, 1.374819e+004
3.580498e+002, 1.375270e+004
3.585320e+002, 1.375820e+004
3.590141e+002, 1.376103e+004
3.594962e+002, 1.375831e+004
3.599783e+002, 1.375292e+004
3.604604e+002, 1.375121e+004
3.609425e+002, 1.374995e+004
3.614247e+002, 1.376047e+004
3.619068e+002, 1.378975e+004
3.623889e+002, 1.382920e+004
3.628710e+002, 1.387587e+004
3.633531e+002, 1.392955e+004
3.638352e+002, 1.397701e+004
3.643174e+002, 1.399311e+004
3.647995e+002, 1.397224e+004
3.652816e+002, 1.397915e+004
3.657637e+002, 1.405220e+004
3.662458e+002, 1.413288e+004
3.667279e+002, 1.418215e+004
3.672101e+002, 1.420197e+004
3.676922e+002, 1.421757e+004
3.681743e+002, 1.424821e+004
3.686564e+002, 1.428980e+004
3.691385e+002, 1.432249e+004
3.696206e+002, 1.434287e+004
3.701028e+002, 1.436001e+004
3.705849e+002, 1.437464e+004
3.710670e+002, 1.439053e+004
3.715491e+002, 1.441510e+004
3.720312e+002, 1.445329e+004
3.725133e+002, 1.449934e+004
3.729955e+002, 1.454732e+004
3.734776e+002, 1.459762e+004
3.739597e+002, 1.464449e+004
3.744418e+002, 1.467934e+004
3.749239e+002, 1.471357e+004
3.754060e+002, 1.476328e+004
3.758882e+002, 1.483343e+004
3.763703e+002, 1.490328e+004
3.768524e+002, 1.495442e+004
3.773345e+002, 1.499224e+004
3.778166e+002, 1.504015e+004
3.782987e+002, 1.510566e+004
3.787809e+002, 1.517858e+004
3.792630e+002, 1.525236e+004
3.797451e+002, 1.532664e+004
3.802272e+002, 1.538947e+004
3.807093e+002, 1.542296e+004
3.811914e+002, 1.544906e+004
3.816736e+002, 1.550495e+004
3.821557e+002, 1.559459e+004
3.826378e+002, 1.567331e+004
3.831199e+002, 1.570000e+004
3.836020e+002, 1.568775e+004
3.840841e+002, 1.570114e+004
3.845663e+002, 1.575988e+004
3.850484e+002, 1.582612e+004
3.855305e+002, 1.588429e+004
3.860126e+002, 1.593311e+004
3.864947e+002, 1.596529e+004
3.869768e+002, 1.597293e+004
3.874590e+002, 1.597201e+004
3.879411e+002, 1.599919e+004
3.884232e+002, 1.606219e+004
3.889053e+002, 1.612304e+004
3.893874e+002, 1.617429e+004
3.898695e+002, 1.621945e+004
3.903517e+002, 1.626190e+004
3.908338e+002, 1.630262e+004
3.913159e+002, 1.634138e+004
3.917980e+002, 1.637796e+004
3.922801e+002, 1.641196e+004
3.927622e+002, 1.644696e+004
3.932444e+002, 1.647974e+004
3.937265e+002, 1.651637e+004
3.942086e+002, 1.656687e+004
3.946907e+002, 1.662419e+004
3.951728e+002, 1.666993e+004
3.956549e+002, 1.669204e+004
3.961371e+002, 1.669720e+004
3.966192e+002, 1.671132e+004
3.971013e+002, 1.673739e+004
3.975834e+002, 1.676927e+004
3.980655e+002, 1.681350e+004
3.985476e+002, 1.685974e+004
3.990298e+002, 1.689037e+004
3.995119e+002, 1.690358e+004
3.999940e+002, 1.692416e+004
4.004761e+002, 1.699122e+004
4.009582e+002, 1.713076e+004
4.014403e+002, 1.722384e+004
4.019225e+002, 1.724890e+004
4.024046e+002, 1.725446e+004
4.028867e+002, 1.725364e+004
4.033688e+002, 1.725150e+004
4.038509e+002, 1.725188e+004
4.043330e+002, 1.725689e+004
4.048152e+002, 1.726715e+004
4.052973e+002, 1.728580e+004
4.057794e+002, 1.731141e+004
4.062615e+002, 1.734895e+004
4.067436e+002, 1.740727e+004
4.072257e+002, 1.747259e+004
4.077079e+002, 1.753314e+004
4.081900e+002, 1.758526e+004
4.086721e+002, 1.762754e+004
4.091542e+002, 1.765560e+004
4.096363e+002, 1.766674e+004
4.101184e+002, 1.768004e+004
4.106006e+002, 1.769967e+004
4.110827e+002, 1.771986e+004
4.115648e+002, 1.773278e+004
4.120469e+002, 1.774267e+004
4.125290e+002, 1.776324e+004
4.130111e+002, 1.780505e+004
4.134933e+002, 1.786405e+004
4.139754e+002, 1.793361e+004
4.144575e+002, 1.802662e+004
4.149396e+002, 1.809567e+004
4.154217e+002, 1.809416e+004
4.159038e+002, 1.806481e+004
4.163860e+002, 1.805693e+004
4.168681e+002, 1.808595e+004
4.173502e+002, 1.812329e+004
4.178323e+002, 1.813619e+004
4.183144e+002, 1.812901e+004
4.187965e+002, 1.814059e+004
4.192787e+002, 1.818678e+004
4.197608e+002, 1.824624e+004
4.202429e+002, 1.829820e+004
4.207250e+002, 1.834294e+004
4.212071e+002, 1.838102e+004
4.216892e+002, 1.841153e+004
4.221714e+002, 1.843611e+004
4.226535e+002, 1.845141e+004
4.231356e+002, 1.845716e+004
4.236177e+002, 1.847620e+004
4.240998e+002, 1.853782e+004
4.245819e+002, 1.862255e+004
4.250641e+002, 1.864925e+004
4.255462e+002, 1.856096e+004
4.260283e+002, 1.848763e+004
4.265104e+002, 1.850808e+004
4.269925e+002, 1.857962e+004
4.274746e+002, 1.861779e+004
4.279568e+002, 1.859310e+004
4.284389e+002, 1.853745e+004
4.289210e+002, 1.849673e+004
4.294031e+002, 1.847500e+004
4.298852e+002, 1.846044e+004
4.303673e+002, 1.845721e+004
4.308495e+002, 1.845775e+004
4.313316e+002, 1.846478e+004
4.318137e+002, 1.847269e+004
4.322958e+002, 1.846183e+004
4.327779e+002, 1.841452e+004
4.332600e+002, 1.833779e+004
4.337422e+002, 1.828978e+004
4.342243e+002, 1.830566e+004
4.347064e+002, 1.830898e+004
4.351885e+002, 1.828930e+004
4.356706e+002, 1.825296e+004
4.361527e+002, 1.820407e+004
4.366349e+002, 1.814501e+004
4.371170e+002, 1.808204e+004
4.375991e+002, 1.802278e+004
4.380812e+002, 1.796580e+004
4.385633e+002, 1.791796e+004
4.390454e+002, 1.788710e+004
4.395276e+002, 1.785851e+004
4.400097e+002, 1.783835e+004
4.404918e+002, 1.781592e+004
4.409739e+002, 1.776553e+004
4.414560e+002, 1.766255e+004
4.419381e+002, 1.753242e+004
4.424203e+002, 1.745420e+004
4.429024e+002, 1.745304e+004
4.433845e+002, 1.743794e+004
4.438666e+002, 1.737530e+004
4.443487e+002, 1.729116e+004
4.448308e+002, 1.719829e+004
4.453130e+002, 1.709937e+004
4.457951e+002, 1.700980e+004
4.462772e+002, 1.695214e+004
4.467593e+002, 1.691814e+004
4.472414e+002, 1.686142e+004
4.477235e+002, 1.676606e+004
4.482057e+002, 1.667058e+004
4.486878e+002, 1.661195e+004
4.491699e+002, 1.657560e+004
4.496520e+002, 1.652920e+004
4.501341e+002, 1.646458e+004
4.506162e+002, 1.638643e+004
4.510984e+002, 1.628511e+004
4.515805e+002, 1.616747e+004
4.520626e+002, 1.608207e+004
4.525447e+002, 1.606089e+004
4.530268e+002, 1.606447e+004
4.535089e+002, 1.601018e+004
4.539911e+002, 1.588455e+004
4.544732e+002, 1.577927e+004
4.549553e+002, 1.572918e+004
4.554374e+002, 1.570083e+004
4.559195e+002, 1.566065e+004
4.564016e+002, 1.560479e+004
4.568838e+002, 1.554596e+004
4.573659e+002, 1.549499e+004
4.578480e+002, 1.545090e+004
4.583301e+002, 1.539374e+004
4.588122e+002, 1.532040e+004
4.592943e+002, 1.523975e+004
4.597765e+002, 1.514114e+004
4.602586e+002, 1.504086e+004
4.607407e+002, 1.495810e+004
4.612228e+002, 1.489990e+004
4.617049e+002, 1.486257e+004
4.621870e+002, 1.484535e+004
4.626692e+002, 1.486385e+004
4.631513e+002, 1.485203e+004
4.636334e+002, 1.478461e+004
4.641155e+002, 1.471397e+004
4.645976e+002, 1.465662e+004
4.650797e+002, 1.461403e+004
4.655619e+002, 1.458499e+004
4.660440e+002, 1.457161e+004
4.665261e+002, 1.456592e+004
4.670082e+002, 1.454483e+004
4.674903e+002, 1.450227e+004
4.679724e+002, 1.446052e+004
4.684546e+002, 1.442257e+004
4.689367e+002, 1.438916e+004
4.694188e+002, 1.436190e+004
4.699009e+002, 1.434046e+004
4.703830e+002, 1.432212e+004
4.708651e+002, 1.431084e+004
4.713473e+002, 1.430149e+004
4.718294e+002, 1.427005e+004
4.723115e+002, 1.420540e+004
4.727936e+002, 1.414875e+004
4.732757e+002, 1.413978e+004
4.737578e+002, 1.415542e+004
4.742400e+002, 1.415220e+004
4.747221e+002, 1.411537e+004
4.752042e+002, 1.407238e+004
4.756863e+002, 1.403756e+004
4.761684e+002, 1.401115e+004
4.766505e+002, 1.399414e+004
4.771327e+002, 1.398692e+004
4.776148e+002, 1.398907e+004
4.780969e+002, 1.400508e+004
4.785790e+002, 1.403915e+004
4.790611e+002, 1.405238e+004
4.795432e+002, 1.402326e+004
4.800254e+002, 1.399004e+004
4.805075e+002, 1.397939e+004
4.809896e+002, 1.398592e+004
4.814717e+002, 1.398775e+004
4.819538e+002, 1.397185e+004
4.824359e+002, 1.394794e+004
4.829181e+002, 1.394421e+004
4.834002e+002, 1.398357e+004
4.838823e+002, 1.401019e+004
4.843644e+002, 1.401668e+004
4.848465e+002, 1.401598e+004
4.853286e+002, 1.401572e+004
4.858108e+002, 1.401738e+004
4.862929e+002, 1.401933e+004
4.867750e+002, 1.401850e+004
4.872571e+002, 1.401653e+004
4.877392e+002, 1.402931e+004
4.882213e+002, 1.406734e+004
4.887035e+002, 1.410300e+004
4.891856e+002, 1.411938e+004
4.896677e+002, 1.413475e+004
4.901498e+002, 1.417532e+004
4.906319e+002, 1.424744e+004
4.911140e+002, 1.431344e+004
4.915962e+002, 1.432722e+004
4.920783e+002, 1.429603e+004
4.925604e+002, 1.427891e+004
4.930425e+002, 1.428386e+004
4.935246e+002, 1.429986e+004
4.940067e+002, 1.432632e+004
4.944889e+002, 1.435762e+004
4.949710e+002, 1.438035e+004
4.954531e+002, 1.438524e+004
4.959352e+002, 1.438792e+004
4.964173e+002, 1.439832e+004
4.968994e+002, 1.441659e+004
4.973816e+002, 1.444467e+004
4.978637e+002, 1.448449e+004
4.983458e+002, 1.452971e+004
4.988279e+002, 1.457167e+004
4.993100e+002, 1.461010e+004
4.997921e+002, 1.464670e+004
5.002743e+002, 1.467768e+004
5.007564e+002, 1.471009e+004
5.012385e+002, 1.475274e+004
5.017206e+002, 1.480134e+004
5.022027e+002, 1.484208e+004
5.026848e+002, 1.486703e+004
5.031670e+002, 1.488001e+004
5.036491e+002, 1.489113e+004
5.041312e+002, 1.489106e+004
5.046133e+002, 1.490529e+004
5.050954e+002, 1.494277e+004
5.055775e+002, 1.498674e+004
5.060597e+002, 1.502714e+004
5.065418e+002, 1.506317e+004
5.070239e+002, 1.509847e+004
5.075060e+002, 1.513695e+004
5.079881e+002, 1.517672e+004
5.084702e+002, 1.520622e+004
5.089524e+002, 1.521620e+004
5.094345e+002, 1.523708e+004
5.099166e+002, 1.528902e+004
5.103987e+002, 1.535016e+004
5.108808e+002, 1.540072e+004
5.113629e+002, 1.543756e+004
5.118451e+002, 1.547196e+004
5.123271e+002, 1.551162e+004
5.128093e+002, 1.555507e+004
5.132914e+002, 1.560038e+004
5.137735e+002, 1.564948e+004
5.142556e+002, 1.568832e+004
5.147377e+002, 1.569892e+004
5.152198e+002, 1.569190e+004
5.157020e+002, 1.570554e+004
5.161841e+002, 1.576018e+004
5.166662e+002, 1.580741e+004
5.171483e+002, 1.581488e+004
5.176304e+002, 1.580414e+004
5.181125e+002, 1.581114e+004
5.185947e+002, 1.584467e+004
5.190768e+002, 1.589032e+004
5.195589e+002, 1.593438e+004
5.200410e+002, 1.597787e+004
5.205231e+002, 1.601072e+004
5.210052e+002, 1.600868e+004
5.214874e+002, 1.602489e+004
5.219695e+002, 1.609555e+004
5.224516e+002, 1.618852e+004
5.229337e+002, 1.625871e+004
5.234158e+002, 1.628974e+004
5.238979e+002, 1.629463e+004
5.243801e+002, 1.628480e+004
5.248622e+002, 1.625172e+004
5.253443e+002, 1.624998e+004
5.258264e+002, 1.630301e+004
5.263085e+002, 1.636527e+004
5.267906e+002, 1.642366e+004
5.272728e+002, 1.647572e+004
5.277549e+002, 1.651846e+004
5.282370e+002, 1.654978e+004
5.287191e+002, 1.657312e+004
5.292012e+002, 1.659260e+004
5.296833e+002, 1.660812e+004
5.301655e+002, 1.661676e+004
5.306476e+002, 1.661248e+004
5.311297e+002, 1.660975e+004
5.316118e+002, 1.662939e+004
5.320939e+002, 1.666786e+004
5.325760e+002, 1.670030e+004
5.330582e+002, 1.671770e+004
5.335403e+002, 1.673092e+004
5.340224e+002, 1.674814e+004
5.345045e+002, 1.676818e+004
5.349866e+002, 1.678477e+004
5.354688e+002, 1.679429e+004
5.359509e+002, 1.680440e+004
5.364330e+002, 1.683052e+004
5.369151e+002, 1.688510e+004
5.373972e+002, 1.692585e+004
5.378793e+002, 1.694559e+004
5.383615e+002, 1.695972e+004
5.388436e+002, 1.697859e+004
5.393257e+002, 1.699866e+004
5.398078e+002, 1.700631e+004
5.402899e+002, 1.699169e+004
5.407720e+002, 1.697204e+004
5.412542e+002, 1.699536e+004
5.417363e+002, 1.708369e+004
5.422184e+002, 1.713969e+004
5.427005e+002, 1.711666e+004
5.431826e+002, 1.708360e+004
5.436647e+002, 1.708302e+004
5.441469e+002, 1.710872e+004
5.446290e+002, 1.712783e+004
5.451111e+002, 1.711861e+004
5.455932e+002, 1.709725e+004
5.460753e+002, 1.709092e+004
5.465574e+002, 1.709887e+004
5.470396e+002, 1.709693e+004
5.475217e+002, 1.707103e+004
5.480038e+002, 1.703794e+004
5.484859e+002, 1.702473e+004
5.489680e+002, 1.703205e+004
5.494501e+002, 1.704260e+004
5.499323e+002, 1.706874e+004
5.504144e+002, 1.708471e+004
5.508965e+002, 1.706681e+004
5.513786e+002, 1.701988e+004
5.518607e+002, 1.695814e+004
5.523428e+002, 1.688654e+004
5.528250e+002, 1.681983e+004
5.533071e+002, 1.679827e+004
5.537892e+002, 1.686951e+004
5.542713e+002, 1.689901e+004
5.547534e+002, 1.686099e+004
5.552355e+002, 1.681049e+004
5.557177e+002, 1.677782e+004
5.561998e+002, 1.675969e+004
5.566819e+002, 1.673740e+004
5.571640e+002, 1.669813e+004
5.576461e+002, 1.665215e+004
5.581282e+002, 1.662224e+004
5.586104e+002, 1.660984e+004
5.590925e+002, 1.660539e+004
5.595746e+002, 1.662310e+004
5.600567e+002, 1.663069e+004
5.605388e+002, 1.659478e+004
5.610209e+002, 1.652109e+004
5.615031e+002, 1.645005e+004
5.619852e+002, 1.639675e+004
5.624673e+002, 1.635336e+004
5.629494e+002, 1.630808e+004
5.634315e+002, 1.626409e+004
5.639136e+002, 1.624263e+004
5.643958e+002, 1.625803e+004
5.648779e+002, 1.628150e+004
5.653600e+002, 1.626151e+004
5.658421e+002, 1.617631e+004
5.663242e+002, 1.610827e+004
5.668063e+002, 1.607268e+004
5.672885e+002, 1.603897e+004
5.677706e+002, 1.599099e+004
5.682527e+002, 1.593134e+004
5.687348e+002, 1.586630e+004
5.692169e+002, 1.579832e+004
5.696990e+002, 1.573433e+004
5.701812e+002, 1.568902e+004
5.706633e+002, 1.566640e+004
5.711454e+002, 1.564744e+004
5.716275e+002, 1.564310e+004
5.721096e+002, 1.562884e+004
5.725917e+002, 1.557962e+004
5.730739e+002, 1.551220e+004
5.735560e+002, 1.546697e+004
5.740381e+002, 1.546796e+004
5.745202e+002, 1.548129e+004
5.750023e+002, 1.546879e+004
5.754844e+002, 1.543435e+004
5.759666e+002, 1.540233e+004
5.764487e+002, 1.538193e+004
5.769308e+002, 1.535373e+004
5.774129e+002, 1.528768e+004
5.778950e+002, 1.518319e+004
5.783771e+002, 1.511495e+004
5.788593e+002, 1.511037e+004
5.793414e+002, 1.511408e+004
5.798235e+002, 1.510316e+004
5.803056e+002, 1.508341e+004
5.807877e+002, 1.506896e+004
5.812698e+002, 1.506302e+004
5.817520e+002, 1.505042e+004
5.822341e+002, 1.500836e+004
5.827162e+002, 1.493120e+004
5.831984e+002, 1.487567e+004
5.836805e+002, 1.485641e+004
5.841626e+002, 1.484175e+004
5.846447e+002, 1.482506e+004
5.851268e+002, 1.480675e+004
5.856089e+002, 1.478857e+004
5.860911e+002, 1.477107e+004
5.865732e+002, 1.475025e+004
5.870553e+002, 1.472147e+004
5.875374e+002, 1.468611e+004
5.880195e+002, 1.464830e+004
5.885016e+002, 1.460660e+004
5.889838e+002, 1.457179e+004
5.894659e+002, 1.455596e+004
5.899480e+002, 1.455068e+004
5.904301e+002, 1.452930e+004
5.909122e+002, 1.447883e+004
5.913943e+002, 1.443846e+004
5.918765e+002, 1.443484e+004
5.923586e+002, 1.443835e+004
5.928407e+002, 1.440710e+004
5.933228e+002, 1.434440e+004
5.938049e+002, 1.429650e+004
5.942870e+002, 1.430025e+004
5.947692e+002, 1.434222e+004
5.952513e+002, 1.436043e+004
5.957334e+002, 1.435159e+004
5.962155e+002, 1.432291e+004
5.966976e+002, 1.425501e+004
5.971797e+002, 1.418659e+004
5.976619e+002, 1.414452e+004
5.981440e+002, 1.412703e+004
5.986261e+002, 1.411488e+004
5.991082e+002, 1.409512e+004
5.995903e+002, 1.407474e+004
6.000724e+002, 1.407514e+004
6.005546e+002, 1.409644e+004
6.010367e+002, 1.408694e+004
6.015188e+002, 1.401243e+004
6.020009e+002, 1.392723e+004
6.024830e+002, 1.391163e+004
6.029651e+002, 1.396315e+004
6.034473e+002, 1.398938e+004
6.039294e+002, 1.396222e+004
6.044115e+002, 1.392081e+004
6.048936e+002, 1.388852e+004
6.053757e+002, 1.386020e+004
6.058578e+002, 1.382154e+004
6.063400e+002, 1.376767e+004
6.068221e+002, 1.370883e+004
6.073042e+002, 1.365753e+004
6.077863e+002, 1.361224e+004
6.082684e+002, 1.358635e+004
6.087505e+002, 1.361391e+004
6.092327e+002, 1.362075e+004
6.097148e+002, 1.357076e+004
6.101969e+002, 1.349515e+004
6.106790e+002, 1.343116e+004
6.111611e+002, 1.338890e+004
6.116432e+002, 1.335915e+004
6.121254e+002, 1.333757e+004
6.126075e+002, 1.332168e+004
6.130896e+002, 1.330505e+004
6.135717e+002, 1.328749e+004
6.140538e+002, 1.326486e+004
6.145359e+002, 1.323269e+004
6.150181e+002, 1.319450e+004
6.155002e+002, 1.316082e+004
6.159823e+002, 1.313106e+004
6.164644e+002, 1.310576e+004
6.169465e+002, 1.308863e+004
6.174286e+002, 1.307333e+004
6.179108e+002, 1.305316e+004
6.183929e+002, 1.302940e+004
6.188750e+002, 1.300942e+004
6.193571e+002, 1.299855e+004
6.198392e+002, 1.299145e+004
6.203214e+002, 1.297561e+004
6.208035e+002, 1.295389e+004
6.212856e+002, 1.291430e+004
6.217677e+002, 1.282958e+004
6.222498e+002, 1.275174e+004
6.227319e+002, 1.271611e+004
6.232141e+002, 1.270889e+004
6.236962e+002, 1.269228e+004
6.241783e+002, 1.264771e+004
6.246604e+002, 1.259696e+004
6.251425e+002, 1.255443e+004
6.256246e+002, 1.252261e+004
6.261068e+002, 1.251813e+004
6.265889e+002, 1.254825e+004
6.270710e+002, 1.257221e+004
6.275531e+002, 1.254898e+004
6.280352e+002, 1.248110e+004
6.285173e+002, 1.242466e+004
6.289995e+002, 1.238278e+004
6.294816e+002, 1.234696e+004
6.299637e+002, 1.231553e+004
6.304458e+002, 1.228925e+004
6.309279e+002, 1.227097e+004
6.314100e+002, 1.225949e+004
6.318922e+002, 1.224828e+004
6.323743e+002, 1.223201e+004
6.328564e+002, 1.221173e+004
6.333385e+002, 1.219281e+004
6.338206e+002, 1.217757e+004
6.343027e+002, 1.215284e+004
6.347849e+002, 1.210277e+004
6.352670e+002, 1.205311e+004
6.357491e+002, 1.203044e+004
6.362312e+002, 1.203230e+004
6.367133e+002, 1.203410e+004
6.371954e+002, 1.203342e+004
6.376776e+002, 1.202524e+004
6.381597e+002, 1.199979e+004
6.386418e+002, 1.196410e+004
6.391239e+002, 1.193840e+004
6.396060e+002, 1.192944e+004
6.400881e+002, 1.191958e+004
6.405703e+002, 1.188506e+004
6.410524e+002, 1.182305e+004
6.415345e+002, 1.177165e+004
6.420166e+002, 1.173586e+004
6.424987e+002, 1.170598e+004
6.429808e+002, 1.167795e+004
6.434630e+002, 1.165630e+004
6.439451e+002, 1.165282e+004
6.444272e+002, 1.166655e+004
6.449093e+002, 1.167003e+004
6.453914e+002, 1.162878e+004
6.458735e+002, 1.156414e+004
6.463557e+002, 1.153184e+004
6.468378e+002, 1.153323e+004
6.473199e+002, 1.153668e+004
6.478020e+002, 1.153137e+004
6.482841e+002, 1.151830e+004
6.487662e+002, 1.149898e+004
6.492484e+002, 1.147390e+004
6.497305e+002, 1.144001e+004
6.502126e+002, 1.138188e+004
6.506947e+002, 1.133005e+004
6.511768e+002, 1.130970e+004
6.516589e+002, 1.130513e+004
6.521411e+002, 1.128404e+004
6.526232e+002, 1.123635e+004
6.531053e+002, 1.118862e+004
6.535874e+002, 1.118180e+004
6.540695e+002, 1.121657e+004
6.545516e+002, 1.122406e+004
6.550338e+002, 1.119724e+004
6.555159e+002, 1.115697e+004
6.559980e+002, 1.109513e+004
6.564801e+002, 1.103304e+004
6.569622e+002, 1.099771e+004
6.574443e+002, 1.099390e+004
6.579265e+002, 1.099119e+004
6.584086e+002, 1.098082e+004
6.588907e+002, 1.096161e+004
6.593728e+002, 1.092704e+004
6.598549e+002, 1.088114e+004
6.603370e+002, 1.084150e+004
6.608192e+002, 1.081688e+004
6.613013e+002, 1.079629e+004
6.617834e+002, 1.075816e+004
6.622655e+002, 1.069029e+004
6.627476e+002, 1.065020e+004
6.632297e+002, 1.066998e+004
6.637119e+002, 1.068237e+004
6.641940e+002, 1.067101e+004
6.646761e+002, 1.063859e+004
6.651582e+002, 1.058014e+004
6.656403e+002, 1.049427e+004
6.661224e+002, 1.042293e+004
6.666046e+002, 1.041475e+004
6.670867e+002, 1.044360e+004
6.675688e+002, 1.044812e+004
6.680509e+002, 1.042480e+004
6.685330e+002, 1.038969e+004
6.690151e+002, 1.034655e+004
6.694973e+002, 1.030258e+004
6.699794e+002, 1.027338e+004
6.704615e+002, 1.026786e+004
6.709436e+002, 1.025313e+004
6.714257e+002, 1.022661e+004
6.719078e+002, 1.019305e+004
6.723900e+002, 1.014887e+004
6.728721e+002, 1.010104e+004
6.733542e+002, 1.006075e+004
6.738363e+002, 1.003186e+004
6.743184e+002, 1.000786e+004
6.748005e+002, 9.982458e+003
6.752827e+002, 9.955361e+003
6.757648e+002, 9.923396e+003
6.762469e+002, 9.884591e+003
6.767290e+002, 9.848367e+003
6.772111e+002, 9.821556e+003
6.776932e+002, 9.798426e+003
6.781754e+002, 9.770302e+003
6.786575e+002, 9.738105e+003
6.791396e+002, 9.696646e+003
6.796217e+002, 9.627091e+003
6.801038e+002, 9.563042e+003
6.805859e+002, 9.535369e+003
6.810681e+002, 9.533139e+003
6.815502e+002, 9.532424e+003
6.820323e+002, 9.523225e+003
6.825144e+002, 9.502525e+003
6.829965e+002, 9.461758e+003
6.834786e+002, 9.398887e+003
6.839608e+002, 9.352330e+003
6.844429e+002, 9.329782e+003
6.849250e+002, 9.309983e+003
6.854071e+002, 9.288021e+003
6.858892e+002, 9.262444e+003
6.863713e+002, 9.228692e+003
6.868535e+002, 9.185749e+003
6.873356e+002, 9.148730e+003
6.878177e+002, 9.129203e+003
6.882998e+002, 9.115090e+003
6.887819e+002, 9.094396e+003
6.892640e+002, 9.068189e+003
6.897462e+002, 9.039178e+003
6.902283e+002, 9.007960e+003
6.907104e+002, 8.985410e+003
6.911925e+002, 8.992064e+003
6.916746e+002, 9.035148e+003
6.921567e+002, 9.041277e+003
6.926389e+002, 8.979115e+003
6.931210e+002, 8.922032e+003
6.936031e+002, 8.886497e+003
6.940852e+002, 8.866235e+003
6.945673e+002, 8.861800e+003
6.950494e+002, 8.870822e+003
6.955316e+002, 8.868830e+003
6.960137e+002, 8.828236e+003
6.964958e+002, 8.777029e+003
6.969779e+002, 8.756444e+003
6.974600e+002, 8.760221e+003
6.979421e+002, 8.755237e+003
6.984243e+002, 8.729102e+003
6.989064e+002, 8.698625e+003
6.993885e+002, 8.686406e+003
6.998706e+002, 8.694936e+003
7.003527e+002, 8.689247e+003
7.008348e+002, 8.648422e+003
7.013170e+002, 8.619087e+003
7.017991e+002, 8.620069e+003
7.022812e+002, 8.629081e+003
7.027633e+002, 8.622835e+003
7.032454e+002, 8.601277e+003
7.037275e+002, 8.584798e+003
7.042097e+002, 8.591049e+003
7.046918e+002, 8.605661e+003
7.051739e+002, 8.607223e+003
7.056560e+002, 8.596917e+003
7.061381e+002, 8.580276e+003
7.066202e+002, 8.557300e+003
7.071024e+002, 8.536396e+003
7.075845e+002, 8.525536e+003
7.080666e+002, 8.524599e+003
7.085487e+002, 8.531879e+003
7.090308e+002, 8.562290e+003
7.095129e+002, 8.580589e+003
7.099951e+002, 8.572030e+003
7.104772e+002, 8.556583e+003
7.109593e+002, 8.549148e+003
7.114414e+002, 8.550918e+003
7.119235e+002, 8.557911e+003
7.124056e+002, 8.570708e+003
7.128878e+002, 8.581954e+003
7.133699e+002, 8.574020e+003
7.138520e+002, 8.551244e+003
7.143341e+002, 8.548580e+003
7.148162e+002, 8.576581e+003
7.152983e+002, 8.604680e+003
7.157805e+002, 8.607175e+003
7.162626e+002, 8.588796e+003
7.167447e+002, 8.576577e+003
7.172268e+002, 8.572039e+003
7.177089e+002, 8.571104e+003
7.181910e+002, 8.578550e+003
7.186732e+002, 8.585209e+003
7.191553e+002, 8.578314e+003
7.196374e+002, 8.565566e+003
7.201195e+002, 8.570723e+003
7.206016e+002, 8.608394e+003
7.210837e+002, 8.646582e+003
7.215659e+002, 8.633287e+003
7.220480e+002, 8.579720e+003
7.225301e+002, 8.549434e+003
7.230122e+002, 8.550809e+003
7.234943e+002, 8.561807e+003
7.239764e+002, 8.568660e+003
7.244586e+002, 8.576796e+003
7.249407e+002, 8.603134e+003
7.254228e+002, 8.665048e+003
7.259049e+002, 8.701723e+003
7.263870e+002, 8.690348e+003
7.268691e+002, 8.672532e+003
7.273513e+002, 8.663768e+003
7.278334e+002, 8.666705e+003
7.283155e+002, 8.689773e+003
7.287976e+002, 8.734116e+003
7.292797e+002, 8.769988e+003
7.297618e+002, 8.755901e+003
7.302440e+002, 8.707471e+003
7.307261e+002, 8.681701e+003
7.312082e+002, 8.680898e+003
7.316903e+002, 8.689234e+003
7.321724e+002, 8.703566e+003
7.326545e+002, 8.718080e+003
7.331367e+002, 8.722224e+003
7.336188e+002, 8.712066e+003
7.341009e+002, 8.715255e+003
7.345830e+002, 8.752462e+003
7.350651e+002, 8.778239e+003
7.355472e+002, 8.768643e+003
7.360294e+002, 8.744080e+003
7.365115e+002, 8.724546e+003
7.369936e+002, 8.715229e+003
7.374757e+002, 8.716336e+003
7.379578e+002, 8.732557e+003
7.384399e+002, 8.754991e+003
7.389221e+002, 8.762410e+003
7.394042e+002, 8.756259e+003
7.398863e+002, 8.761493e+003
7.403684e+002, 8.787236e+003
7.408505e+002, 8.813519e+003
7.413326e+002, 8.818824e+003
7.418148e+002, 8.806102e+003
7.422969e+002, 8.809758e+003
7.427790e+002, 8.851564e+003
7.432611e+002, 8.878260e+003
7.437432e+002, 8.875040e+003
7.442253e+002, 8.861896e+003
7.447075e+002, 8.848602e+003
7.451896e+002, 8.838768e+003
7.456717e+002, 8.836786e+003
7.461538e+002, 8.845502e+003
7.466359e+002, 8.859496e+003
7.471180e+002, 8.877466e+003
7.476002e+002, 8.895562e+003
7.480823e+002, 8.897089e+003
7.485644e+002, 8.879521e+003
7.490465e+002, 8.861138e+003
7.495286e+002, 8.851995e+003
7.500107e+002, 8.849929e+003
7.504929e+002, 8.849431e+003
7.509750e+002, 8.847422e+003
7.514571e+002, 8.855129e+003
7.519392e+002, 8.883605e+003
7.524213e+002, 8.908633e+003
7.529034e+002, 8.923819e+003
7.533856e+002, 8.928339e+003
7.538677e+002, 8.916316e+003
7.543498e+002, 8.887913e+003
7.548319e+002, 8.866934e+003
7.553140e+002, 8.881499e+003
7.557961e+002, 8.909259e+003
7.562783e+002, 8.912131e+003
7.567604e+002, 8.892946e+003
7.572425e+002, 8.869478e+003
7.577246e+002, 8.846891e+003
7.582067e+002, 8.830410e+003
7.586888e+002, 8.828063e+003
7.591710e+002, 8.839651e+003
7.596531e+002, 8.842271e+003
7.601352e+002, 8.829530e+003
7.606173e+002, 8.817292e+003
7.610994e+002, 8.810140e+003
7.615815e+002, 8.802312e+003
7.620637e+002, 8.783528e+003
7.625458e+002, 8.759567e+003
7.630279e+002, 8.752238e+003
7.635100e+002, 8.780285e+003
7.639921e+002, 8.808474e+003
7.644742e+002, 8.811702e+003
7.649564e+002, 8.793547e+003
7.654385e+002, 8.750206e+003
7.659206e+002, 8.686829e+003
7.664027e+002, 8.640151e+003
7.668848e+002, 8.635642e+003
7.673669e+002, 8.653417e+003
7.678491e+002, 8.643322e+003
7.683312e+002, 8.592257e+003
7.688133e+002, 8.564212e+003
7.692954e+002, 8.583985e+003
7.697775e+002, 8.593595e+003
7.702596e+002, 8.554902e+003
7.707418e+002, 8.497689e+003
7.712239e+002, 8.461040e+003
7.717060e+002, 8.450333e+003
7.721881e+002, 8.443935e+003
7.726702e+002, 8.439604e+003
7.731523e+002, 8.430942e+003
7.736345e+002, 8.411735e+003
7.741166e+002, 8.384468e+003
7.745987e+002, 8.357440e+003
7.750808e+002, 8.331625e+003
7.755629e+002, 8.292755e+003
7.760450e+002, 8.219889e+003
7.765272e+002, 8.125611e+003
7.770093e+002, 8.073766e+003
7.774914e+002, 8.072124e+003
7.779735e+002, 8.071662e+003
7.784556e+002, 8.063303e+003
7.789377e+002, 8.049904e+003
7.794199e+002, 8.036180e+003
7.799020e+002, 8.019904e+003
7.803841e+002, 7.989977e+003
7.808662e+002, 7.931835e+003
7.813483e+002, 7.881022e+003
7.818304e+002, 7.848984e+003
7.823126e+002, 7.824688e+003
7.827947e+002, 7.804844e+003
7.832768e+002, 7.784121e+003
7.837589e+002, 7.750378e+003
7.842410e+002, 7.697455e+003
7.847231e+002, 7.643787e+003
7.852053e+002, 7.616059e+003
7.856874e+002, 7.606921e+003
7.861695e+002, 7.586915e+003
7.866516e+002, 7.554302e+003
7.871337e+002, 7.518145e+003
7.876158e+002, 7.483924e+003
7.880980e+002, 7.444710e+003
7.885801e+002, 7.385930e+003
7.890622e+002, 7.301052e+003
7.895443e+002, 7.241884e+003
7.900264e+002, 7.238397e+003
7.905085e+002, 7.221670e+003
7.909907e+002, 7.168958e+003
7.914728e+002, 7.102299e+003
7.919549e+002, 7.036829e+003
7.924370e+002, 6.976850e+003
7.929191e+002, 6.927013e+003
7.934012e+002, 6.892188e+003
7.938834e+002, 6.865275e+003
7.943655e+002, 6.846824e+003
7.948476e+002, 6.829095e+003
7.953297e+002, 6.792822e+003
7.958118e+002, 6.736767e+003
7.962939e+002, 6.677499e+003
7.967761e+002, 6.625297e+003
7.972582e+002, 6.578365e+003
7.977403e+002, 6.532941e+003
7.982224e+002, 6.488484e+003
7.987045e+002, 6.447093e+003
7.991866e+002, 6.412717e+003
7.996688e+002, 6.375343e+003
8.001509e+002, 6.325197e+003
8.006330e+002, 6.272055e+003
8.011151e+002, 6.229443e+003
8.015972e+002, 6.199389e+003
8.020793e+002, 6.164839e+003
8.025615e+002, 6.118747e+003
8.030436e+002, 6.069546e+003
8.035257e+002, 6.020279e+003
8.040078e+002, 5.972472e+003
8.044899e+002, 5.929897e+003
8.049720e+002, 5.892119e+003
8.054542e+002, 5.852507e+003
8.059363e+002, 5.805277e+003
8.064184e+002, 5.754378e+003
8.069005e+002, 5.708106e+003
8.073826e+002, 5.666369e+003
8.078647e+002, 5.629582e+003
8.083469e+002, 5.599878e+003
8.088290e+002, 5.564545e+003
8.093111e+002, 5.510878e+003
8.097932e+002, 5.447496e+003
8.102753e+002, 5.402078e+003
8.107574e+002, 5.389024e+003
8.112396e+002, 5.363959e+003
8.117217e+002, 5.317090e+003
8.122038e+002, 5.269439e+003
8.126859e+002, 5.233765e+003
8.131680e+002, 5.200672e+003
8.136501e+002, 5.153914e+003
8.141323e+002, 5.091322e+003
8.146144e+002, 5.034387e+003
8.150965e+002, 5.000853e+003
8.155786e+002, 4.976273e+003
8.160607e+002, 4.946601e+003
8.165428e+002, 4.912142e+003
8.170250e+002, 4.871278e+003
8.175071e+002, 4.824737e+003
8.179892e+002, 4.784591e+003
8.184713e+002, 4.762357e+003
8.189534e+002, 4.751339e+003
8.194355e+002, 4.727444e+003
8.199177e+002, 4.688808e+003
8.203998e+002, 4.644345e+003
8.208819e+002, 4.587676e+003
8.213640e+002, 4.537525e+003
8.218461e+002, 4.510026e+003
8.223282e+002, 4.495290e+003
8.228104e+002, 4.472704e+003
8.232925e+002, 4.438578e+003
8.237746e+002, 4.409313e+003
8.242567e+002, 4.396317e+003
8.247388e+002, 4.380244e+003
8.252209e+002, 4.344973e+003
8.257031e+002, 4.301894e+003
8.261852e+002, 4.267771e+003
8.266673e+002, 4.245923e+003
8.271494e+002, 4.229062e+003
8.276315e+002, 4.214389e+003
8.281136e+002, 4.198500e+003
8.285958e+002, 4.172857e+003
8.290779e+002, 4.139958e+003
8.295600e+002, 4.112715e+003
8.300421e+002, 4.093755e+003
8.305242e+002, 4.075058e+003
8.310063e+002, 4.050555e+003
8.314885e+002, 4.022239e+003
8.319706e+002, 3.996753e+003
8.324527e+002, 3.975976e+003
8.329348e+002, 3.952653e+003
8.334169e+002, 3.922553e+003
8.338990e+002, 3.895238e+003
8.343812e+002, 3.875527e+003
8.348633e+002, 3.859841e+003
8.353454e+002, 3.843737e+003
8.358275e+002, 3.826841e+003
8.363096e+002, 3.810666e+003
8.367917e+002, 3.796956e+003
8.372739e+002, 3.782905e+003
8.377560e+002, 3.767890e+003
8.382381e+002, 3.750796e+003
8.387202e+002, 3.728996e+003
8.392023e+002, 3.703090e+003
8.396844e+002, 3.677330e+003
8.401666e+002, 3.654770e+003
8.406487e+002, 3.633717e+003
8.411308e+002, 3.610390e+003
8.416129e+002, 3.585642e+003
8.420950e+002, 3.566448e+003
8.425771e+002, 3.553843e+003
8.430593e+002, 3.541620e+003
8.435414e+002, 3.525181e+003
8.440235e+002, 3.510153e+003
8.445056e+002, 3.509691e+003
8.449877e+002, 3.531760e+003
8.454698e+002, 3.527768e+003
8.459520e+002, 3.464673e+003
8.464341e+002, 3.419212e+003
8.469162e+002, 3.426885e+003
8.473983e+002, 3.445106e+003
8.478804e+002, 3.431856e+003
8.483625e+002, 3.391960e+003
8.488447e+002, 3.365070e+003
8.493268e+002, 3.371477e+003
8.498089e+002, 3.381383e+003
8.502910e+002, 3.381977e+003
8.507731e+002, 3.374491e+003
8.512552e+002, 3.357720e+003
8.517374e+002, 3.334215e+003
8.522195e+002, 3.309762e+003
8.527016e+002, 3.287026e+003
8.531837e+002, 3.266587e+003
8.536658e+002, 3.247779e+003
8.541479e+002, 3.231772e+003
8.546301e+002, 3.226382e+003
8.551122e+002, 3.232009e+003
8.555943e+002, 3.234096e+003
8.560764e+002, 3.228038e+003
8.565585e+002, 3.215459e+003
8.570406e+002, 3.196550e+003
8.575228e+002, 3.172324e+003
8.580049e+002, 3.154121e+003
8.584870e+002, 3.146219e+003
8.589691e+002, 3.137349e+003
8.594512e+002, 3.125942e+003
8.599333e+002, 3.114076e+003
8.604155e+002, 3.101160e+003
8.608976e+002, 3.089037e+003
8.613797e+002, 3.080359e+003
8.618618e+002, 3.075276e+003
8.623439e+002, 3.075657e+003
8.628260e+002, 3.088068e+003
8.633082e+002, 3.100745e+003
8.637903e+002, 3.110014e+003
8.642724e+002, 3.110735e+003
8.647545e+002, 3.089851e+003
8.652366e+002, 3.048359e+003
8.657188e+002, 3.008689e+003
8.662009e+002, 2.987156e+003
8.666830e+002, 2.979713e+003
8.671651e+002, 2.982875e+003
8.676472e+002, 2.994265e+003
8.681293e+002, 2.997870e+003
8.686115e+002, 2.990975e+003
8.690936e+002, 2.984663e+003
8.695757e+002, 2.986124e+003
8.700578e+002, 2.990800e+003
8.705399e+002, 2.989238e+003
8.710220e+002, 2.980306e+003
8.715042e+002, 2.970584e+003
8.719863e+002, 2.958743e+003
8.724684e+002, 2.948360e+003
8.729505e+002, 2.943269e+003
8.734326e+002, 2.938121e+003
8.739147e+002, 2.927294e+003
8.743969e+002, 2.911719e+003
8.748790e+002, 2.898074e+003
8.753611e+002, 2.888331e+003
8.758432e+002, 2.879740e+003
8.763253e+002, 2.866986e+003
8.768074e+002, 2.858599e+003
8.772896e+002, 2.868247e+003
8.777717e+002, 2.887390e+003
8.782538e+002, 2.895747e+003
8.787359e+002, 2.885961e+003
8.792180e+002, 2.868428e+003
8.797001e+002, 2.845335e+003
8.801823e+002, 2.824606e+003
8.806644e+002, 2.826971e+003
8.811465e+002, 2.846129e+003
8.816286e+002, 2.852917e+003
8.821107e+002, 2.839907e+003
8.825928e+002, 2.822285e+003
8.830750e+002, 2.812672e+003
8.835571e+002, 2.810150e+003
8.840392e+002, 2.813589e+003
8.845213e+002, 2.825319e+003
8.850034e+002, 2.828887e+003
8.854855e+002, 2.820459e+003
8.859677e+002, 2.809240e+003
8.864498e+002, 2.798357e+003
8.869319e+002, 2.788656e+003
8.874140e+002, 2.781251e+003
8.878961e+002, 2.775875e+003
8.883782e+002, 2.774881e+003
8.888604e+002, 2.785611e+003
8.893425e+002, 2.791399e+003
8.898246e+002, 2.782591e+003
8.903067e+002, 2.771089e+003
8.907888e+002, 2.767015e+003
8.912709e+002, 2.769752e+003
8.917531e+002, 2.774382e+003
8.922352e+002, 2.780378e+003
8.927173e+002, 2.783973e+003
8.931994e+002, 2.779676e+003
8.936815e+002, 2.773722e+003
8.941636e+002, 2.774068e+003
8.946458e+002, 2.779049e+003
8.951279e+002, 2.782402e+003
8.956100e+002, 2.782412e+003
8.960921e+002, 2.783953e+003
8.965742e+002, 2.793468e+003
8.970563e+002, 2.806184e+003
8.975385e+002, 2.809811e+003
8.980206e+002, 2.804597e+003
8.985027e+002, 2.792718e+003
8.989848e+002, 2.773893e+003
8.994669e+002, 2.754243e+003
8.999490e+002, 2.735581e+003
9.004312e+002, 2.722829e+003
9.009133e+002, 2.729222e+003
9.013954e+002, 2.761651e+003
9.018775e+002, 2.781045e+003
9.023596e+002, 2.780256e+003
9.028417e+002, 2.778696e+003
9.033239e+002, 2.783105e+003
9.038060e+002, 2.788675e+003
9.042881e+002, 2.790742e+003
9.047702e+002, 2.789795e+003
9.052523e+002, 2.789089e+003
9.057344e+002, 2.788463e+003
9.062166e+002, 2.788947e+003
9.066987e+002, 2.791851e+003
9.071808e+002, 2.794945e+003
9.076629e+002, 2.795485e+003
9.081450e+002, 2.795420e+003
9.086271e+002, 2.798651e+003
9.091093e+002, 2.806096e+003
9.095914e+002, 2.814654e+003
9.100735e+002, 2.825087e+003
9.105556e+002, 2.833015e+003
9.110377e+002, 2.832994e+003
9.115198e+002, 2.826943e+003
9.120020e+002, 2.816771e+003
9.124841e+002, 2.804207e+003
9.129662e+002, 2.794651e+003
9.134483e+002, 2.791467e+003
9.139304e+002, 2.793418e+003
9.144125e+002, 2.800504e+003
9.148947e+002, 2.811601e+003
9.153768e+002, 2.817072e+003
9.158589e+002, 2.816289e+003
9.163410e+002, 2.815446e+003
9.168231e+002, 2.817140e+003
9.173052e+002, 2.818063e+003
9.177874e+002, 2.813973e+003
9.182695e+002, 2.805657e+003
9.187516e+002, 2.800887e+003
9.192337e+002, 2.800779e+003
9.197158e+002, 2.801669e+003
9.201979e+002, 2.805286e+003
9.206801e+002, 2.807142e+003
9.211622e+002, 2.802570e+003
9.216443e+002, 2.795559e+003
9.221264e+002, 2.793667e+003
9.226085e+002, 2.798553e+003
9.230906e+002, 2.797809e+003
9.235728e+002, 2.777825e+003
9.240549e+002, 2.766733e+003
9.245370e+002, 2.783426e+003
9.250191e+002, 2.807277e+003
9.255012e+002, 2.817359e+003
9.259833e+002, 2.816418e+003
9.264655e+002, 2.822010e+003
9.269476e+002, 2.844027e+003
9.274297e+002, 2.859043e+003
9.279118e+002, 2.841085e+003
9.283939e+002, 2.815344e+003
9.288760e+002, 2.809402e+003
9.293582e+002, 2.819170e+003
9.298403e+002, 2.832438e+003
9.303224e+002, 2.845558e+003
9.308045e+002, 2.861182e+003
9.312866e+002, 2.884006e+003
9.317687e+002, 2.905301e+003
9.322509e+002, 2.903945e+003
9.327330e+002, 2.885777e+003
9.332151e+002, 2.877552e+003
9.336972e+002, 2.882012e+003
9.341793e+002, 2.889268e+003
9.346614e+002, 2.894609e+003
9.351436e+002, 2.899613e+003
9.356257e+002, 2.907144e+003
9.361078e+002, 2.916866e+003
9.365899e+002, 2.920814e+003
9.370720e+002, 2.917209e+003
9.375541e+002, 2.914390e+003
9.380363e+002, 2.912105e+003
9.385184e+002, 2.915311e+003
9.390005e+002, 2.931424e+003
9.394826e+002, 2.953915e+003
9.399647e+002, 2.963406e+003
9.404468e+002, 2.950776e+003
9.409290e+002, 2.949994e+003
9.414111e+002, 2.973792e+003
9.418932e+002, 2.992842e+003
9.423753e+002, 2.986405e+003
9.428574e+002, 2.981083e+003
9.433395e+002, 3.013340e+003
9.438217e+002, 3.072515e+003
9.443038e+002, 3.100419e+003
9.447859e+002, 3.064459e+003
9.452680e+002, 3.034261e+003
9.457501e+002, 3.037731e+003
9.462322e+002, 3.053266e+003
9.467144e+002, 3.066871e+003
9.471965e+002, 3.079940e+003
9.476786e+002, 3.101741e+003
9.481607e+002, 3.131659e+003
9.486428e+002, 3.148685e+003
9.491249e+002, 3.128833e+003
9.496071e+002, 3.103961e+003
9.500892e+002, 3.110799e+003
9.505713e+002, 3.132825e+003
9.510534e+002, 3.142866e+003
9.515355e+002, 3.139855e+003
9.520176e+002, 3.133175e+003
9.524998e+002, 3.127231e+003
9.529819e+002, 3.127065e+003
9.534640e+002, 3.143857e+003
9.539461e+002, 3.169283e+003
9.544282e+002, 3.173209e+003
9.549103e+002, 3.159483e+003
9.553925e+002, 3.159153e+003
9.558746e+002, 3.178772e+003
9.563567e+002, 3.205279e+003
9.568388e+002, 3.231401e+003
9.573209e+002, 3.252144e+003
9.578030e+002, 3.253760e+003
9.582852e+002, 3.233675e+003
9.587673e+002, 3.224539e+003
9.592494e+002, 3.228025e+003
9.597315e+002, 3.236769e+003
9.602136e+002, 3.251179e+003
9.606957e+002, 3.264389e+003
9.611779e+002, 3.267606e+003
9.616600e+002, 3.264150e+003
9.621421e+002, 3.272532e+003
9.626242e+002, 3.306710e+003
9.631063e+002, 3.324740e+003
9.635884e+002, 3.308398e+003
9.640706e+002, 3.298410e+003
9.645527e+002, 3.317924e+003
9.650348e+002, 3.345923e+003
9.655169e+002, 3.355903e+003
9.659990e+002, 3.349160e+003
9.664811e+002, 3.354098e+003
9.669633e+002, 3.391784e+003
9.674454e+002, 3.417024e+003
9.679275e+002, 3.410270e+003
9.684096e+002, 3.397316e+003
9.688917e+002, 3.390364e+003
9.693738e+002, 3.391577e+003
9.698560e+002, 3.404640e+003
9.703381e+002, 3.429695e+003
9.708202e+002, 3.452586e+003
9.713023e+002, 3.467752e+003
9.717844e+002, 3.477262e+003
9.722665e+002, 3.477559e+003
9.727487e+002, 3.476268e+003
9.732308e+002, 3.484431e+003
9.737129e+002, 3.499233e+003
9.741950e+002, 3.508807e+003
9.746771e+002, 3.508601e+003
9.751592e+002, 3.509376e+003
9.756414e+002, 3.523913e+003
9.761235e+002, 3.542764e+003
9.766056e+002, 3.548079e+003
9.770877e+002, 3.547991e+003
9.775698e+002, 3.567746e+003
9.780519e+002, 3.606667e+003
9.785341e+002, 3.634806e+003
9.790162e+002, 3.633803e+003
9.794983e+002, 3.620195e+003
9.799804e+002, 3.613449e+003
9.804625e+002, 3.614752e+003
9.809446e+002, 3.634179e+003
9.814268e+002, 3.669183e+003
9.819089e+002, 3.690709e+003
9.823910e+002, 3.690922e+003
9.828731e+002, 3.694365e+003
9.833552e+002, 3.722405e+003
9.838373e+002, 3.762003e+003
9.843195e+002, 3.776447e+003
9.848016e+002, 3.763786e+003
9.852837e+002, 3.773448e+003
9.857658e+002, 3.813111e+003
9.862479e+002, 3.838185e+003
9.867300e+002, 3.829401e+003
9.872122e+002, 3.811728e+003
9.876943e+002, 3.809692e+003
9.881764e+002, 3.820783e+003
9.886585e+002, 3.830426e+003
9.891406e+002, 3.834091e+003
9.896227e+002, 3.850703e+003
9.901049e+002, 3.891712e+003
9.905870e+002, 3.926056e+003
9.910691e+002, 3.937975e+003
9.915512e+002, 3.939908e+003
9.920333e+002, 3.944596e+003
9.925154e+002, 3.952172e+003
9.929976e+002, 3.966740e+003
9.934797e+002, 4.003939e+003
9.939618e+002, 4.024292e+003
9.944439e+002, 4.002216e+003
9.949260e+002, 3.989356e+003
9.954081e+002, 4.021439e+003
9.958903e+002, 4.071115e+003
9.963724e+002, 4.102603e+003
9.968545e+002, 4.113453e+003
9.973366e+002, 4.116705e+003
9.978187e+002, 4.096458e+003
9.983008e+002, 4.094208e+003
9.987830e+002, 4.141739e+003
9.992651e+002, 4.191784e+003
9.997472e+002, 4.205157e+003
1.000229e+003, 4.198581e+003
1.000711e+003, 4.207884e+003
1.001194e+003, 4.239356e+003
1.001676e+003, 4.260995e+003
1.002158e+003, 4.246684e+003
1.002640e+003, 4.233363e+003
1.003122e+003, 4.242240e+003
1.003604e+003, 4.262913e+003
1.004086e+003, 4.290303e+003
1.004568e+003, 4.318775e+003
1.005050e+003, 4.336802e+003
1.005533e+003, 4.341116e+003
1.006015e+003, 4.349122e+003
1.006497e+003, 4.380552e+003
1.006979e+003, 4.413819e+003
1.007461e+003, 4.424498e+003
1.007943e+003, 4.424847e+003
1.008425e+003, 4.434195e+003
1.008907e+003, 4.452441e+003
1.009390e+003, 4.467767e+003
1.009872e+003, 4.475262e+003
1.010354e+003, 4.485791e+003
1.010836e+003, 4.518582e+003
1.011318e+003, 4.555474e+003
1.011800e+003, 4.558018e+003
1.012282e+003, 4.542563e+003
1.012764e+003, 4.552179e+003
1.013246e+003, 4.589943e+003
1.013729e+003, 4.631322e+003
1.014211e+003, 4.663706e+003
1.014693e+003, 4.689144e+003
1.015175e+003, 4.709929e+003
1.015657e+003, 4.726103e+003
1.016139e+003, 4.734450e+003
1.016621e+003, 4.737593e+003
1.017103e+003, 4.750885e+003
1.017586e+003, 4.776456e+003
1.018068e+003, 4.799840e+003
1.018550e+003, 4.811683e+003
1.019032e+003, 4.819602e+003
1.019514e+003, 4.836721e+003
1.019996e+003, 4.861503e+003
1.020478e+003, 4.880970e+003
1.020960e+003, 4.895438e+003
1.021442e+003, 4.917259e+003
1.021925e+003, 4.949728e+003
1.022407e+003, 4.979779e+003
1.022889e+003, 4.997989e+003
1.023371e+003, 5.009015e+003
1.023853e+003, 5.020990e+003
1.024335e+003, 5.033836e+003
1.024817e+003, 5.054377e+003
1.025299e+003, 5.083813e+003
1.025781e+003, 5.111196e+003
1.026264e+003, 5.133399e+003
1.026746e+003, 5.155854e+003
1.027228e+003, 5.183507e+003
1.027710e+003, 5.212254e+003
1.028192e+003, 5.231039e+003
1.028674e+003, 5.237346e+003
1.029156e+003, 5.253818e+003
1.029638e+003, 5.284275e+003
1.030120e+003, 5.310603e+003
1.030603e+003, 5.323673e+003
1.031085e+003, 5.342364e+003
1.031567e+003, 5.384835e+003
1.032049e+003, 5.440576e+003
1.032531e+003, 5.481928e+003
1.033013e+003, 5.506708e+003
1.033495e+003, 5.527295e+003
1.033977e+003, 5.544844e+003
1.034460e+003, 5.554918e+003
1.034942e+003, 5.547861e+003
1.035424e+003, 5.545786e+003
1.035906e+003, 5.573227e+003
1.036388e+003, 5.616122e+003
1.036870e+003, 5.630843e+003
1.037352e+003, 5.600063e+003
1.037834e+003, 5.601856e+003
1.038317e+003, 5.662059e+003
1.038799e+003, 5.715253e+003
1.039281e+003, 5.744524e+003
1.039763e+003, 5.763843e+003
1.040245e+003, 5.777693e+003
1.040727e+003, 5.790657e+003
1.041209e+003, 5.817317e+003
1.041691e+003, 5.863609e+003
1.042173e+003, 5.904330e+003
1.042656e+003, 5.932169e+003
1.043138e+003, 5.964162e+003
1.043620e+003, 6.012315e+003
1.044102e+003, 6.058837e+003
1.044584e+003, 6.085182e+003
1.045066e+003, 6.100322e+003
1.045548e+003, 6.129833e+003
1.046030e+003, 6.182735e+003
1.046512e+003, 6.220427e+003
1.046995e+003, 6.218558e+003
1.047477e+003, 6.227757e+003
1.047959e+003, 6.275161e+003
1.048441e+003, 6.328145e+003
1.048923e+003, 6.359637e+003
1.049405e+003, 6.376545e+003
1.049887e+003, 6.398809e+003
1.050369e+003, 6.431033e+003
1.050852e+003, 6.456894e+003
1.051334e+003, 6.459009e+003
1.051816e+003, 6.473171e+003
1.052298e+003, 6.522734e+003
1.052780e+003, 6.579283e+003
1.053262e+003, 6.615214e+003
1.053744e+003, 6.641185e+003
1.054226e+003, 6.688384e+003
1.054708e+003, 6.766372e+003
1.055191e+003, 6.827780e+003
1.055673e+003, 6.854610e+003
1.056155e+003, 6.869604e+003
1.056637e+003, 6.867227e+003
1.057119e+003, 6.869553e+003
1.057601e+003, 6.895328e+003
1.058083e+003, 6.939466e+003
1.058565e+003, 6.989364e+003
1.059047e+003, 7.042362e+003
1.059530e+003, 7.101871e+003
1.060012e+003, 7.189066e+003
1.060494e+003, 7.256296e+003
1.060976e+003, 7.258991e+003
1.061458e+003, 7.255426e+003
1.061940e+003, 7.298742e+003
1.062422e+003, 7.371095e+003
1.062904e+003, 7.432585e+003
1.063387e+003, 7.475410e+003
1.063869e+003, 7.513385e+003
1.064351e+003, 7.543528e+003
1.064833e+003, 7.580573e+003
1.065315e+003, 7.643742e+003
1.065797e+003, 7.704921e+003
1.066279e+003, 7.732931e+003
1.066761e+003, 7.744767e+003
1.067244e+003, 7.774282e+003
1.067726e+003, 7.826461e+003
1.068208e+003, 7.874809e+003
1.068690e+003, 7.902093e+003
1.069172e+003, 7.932150e+003
1.069654e+003, 7.981469e+003
1.070136e+003, 8.032241e+003
1.070618e+003, 8.072598e+003
1.071100e+003, 8.102873e+003
1.071583e+003, 8.115949e+003
1.072065e+003, 8.116073e+003
1.072547e+003, 8.141713e+003
1.073029e+003, 8.224989e+003
1.073511e+003, 8.307495e+003
1.073993e+003, 8.354564e+003
1.074475e+003, 8.396979e+003
1.074957e+003, 8.457502e+003
1.075439e+003, 8.529505e+003
1.075922e+003, 8.605607e+003
1.076404e+003, 8.681908e+003
1.076886e+003, 8.748016e+003
1.077368e+003, 8.795176e+003
1.077850e+003, 8.842837e+003
1.078332e+003, 8.900404e+003
1.078814e+003, 8.962188e+003
1.079297e+003, 9.033560e+003
1.079779e+003, 9.100492e+003
1.080261e+003, 9.138866e+003
1.080743e+003, 9.153953e+003
1.081225e+003, 9.177460e+003
1.081707e+003, 9.223042e+003
1.082189e+003, 9.267486e+003
1.082671e+003, 9.292246e+003
1.083153e+003, 9.321164e+003
1.083635e+003, 9.378486e+003
1.084118e+003, 9.442027e+003
1.084600e+003, 9.483873e+003
1.085082e+003, 9.507682e+003
1.085564e+003, 9.532236e+003
1.086046e+003, 9.560644e+003
1.086528e+003, 9.602762e+003
1.087010e+003, 9.675452e+003
1.087492e+003, 9.747750e+003
1.087975e+003, 9.795019e+003
1.088457e+003, 9.839761e+003
1.088939e+003, 9.917560e+003
1.089421e+003, 1.001022e+004
1.089903e+003, 1.006411e+004
1.090385e+003, 1.006315e+004
1.090867e+003, 1.007658e+004
1.091349e+003, 1.013929e+004
1.091832e+003, 1.021097e+004
1.092314e+003, 1.027235e+004
1.092796e+003, 1.033529e+004
1.093278e+003, 1.041728e+004
1.093760e+003, 1.050561e+004
1.094242e+003, 1.057375e+004
1.094724e+003, 1.061743e+004
1.095206e+003, 1.066129e+004
1.095688e+003, 1.071257e+004
1.096171e+003, 1.076581e+004
1.096653e+003, 1.082298e+004
1.097135e+003, 1.087740e+004
1.097617e+003, 1.091356e+004
1.098099e+003, 1.095012e+004
1.098581e+003, 1.102499e+004
1.099063e+003, 1.113587e+004
1.099545e+003, 1.121786e+004
1.100027e+003, 1.122454e+004
1.100510e+003, 1.125428e+004
1.100992e+003, 1.135828e+004
1.101474e+003, 1.146192e+004
1.101956e+003, 1.151575e+004
1.102438e+003, 1.155362e+004
1.102920e+003, 1.162099e+004
1.103402e+003, 1.171211e+004
1.103884e+003, 1.178112e+004
1.104367e+003, 1.180070e+004
1.104849e+003, 1.184825e+004
1.105331e+003, 1.196391e+004
1.105813e+003, 1.207565e+004
1.106295e+003, 1.215338e+004
1.106777e+003, 1.221755e+004
1.107259e+003, 1.228121e+004
1.107741e+003, 1.234696e+004
1.108224e+003, 1.241989e+004
1.108706e+003, 1.250239e+004
1.109188e+003, 1.258235e+004
1.109670e+003, 1.266163e+004
1.110152e+003, 1.273394e+004
1.110634e+003, 1.279698e+004
1.111116e+003, 1.285387e+004
1.111598e+003, 1.289180e+004
1.112080e+003, 1.293096e+004
1.112563e+003, 1.301761e+004
1.113045e+003, 1.316075e+004
1.113527e+003, 1.327144e+004
1.114009e+003, 1.333222e+004
1.114491e+003, 1.338923e+004
1.114973e+003, 1.343218e+004
1.115455e+003, 1.349187e+004
1.115937e+003, 1.358639e+004
1.116419e+003, 1.370305e+004
1.116902e+003, 1.383530e+004
1.117384e+003, 1.397859e+004
1.117866e+003, 1.408022e+004
1.118348e+003, 1.411540e+004
1.118830e+003, 1.416616e+004
1.119312e+003, 1.423494e+004
1.119794e+003, 1.432076e+004
1.120276e+003, 1.443048e+004
1.120759e+003, 1.454495e+004
1.121241e+003, 1.464727e+004
1.121723e+003, 1.474036e+004
1.122205e+003, 1.483509e+004
1.122687e+003, 1.492999e+004
1.123169e+003, 1.503601e+004
1.123651e+003, 1.515914e+004
1.124133e+003, 1.527436e+004
1.124615e+003, 1.537488e+004
1.125098e+003, 1.546692e+004
1.125580e+003, 1.555115e+004
1.126062e+003, 1.563657e+004
1.126544e+003, 1.574115e+004
1.127026e+003, 1.586416e+004
1.127508e+003, 1.598994e+004
1.127990e+003, 1.612104e+004
1.128472e+003, 1.623044e+004
1.128954e+003, 1.631131e+004
1.129437e+003, 1.639014e+004
1.129919e+003, 1.647875e+004
1.130401e+003, 1.658071e+004
1.130883e+003, 1.670483e+004
1.131365e+003, 1.684325e+004
1.131847e+003, 1.696368e+004
1.132329e+003, 1.706767e+004
1.132811e+003, 1.717484e+004
1.133294e+003, 1.728747e+004
1.133776e+003, 1.742518e+004
1.134258e+003, 1.759469e+004
1.134740e+003, 1.774923e+004
1.135222e+003, 1.784621e+004
1.135704e+003, 1.791812e+004
1.136186e+003, 1.802843e+004
1.136668e+003, 1.816813e+004
1.137151e+003, 1.830164e+004
1.137633e+003, 1.842908e+004
1.138115e+003, 1.855371e+004
1.138597e+003, 1.867742e+004
1.139079e+003, 1.881553e+004
1.139561e+003, 1.897637e+004
1.140043e+003, 1.913714e+004
1.140525e+003, 1.926373e+004
1.141007e+003, 1.937620e+004
1.141490e+003, 1.950735e+004
1.141972e+003, 1.965541e+004
1.142454e+003, 1.981954e+004
1.142936e+003, 1.999766e+004
1.143418e+003, 2.018786e+004
1.143900e+003, 2.038697e+004
1.144382e+003, 2.057729e+004
1.144864e+003, 2.074243e+004
1.145346e+003, 2.089669e+004
1.145829e+003, 2.105503e+004
1.146311e+003, 2.121039e+004
1.146793e+003, 2.135083e+004
1.147275e+003, 2.148311e+004
1.147757e+003, 2.161710e+004
1.148239e+003, 2.175742e+004
1.148721e+003, 2.191033e+004
1.149203e+003, 2.207950e+004
1.149686e+003, 2.225855e+004
1.150168e+003, 2.245838e+004
1.150650e+003, 2.264907e+004
1.151132e+003, 2.278677e+004
1.151614e+003, 2.292154e+004
1.152096e+003, 2.311865e+004
1.152578e+003, 2.335896e+004
1.153060e+003, 2.358570e+004
1.153542e+003, 2.378510e+004
1.154025e+003, 2.397822e+004
1.154507e+003, 2.415058e+004
1.154989e+003, 2.434673e+004
1.155471e+003, 2.461856e+004
1.155953e+003, 2.487942e+004
1.156435e+003, 2.506289e+004
1.156917e+003, 2.520889e+004
1.157399e+003, 2.536369e+004
1.157881e+003, 2.553368e+004
1.158364e+003, 2.574317e+004
1.158846e+003, 2.602702e+004
1.159328e+003, 2.628824e+004
1.159810e+003, 2.651743e+004
1.160292e+003, 2.672588e+004
1.160774e+003, 2.688665e+004
1.161256e+003, 2.706041e+004
1.161738e+003, 2.730650e+004
1.162221e+003, 2.759496e+004
1.162703e+003, 2.785627e+004
1.163185e+003, 2.808904e+004
1.163667e+003, 2.830078e+004
1.164149e+003, 2.847524e+004
1.164631e+003, 2.867606e+004
1.165113e+003, 2.891688e+004
1.165595e+003, 2.917351e+004
1.166078e+003, 2.943870e+004
1.166560e+003, 2.970652e+004
1.167042e+003, 2.997432e+004
1.167524e+003, 3.023839e+004
1.168006e+003, 3.046782e+004
1.168488e+003, 3.066121e+004
1.168970e+003, 3.091237e+004
1.169452e+003, 3.122877e+004
1.169934e+003, 3.154313e+004
1.170417e+003, 3.183712e+004
1.170899e+003, 3.211720e+004
1.171381e+003, 3.238718e+004
1.171863e+003, 3.264589e+004
1.172345e+003, 3.287682e+004
1.172827e+003, 3.309785e+004
1.173309e+003, 3.337356e+004
1.173791e+003, 3.369548e+004
1.174273e+003, 3.404580e+004
1.174756e+003, 3.441140e+004
1.175238e+003, 3.475288e+004
1.175720e+003, 3.505687e+004
1.176202e+003, 3.534760e+004
1.176684e+003, 3.563363e+004
1.177166e+003, 3.594260e+004
1.177648e+003, 3.634200e+004
1.178130e+003, 3.676777e+004
1.178613e+003, 3.711228e+004
1.179095e+003, 3.741664e+004
1.179577e+003, 3.778735e+004
1.180059e+003, 3.822608e+004
1.180541e+003, 3.864516e+004
1.181023e+003, 3.900120e+004
1.181505e+003, 3.936298e+004
1.181987e+003, 3.978422e+004
1.182469e+003, 4.021385e+004
1.182952e+003, 4.061103e+004
1.183434e+003, 4.100673e+004
1.183916e+003, 4.143480e+004
1.184398e+003, 4.188506e+004
1.184880e+003, 4.231973e+004
1.185362e+003, 4.273575e+004
1.185844e+003, 4.320084e+004
1.186326e+003, 4.377659e+004
1.186808e+003, 4.432705e+004
1.187291e+003, 4.479546e+004
1.187773e+003, 4.527284e+004
1.188255e+003, 4.583229e+004
1.188737e+003, 4.639065e+004
1.189219e+003, 4.683632e+004
1.189701e+003, 4.722971e+004
1.190183e+003, 4.777068e+004
1.190665e+003, 4.849841e+004
1.191148e+003, 4.917709e+004
1.191630e+003, 4.978389e+004
1.192112e+003, 5.041553e+004
1.192594e+003, 5.109798e+004
1.193076e+003, 5.177354e+004
1.193558e+003, 5.239986e+004
1.194040e+003, 5.304190e+004
1.194522e+003, 5.378832e+004
1.195005e+003, 5.460630e+004
1.195487e+003, 5.534450e+004
1.195969e+003, 5.600483e+004
1.196451e+003, 5.674672e+004
1.196933e+003, 5.757622e+004
1.197415e+003, 5.844540e+004
1.197897e+003, 5.934239e+004
1.198379e+003, 6.022051e+004
1.198861e+003, 6.105732e+004
1.199344e+003, 6.187771e+004
1.199826e+003, 6.270093e+004
1.200308e+003, 6.355100e+004
1.200790e+003, 6.450193e+004
1.201272e+003, 6.551824e+004
1.201754e+003, 6.652283e+004
1.202236e+003, 6.752064e+004
1.202718e+003, 6.855144e+004
1.203200e+003, 6.963112e+004
1.203683e+003, 7.075030e+004
1.204165e+003, 7.191244e+004
1.204647e+003, 7.309090e+004
1.205129e+003, 7.423735e+004
1.205611e+003, 7.542364e+004
1.206093e+003, 7.674571e+004
1.206575e+003, 7.810311e+004
1.207057e+003, 7.932271e+004
1.207540e+003, 8.047015e+004
1.208022e+003, 8.178998e+004
1.208504e+003, 8.333702e+004
1.208986e+003, 8.488955e+004
1.209468e+003, 8.638423e+004
1.209950e+003, 8.790359e+004
1.210432e+003, 8.945738e+004
1.210914e+003, 9.105725e+004
1.211396e+003, 9.270865e+004
1.211879e+003, 9.441874e+004
1.212361e+003, 9.620296e+004
1.212843e+003, 9.805679e+004
1.213325e+003, 9.993909e+004
1.213807e+003, 1.018432e+005
1.214289e+003, 1.037758e+005
1.214771e+003, 1.057354e+005
1.215253e+003, 1.077196e+005
1.215735e+003, 1.097097e+005
1.216218e+003, 1.117474e+005
1.216700e+003, 1.138535e+005
1.217182e+003, 1.160295e+005
1.217664e+003, 1.183102e+005
1.218146e+003, 1.206680e+005
1.218628e+003, 1.230605e+005
1.219110e+003, 1.254821e+005
1.219592e+003, 1.279469e+005
1.220075e+003, 1.304521e+005
1.220557e+003, 1.330431e+005
1.221039e+003, 1.357100e+005
1.221521e+003, 1.383911e+005
1.222003e+003, 1.410406e+005
1.222485e+003, 1.437363e+005
1.222967e+003, 1.465387e+005
1.223449e+003, 1.494464e+005
1.223932e+003, 1.525460e+005
1.224414e+003, 1.556825e+005
1.224896e+003, 1.585938e+005
1.225378e+003, 1.614083e+005
1.225860e+003, 1.644067e+005
1.226342e+003, 1.676296e+005
1.226824e+003, 1.708315e+005
1.227306e+003, 1.739633e+005
1.227788e+003, 1.770104e+005
1.228271e+003, 1.797851e+005
1.228753e+003, 1.827351e+005
1.229235e+003, 1.862334e+005
1.229717e+003, 1.897905e+005
1.230199e+003, 1.929709e+005
1.230681e+003, 1.959394e+005
1.231163e+003, 1.990477e+005
1.231645e+003, 2.022855e+005
1.232127e+003, 2.054407e+005
1.232610e+003, 2.085223e+005
1.233092e+003, 2.114808e+005
1.233574e+003, 2.143130e+005
1.234056e+003, 2.170769e+005
1.234538e+003, 2.198016e+005
1.235020e+003, 2.224740e+005
1.235502e+003, 2.250843e+005
1.235984e+003, 2.275722e+005
1.236467e+003, 2.297456e+005
1.236949e+003, 2.316991e+005
1.237431e+003, 2.338598e+005
1.237913e+003, 2.361353e+005
1.238395e+003, 2.380760e+005
1.238877e+003, 2.396764e+005
1.239359e+003, 2.412007e+005
1.239841e+003, 2.427104e+005
1.240323e+003, 2.440631e+005
1.240806e+003, 2.451543e+005
1.241288e+003, 2.460898e+005
1.241770e+003, 2.469608e+005
1.242252e+003, 2.477317e+005
1.242734e+003, 2.484617e+005
1.243216e+003, 2.490016e+005
1.243698e+003, 2.491552e+005
1.244180e+003, 2.489768e+005
1.244662e+003, 2.485705e+005
1.245145e+003, 2.479709e+005
1.245627e+003, 2.473292e+005
1.246109e+003, 2.467912e+005
1.246591e+003, 2.460243e+005
1.247073e+003, 2.447416e+005
1.247555e+003, 2.435459e+005
1.248037e+003, 2.428520e+005
1.248519e+003, 2.420709e+005
1.249002e+003, 2.407758e+005
1.249484e+003, 2.391298e+005
1.249966e+003, 2.373843e+005
1.250448e+003, 2.355507e+005
1.250930e+003, 2.337884e+005
1.251412e+003, 2.321066e+005
1.251894e+003, 2.303980e+005
1.252376e+003, 2.286490e+005
1.252859e+003, 2.268423e+005
1.253341e+003, 2.249773e+005
1.253823e+003, 2.229234e+005
1.254305e+003, 2.205798e+005
1.254787e+003, 2.181363e+005
1.255269e+003, 2.158369e+005
1.255751e+003, 2.136355e+005
1.256233e+003, 2.114380e+005
1.256715e+003, 2.092402e+005
1.257198e+003, 2.069855e+005
1.257680e+003, 2.047090e+005
1.258162e+003, 2.025185e+005
1.258644e+003, 2.004084e+005
1.259126e+003, 1.982325e+005
1.259608e+003, 1.959187e+005
1.260090e+003, 1.936010e+005
1.260572e+003, 1.913452e+005
1.261054e+003, 1.890980e+005
1.261537e+003, 1.867919e+005
1.262019e+003, 1.845420e+005
1.262501e+003, 1.824608e+005
1.262983e+003, 1.804706e+005
1.263465e+003, 1.784390e+005
1.263947e+003, 1.763773e+005
1.264429e+003, 1.742966e+005
1.264911e+003, 1.721750e+005
1.265394e+003, 1.701333e+005
1.265876e+003, 1.681736e+005
1.266358e+003, 1.662898e+005
1.266840e+003, 1.644951e+005
1.267322e+003, 1.626853e+005
1.267804e+003, 1.607889e+005
1.268286e+003, 1.589245e+005
1.268768e+003, 1.572520e+005
1.269250e+003, 1.556993e+005
1.269733e+003, 1.541397e+005
1.270215e+003, 1.525572e+005
1.270697e+003, 1.508462e+005
1.271179e+003, 1.490842e+005
1.271661e+003, 1.474661e+005
1.272143e+003, 1.460089e+005
1.272625e+003, 1.446441e+005
1.273107e+003, 1.433459e+005
1.273589e+003, 1.420030e+005
1.274072e+003, 1.404917e+005
1.274554e+003, 1.390108e+005
1.275036e+003, 1.376446e+005
1.275518e+003, 1.363571e+005
1.276000e+003, 1.351447e+005
1.276482e+003, 1.339842e+005
1.276964e+003, 1.328692e+005
1.277446e+003, 1.318070e+005
1.277929e+003, 1.307790e+005
1.278411e+003, 1.297824e+005
1.278893e+003, 1.288598e+005
1.279375e+003, 1.280428e+005
1.279857e+003, 1.271890e+005
1.280339e+003, 1.262722e+005
1.280821e+003, 1.254041e+005
1.281303e+003, 1.246317e+005
1.281786e+003, 1.239563e+005
1.282268e+003, 1.233599e+005
##END=



