##NAMES=Tundrite-(Ce)
##RRUFFID=R130564
##IDEAL CHEMISTRY=Na_2_Ce^3+^_2_Ti^4+^O_2_SiO_4_(CO_3_)_2_
##LOCALITY=Ilimaussaq complex, Narsaq, Kitaa, Greenland
##OWNER=RRUFF
##SOURCE=Rock Currier
##DESCRIPTION=Aggregates of acicular or bladed yellow crystals associated with albite and aegirine
##STATUS=The identification of this mineral has been confirmed only by single crystal X-ray diffraction.
##URL=rruff.info/R130564
8.806445e+001, 1.229453e+003
8.854657e+001, 1.203978e+003
8.902869e+001, 1.195185e+003
8.951080e+001, 1.211208e+003
8.999292e+001, 1.240220e+003
9.047504e+001, 1.271672e+003
9.095715e+001, 1.303644e+003
9.143927e+001, 1.334847e+003
9.192139e+001, 1.363226e+003
9.240350e+001, 1.388771e+003
9.288562e+001, 1.414199e+003
9.336774e+001, 1.430859e+003
9.384985e+001, 1.429667e+003
9.433197e+001, 1.411911e+003
9.481409e+001, 1.398929e+003
9.529620e+001, 1.383297e+003
9.577832e+001, 1.367185e+003
9.626044e+001, 1.351069e+003
9.674255e+001, 1.336984e+003
9.722467e+001, 1.327276e+003
9.770679e+001, 1.322343e+003
9.818890e+001, 1.319117e+003
9.867102e+001, 1.317025e+003
9.915314e+001, 1.315763e+003
9.963525e+001, 1.315149e+003
1.001174e+002, 1.315071e+003
1.005995e+002, 1.315321e+003
1.010816e+002, 1.315339e+003
1.015637e+002, 1.312427e+003
1.020458e+002, 1.312046e+003
1.025280e+002, 1.313764e+003
1.030101e+002, 1.318079e+003
1.034922e+002, 1.326365e+003
1.039743e+002, 1.340043e+003
1.044564e+002, 1.359094e+003
1.049385e+002, 1.374040e+003
1.054207e+002, 1.385170e+003
1.059028e+002, 1.393067e+003
1.063849e+002, 1.397205e+003
1.068670e+002, 1.397823e+003
1.073491e+002, 1.396771e+003
1.078312e+002, 1.395049e+003
1.083134e+002, 1.392763e+003
1.087955e+002, 1.391929e+003
1.092776e+002, 1.394938e+003
1.097597e+002, 1.398908e+003
1.102418e+002, 1.399298e+003
1.107239e+002, 1.394549e+003
1.112061e+002, 1.388274e+003
1.116882e+002, 1.383484e+003
1.121703e+002, 1.379921e+003
1.126524e+002, 1.376979e+003
1.131345e+002, 1.375075e+003
1.136166e+002, 1.374038e+003
1.140988e+002, 1.371030e+003
1.145809e+002, 1.363937e+003
1.150630e+002, 1.356077e+003
1.155451e+002, 1.349355e+003
1.160272e+002, 1.343812e+003
1.165093e+002, 1.338368e+003
1.169915e+002, 1.331179e+003
1.174736e+002, 1.320475e+003
1.179557e+002, 1.312830e+003
1.184378e+002, 1.308766e+003
1.189199e+002, 1.307174e+003
1.194020e+002, 1.307909e+003
1.198842e+002, 1.310768e+003
1.203663e+002, 1.314848e+003
1.208484e+002, 1.318137e+003
1.213305e+002, 1.320006e+003
1.218126e+002, 1.321615e+003
1.222947e+002, 1.323260e+003
1.227769e+002, 1.324583e+003
1.232590e+002, 1.324957e+003
1.237411e+002, 1.323954e+003
1.242232e+002, 1.321977e+003
1.247053e+002, 1.320913e+003
1.251874e+002, 1.321015e+003
1.256696e+002, 1.321498e+003
1.261517e+002, 1.322303e+003
1.266338e+002, 1.323339e+003
1.271159e+002, 1.324300e+003
1.275980e+002, 1.325211e+003
1.280801e+002, 1.325777e+003
1.285623e+002, 1.325385e+003
1.290444e+002, 1.323570e+003
1.295265e+002, 1.321101e+003
1.300086e+002, 1.318583e+003
1.304907e+002, 1.315982e+003
1.309728e+002, 1.313552e+003
1.314550e+002, 1.311616e+003
1.319371e+002, 1.309925e+003
1.324192e+002, 1.308136e+003
1.329013e+002, 1.305768e+003
1.333834e+002, 1.303257e+003
1.338655e+002, 1.301972e+003
1.343477e+002, 1.302555e+003
1.348298e+002, 1.303547e+003
1.353119e+002, 1.304675e+003
1.357940e+002, 1.305711e+003
1.362761e+002, 1.306235e+003
1.367582e+002, 1.305775e+003
1.372404e+002, 1.304297e+003
1.377225e+002, 1.303350e+003
1.382046e+002, 1.303141e+003
1.386867e+002, 1.303340e+003
1.391688e+002, 1.304157e+003
1.396509e+002, 1.305395e+003
1.401331e+002, 1.306609e+003
1.406152e+002, 1.307467e+003
1.410973e+002, 1.308267e+003
1.415794e+002, 1.307325e+003
1.420615e+002, 1.303136e+003
1.425436e+002, 1.298692e+003
1.430258e+002, 1.295490e+003
1.435079e+002, 1.293911e+003
1.439900e+002, 1.293797e+003
1.444721e+002, 1.295090e+003
1.449542e+002, 1.298506e+003
1.454363e+002, 1.301630e+003
1.459185e+002, 1.304326e+003
1.464006e+002, 1.306715e+003
1.468827e+002, 1.308843e+003
1.473648e+002, 1.310666e+003
1.478469e+002, 1.312446e+003
1.483290e+002, 1.314486e+003
1.488112e+002, 1.316602e+003
1.492933e+002, 1.319504e+003
1.497754e+002, 1.324654e+003
1.502575e+002, 1.330959e+003
1.507396e+002, 1.335037e+003
1.512217e+002, 1.334886e+003
1.517039e+002, 1.333130e+003
1.521860e+002, 1.332913e+003
1.526681e+002, 1.334267e+003
1.531502e+002, 1.336843e+003
1.536323e+002, 1.340812e+003
1.541144e+002, 1.346215e+003
1.545966e+002, 1.351507e+003
1.550787e+002, 1.357507e+003
1.555608e+002, 1.362353e+003
1.560429e+002, 1.363870e+003
1.565250e+002, 1.361522e+003
1.570071e+002, 1.358327e+003
1.574893e+002, 1.358891e+003
1.579714e+002, 1.365044e+003
1.584535e+002, 1.370058e+003
1.589356e+002, 1.372296e+003
1.594177e+002, 1.373341e+003
1.598998e+002, 1.374437e+003
1.603820e+002, 1.376045e+003
1.608641e+002, 1.377602e+003
1.613462e+002, 1.377584e+003
1.618283e+002, 1.373379e+003
1.623104e+002, 1.371346e+003
1.627925e+002, 1.372934e+003
1.632747e+002, 1.376500e+003
1.637568e+002, 1.380423e+003
1.642389e+002, 1.383887e+003
1.647210e+002, 1.387011e+003
1.652031e+002, 1.390240e+003
1.656852e+002, 1.392974e+003
1.661674e+002, 1.396523e+003
1.666495e+002, 1.401057e+003
1.671316e+002, 1.406574e+003
1.676137e+002, 1.413382e+003
1.680958e+002, 1.422047e+003
1.685779e+002, 1.431867e+003
1.690601e+002, 1.438474e+003
1.695422e+002, 1.437961e+003
1.700243e+002, 1.438868e+003
1.705064e+002, 1.446358e+003
1.709885e+002, 1.458844e+003
1.714706e+002, 1.469657e+003
1.719528e+002, 1.473627e+003
1.724349e+002, 1.472725e+003
1.729170e+002, 1.476241e+003
1.733991e+002, 1.487116e+003
1.738812e+002, 1.500010e+003
1.743633e+002, 1.511777e+003
1.748455e+002, 1.522453e+003
1.753276e+002, 1.530953e+003
1.758097e+002, 1.534539e+003
1.762918e+002, 1.535878e+003
1.767739e+002, 1.539691e+003
1.772560e+002, 1.547198e+003
1.777382e+002, 1.557436e+003
1.782203e+002, 1.569913e+003
1.787024e+002, 1.585676e+003
1.791845e+002, 1.600060e+003
1.796666e+002, 1.609810e+003
1.801487e+002, 1.616895e+003
1.806309e+002, 1.623525e+003
1.811130e+002, 1.630557e+003
1.815951e+002, 1.637805e+003
1.820772e+002, 1.644592e+003
1.825593e+002, 1.649562e+003
1.830414e+002, 1.656491e+003
1.835236e+002, 1.667919e+003
1.840057e+002, 1.681528e+003
1.844878e+002, 1.694105e+003
1.849699e+002, 1.703754e+003
1.854520e+002, 1.710799e+003
1.859341e+002, 1.717192e+003
1.864163e+002, 1.720093e+003
1.868984e+002, 1.725708e+003
1.873805e+002, 1.738622e+003
1.878626e+002, 1.755002e+003
1.883447e+002, 1.768097e+003
1.888268e+002, 1.772735e+003
1.893090e+002, 1.769248e+003
1.897911e+002, 1.769823e+003
1.902732e+002, 1.778220e+003
1.907553e+002, 1.786865e+003
1.912374e+002, 1.794244e+003
1.917195e+002, 1.800294e+003
1.922017e+002, 1.805396e+003
1.926838e+002, 1.809749e+003
1.931659e+002, 1.813352e+003
1.936480e+002, 1.817116e+003
1.941301e+002, 1.820362e+003
1.946122e+002, 1.824348e+003
1.950944e+002, 1.830476e+003
1.955765e+002, 1.838089e+003
1.960586e+002, 1.844724e+003
1.965407e+002, 1.847789e+003
1.970228e+002, 1.847181e+003
1.975049e+002, 1.850961e+003
1.979871e+002, 1.864753e+003
1.984692e+002, 1.877889e+003
1.989513e+002, 1.882223e+003
1.994334e+002, 1.878168e+003
1.999155e+002, 1.873843e+003
2.003976e+002, 1.876288e+003
2.008798e+002, 1.885035e+003
2.013619e+002, 1.890744e+003
2.018440e+002, 1.891001e+003
2.023261e+002, 1.889416e+003
2.028082e+002, 1.888950e+003
2.032903e+002, 1.889795e+003
2.037725e+002, 1.891164e+003
2.042546e+002, 1.892182e+003
2.047367e+002, 1.893270e+003
2.052188e+002, 1.895678e+003
2.057009e+002, 1.901117e+003
2.061830e+002, 1.907411e+003
2.066652e+002, 1.911236e+003
2.071473e+002, 1.911903e+003
2.076294e+002, 1.912700e+003
2.081115e+002, 1.917502e+003
2.085936e+002, 1.923788e+003
2.090757e+002, 1.927249e+003
2.095579e+002, 1.923629e+003
2.100400e+002, 1.917259e+003
2.105221e+002, 1.917776e+003
2.110042e+002, 1.928423e+003
2.114863e+002, 1.938650e+003
2.119685e+002, 1.942537e+003
2.124506e+002, 1.942829e+003
2.129327e+002, 1.943177e+003
2.134148e+002, 1.944921e+003
2.138969e+002, 1.948120e+003
2.143790e+002, 1.952979e+003
2.148612e+002, 1.959835e+003
2.153433e+002, 1.968068e+003
2.158254e+002, 1.979865e+003
2.163075e+002, 1.992113e+003
2.167896e+002, 1.999964e+003
2.172717e+002, 1.999571e+003
2.177539e+002, 1.993542e+003
2.182360e+002, 1.993815e+003
2.187181e+002, 2.005738e+003
2.192002e+002, 2.017373e+003
2.196823e+002, 2.025887e+003
2.201644e+002, 2.032295e+003
2.206466e+002, 2.037677e+003
2.211287e+002, 2.042345e+003
2.216108e+002, 2.046920e+003
2.220929e+002, 2.054968e+003
2.225750e+002, 2.069569e+003
2.230571e+002, 2.084642e+003
2.235393e+002, 2.099680e+003
2.240214e+002, 2.114385e+003
2.245035e+002, 2.128421e+003
2.249856e+002, 2.141492e+003
2.254677e+002, 2.153758e+003
2.259498e+002, 2.166055e+003
2.264320e+002, 2.177297e+003
2.269141e+002, 2.189821e+003
2.273962e+002, 2.204433e+003
2.278783e+002, 2.220540e+003
2.283604e+002, 2.237729e+003
2.288425e+002, 2.255967e+003
2.293247e+002, 2.274652e+003
2.298068e+002, 2.290387e+003
2.302889e+002, 2.297960e+003
2.307710e+002, 2.308674e+003
2.312531e+002, 2.326043e+003
2.317352e+002, 2.348028e+003
2.322174e+002, 2.371083e+003
2.326995e+002, 2.393348e+003
2.331816e+002, 2.415191e+003
2.336637e+002, 2.438333e+003
2.341458e+002, 2.464330e+003
2.346279e+002, 2.489597e+003
2.351101e+002, 2.512286e+003
2.355922e+002, 2.533640e+003
2.360743e+002, 2.556250e+003
2.365564e+002, 2.581322e+003
2.370385e+002, 2.608302e+003
2.375206e+002, 2.634578e+003
2.380028e+002, 2.658556e+003
2.384849e+002, 2.684465e+003
2.389670e+002, 2.715923e+003
2.394491e+002, 2.750253e+003
2.399312e+002, 2.781856e+003
2.404133e+002, 2.807987e+003
2.408955e+002, 2.829978e+003
2.413776e+002, 2.850229e+003
2.418597e+002, 2.866185e+003
2.423418e+002, 2.886337e+003
2.428239e+002, 2.917380e+003
2.433060e+002, 2.955614e+003
2.437882e+002, 2.991056e+003
2.442703e+002, 3.019691e+003
2.447524e+002, 3.044329e+003
2.452345e+002, 3.069099e+003
2.457166e+002, 3.093554e+003
2.461987e+002, 3.119413e+003
2.466809e+002, 3.147946e+003
2.471630e+002, 3.178558e+003
2.476451e+002, 3.209867e+003
2.481272e+002, 3.241858e+003
2.486093e+002, 3.273397e+003
2.490914e+002, 3.303014e+003
2.495736e+002, 3.330503e+003
2.500557e+002, 3.357956e+003
2.505378e+002, 3.386197e+003
2.510199e+002, 3.415157e+003
2.515020e+002, 3.445068e+003
2.519841e+002, 3.477362e+003
2.524663e+002, 3.508673e+003
2.529484e+002, 3.536688e+003
2.534305e+002, 3.561488e+003
2.539126e+002, 3.584568e+003
2.543947e+002, 3.603945e+003
2.548768e+002, 3.621480e+003
2.553590e+002, 3.646215e+003
2.558411e+002, 3.683038e+003
2.563232e+002, 3.722325e+003
2.568053e+002, 3.758458e+003
2.572874e+002, 3.791526e+003
2.577695e+002, 3.821830e+003
2.582516e+002, 3.848193e+003
2.587338e+002, 3.871588e+003
2.592159e+002, 3.895920e+003
2.596980e+002, 3.919917e+003
2.601801e+002, 3.947384e+003
2.606622e+002, 3.982315e+003
2.611443e+002, 4.021747e+003
2.616265e+002, 4.059092e+003
2.621086e+002, 4.088990e+003
2.625907e+002, 4.113440e+003
2.630728e+002, 4.141130e+003
2.635549e+002, 4.173909e+003
2.640370e+002, 4.207405e+003
2.645192e+002, 4.239600e+003
2.650013e+002, 4.271180e+003
2.654834e+002, 4.303381e+003
2.659655e+002, 4.337216e+003
2.664476e+002, 4.372058e+003
2.669297e+002, 4.406335e+003
2.674119e+002, 4.439981e+003
2.678940e+002, 4.472884e+003
2.683761e+002, 4.501794e+003
2.688582e+002, 4.530947e+003
2.693403e+002, 4.566580e+003
2.698224e+002, 4.612413e+003
2.703046e+002, 4.664377e+003
2.707867e+002, 4.711248e+003
2.712688e+002, 4.750685e+003
2.717509e+002, 4.788750e+003
2.722330e+002, 4.824625e+003
2.727151e+002, 4.861064e+003
2.731973e+002, 4.901357e+003
2.736794e+002, 4.946924e+003
2.741615e+002, 4.995819e+003
2.746436e+002, 5.044602e+003
2.751257e+002, 5.093408e+003
2.756078e+002, 5.141796e+003
2.760900e+002, 5.190884e+003
2.765721e+002, 5.238808e+003
2.770542e+002, 5.281901e+003
2.775363e+002, 5.319706e+003
2.780184e+002, 5.357452e+003
2.785005e+002, 5.404680e+003
2.789827e+002, 5.467753e+003
2.794648e+002, 5.526136e+003
2.799469e+002, 5.578919e+003
2.804290e+002, 5.627592e+003
2.809111e+002, 5.672313e+003
2.813932e+002, 5.713411e+003
2.818754e+002, 5.751744e+003
2.823575e+002, 5.787907e+003
2.828396e+002, 5.820384e+003
2.833217e+002, 5.855045e+003
2.838038e+002, 5.895133e+003
2.842859e+002, 5.934485e+003
2.847681e+002, 5.970315e+003
2.852502e+002, 6.002176e+003
2.857323e+002, 6.030305e+003
2.862144e+002, 6.054487e+003
2.866965e+002, 6.073943e+003
2.871786e+002, 6.094063e+003
2.876608e+002, 6.116564e+003
2.881429e+002, 6.138170e+003
2.886250e+002, 6.158194e+003
2.891071e+002, 6.176230e+003
2.895892e+002, 6.192000e+003
2.900714e+002, 6.205532e+003
2.905535e+002, 6.216817e+003
2.910356e+002, 6.223667e+003
2.915177e+002, 6.220157e+003
2.919998e+002, 6.218476e+003
2.924819e+002, 6.221874e+003
2.929641e+002, 6.229589e+003
2.934462e+002, 6.240413e+003
2.939283e+002, 6.254159e+003
2.944104e+002, 6.269645e+003
2.948925e+002, 6.279254e+003
2.953746e+002, 6.278790e+003
2.958568e+002, 6.276638e+003
2.963389e+002, 6.270789e+003
2.968210e+002, 6.264694e+003
2.973031e+002, 6.263411e+003
2.977852e+002, 6.269436e+003
2.982673e+002, 6.280173e+003
2.987495e+002, 6.287876e+003
2.992316e+002, 6.290356e+003
2.997137e+002, 6.292169e+003
3.001958e+002, 6.293603e+003
3.006779e+002, 6.294392e+003
3.011600e+002, 6.294654e+003
3.016422e+002, 6.294330e+003
3.021243e+002, 6.292497e+003
3.026064e+002, 6.287050e+003
3.030885e+002, 6.272178e+003
3.035706e+002, 6.264364e+003
3.040527e+002, 6.270499e+003
3.045349e+002, 6.278480e+003
3.050170e+002, 6.277627e+003
3.054991e+002, 6.266960e+003
3.059812e+002, 6.254969e+003
3.064633e+002, 6.252869e+003
3.069454e+002, 6.265959e+003
3.074276e+002, 6.270231e+003
3.079097e+002, 6.260611e+003
3.083918e+002, 6.248205e+003
3.088739e+002, 6.236462e+003
3.093560e+002, 6.227053e+003
3.098381e+002, 6.223046e+003
3.103203e+002, 6.228389e+003
3.108024e+002, 6.244317e+003
3.112845e+002, 6.249456e+003
3.117666e+002, 6.236645e+003
3.122487e+002, 6.222139e+003
3.127308e+002, 6.209333e+003
3.132130e+002, 6.199200e+003
3.136951e+002, 6.193712e+003
3.141772e+002, 6.194917e+003
3.146593e+002, 6.200725e+003
3.151414e+002, 6.196473e+003
3.156235e+002, 6.172194e+003
3.161057e+002, 6.149164e+003
3.165878e+002, 6.132165e+003
3.170699e+002, 6.117969e+003
3.175520e+002, 6.102249e+003
3.180341e+002, 6.083091e+003
3.185162e+002, 6.061030e+003
3.189984e+002, 6.037516e+003
3.194805e+002, 6.005987e+003
3.199626e+002, 5.982135e+003
3.204447e+002, 5.975073e+003
3.209268e+002, 5.970815e+003
3.214089e+002, 5.955941e+003
3.218911e+002, 5.927116e+003
3.223732e+002, 5.891431e+003
3.228553e+002, 5.858735e+003
3.233374e+002, 5.830241e+003
3.238195e+002, 5.802610e+003
3.243016e+002, 5.775315e+003
3.247838e+002, 5.749334e+003
3.252659e+002, 5.727002e+003
3.257480e+002, 5.707344e+003
3.262301e+002, 5.686309e+003
3.267122e+002, 5.659344e+003
3.271943e+002, 5.625521e+003
3.276765e+002, 5.594194e+003
3.281586e+002, 5.567789e+003
3.286407e+002, 5.541159e+003
3.291228e+002, 5.510120e+003
3.296049e+002, 5.477150e+003
3.300870e+002, 5.448650e+003
3.305692e+002, 5.429710e+003
3.310513e+002, 5.418180e+003
3.315334e+002, 5.397966e+003
3.320155e+002, 5.357339e+003
3.324976e+002, 5.320596e+003
3.329797e+002, 5.293892e+003
3.334619e+002, 5.272213e+003
3.339440e+002, 5.248563e+003
3.344261e+002, 5.219772e+003
3.349082e+002, 5.188795e+003
3.353904e+002, 5.162380e+003
3.358725e+002, 5.143777e+003
3.363546e+002, 5.125360e+003
3.368367e+002, 5.109174e+003
3.373188e+002, 5.091654e+003
3.378009e+002, 5.068724e+003
3.382831e+002, 5.040176e+003
3.387652e+002, 5.010334e+003
3.392473e+002, 4.985508e+003
3.397294e+002, 4.967905e+003
3.402115e+002, 4.948096e+003
3.406936e+002, 4.924026e+003
3.411758e+002, 4.899814e+003
3.416579e+002, 4.878129e+003
3.421400e+002, 4.858263e+003
3.426221e+002, 4.837335e+003
3.431042e+002, 4.812130e+003
3.435863e+002, 4.782646e+003
3.440685e+002, 4.758912e+003
3.445506e+002, 4.745548e+003
3.450327e+002, 4.733865e+003
3.455148e+002, 4.725226e+003
3.459969e+002, 4.716499e+003
3.464790e+002, 4.702517e+003
3.469612e+002, 4.679925e+003
3.474433e+002, 4.652202e+003
3.479254e+002, 4.630030e+003
3.484075e+002, 4.616877e+003
3.488896e+002, 4.604296e+003
3.493717e+002, 4.589791e+003
3.498539e+002, 4.576003e+003
3.503360e+002, 4.565792e+003
3.508181e+002, 4.559917e+003
3.513002e+002, 4.555653e+003
3.517823e+002, 4.548715e+003
3.522644e+002, 4.537870e+003
3.527466e+002, 4.528456e+003
3.532287e+002, 4.521755e+003
3.537108e+002, 4.515686e+003
3.541929e+002, 4.509478e+003
3.546750e+002, 4.502963e+003
3.551571e+002, 4.496026e+003
3.556393e+002, 4.487790e+003
3.561214e+002, 4.478264e+003
3.566035e+002, 4.472875e+003
3.570856e+002, 4.475970e+003
3.575677e+002, 4.478217e+003
3.580498e+002, 4.475612e+003
3.585320e+002, 4.470022e+003
3.590141e+002, 4.464591e+003
3.594962e+002, 4.460757e+003
3.599783e+002, 4.458548e+003
3.604604e+002, 4.458665e+003
3.609425e+002, 4.462909e+003
3.614247e+002, 4.465178e+003
3.619068e+002, 4.458845e+003
3.623889e+002, 4.452360e+003
3.628710e+002, 4.454803e+003
3.633531e+002, 4.468859e+003
3.638352e+002, 4.486136e+003
3.643174e+002, 4.496659e+003
3.647995e+002, 4.499820e+003
3.652816e+002, 4.502376e+003
3.657637e+002, 4.504621e+003
3.662458e+002, 4.507327e+003
3.667279e+002, 4.510294e+003
3.672101e+002, 4.513844e+003
3.676922e+002, 4.519550e+003
3.681743e+002, 4.531471e+003
3.686564e+002, 4.547239e+003
3.691385e+002, 4.554456e+003
3.696206e+002, 4.547458e+003
3.701028e+002, 4.542199e+003
3.705849e+002, 4.550087e+003
3.710670e+002, 4.565907e+003
3.715491e+002, 4.580603e+003
3.720312e+002, 4.590442e+003
3.725133e+002, 4.598333e+003
3.729955e+002, 4.608893e+003
3.734776e+002, 4.622459e+003
3.739597e+002, 4.634899e+003
3.744418e+002, 4.641272e+003
3.749239e+002, 4.647718e+003
3.754060e+002, 4.664104e+003
3.758882e+002, 4.694521e+003
3.763703e+002, 4.720796e+003
3.768524e+002, 4.724135e+003
3.773345e+002, 4.711183e+003
3.778166e+002, 4.710983e+003
3.782987e+002, 4.734456e+003
3.787809e+002, 4.764376e+003
3.792630e+002, 4.781516e+003
3.797451e+002, 4.787559e+003
3.802272e+002, 4.792965e+003
3.807093e+002, 4.799274e+003
3.811914e+002, 4.807651e+003
3.816736e+002, 4.820420e+003
3.821557e+002, 4.837804e+003
3.826378e+002, 4.856325e+003
3.831199e+002, 4.873940e+003
3.836020e+002, 4.890565e+003
3.840841e+002, 4.906376e+003
3.845663e+002, 4.921402e+003
3.850484e+002, 4.935647e+003
3.855305e+002, 4.949962e+003
3.860126e+002, 4.963625e+003
3.864947e+002, 4.973912e+003
3.869768e+002, 4.978943e+003
3.874590e+002, 4.981479e+003
3.879411e+002, 4.986816e+003
3.884232e+002, 4.993624e+003
3.889053e+002, 5.005765e+003
3.893874e+002, 5.030216e+003
3.898695e+002, 5.057436e+003
3.903517e+002, 5.076778e+003
3.908338e+002, 5.086327e+003
3.913159e+002, 5.089269e+003
3.917980e+002, 5.087316e+003
3.922801e+002, 5.079229e+003
3.927622e+002, 5.079646e+003
3.932444e+002, 5.095900e+003
3.937265e+002, 5.112888e+003
3.942086e+002, 5.121845e+003
3.946907e+002, 5.125062e+003
3.951728e+002, 5.129977e+003
3.956549e+002, 5.141042e+003
3.961371e+002, 5.156585e+003
3.966192e+002, 5.169529e+003
3.971013e+002, 5.178906e+003
3.975834e+002, 5.186744e+003
3.980655e+002, 5.192264e+003
3.985476e+002, 5.196723e+003
3.990298e+002, 5.200611e+003
3.995119e+002, 5.204337e+003
3.999940e+002, 5.209385e+003
4.004761e+002, 5.217864e+003
4.009582e+002, 5.230507e+003
4.014403e+002, 5.244110e+003
4.019225e+002, 5.260256e+003
4.024046e+002, 5.275717e+003
4.028867e+002, 5.289588e+003
4.033688e+002, 5.301512e+003
4.038509e+002, 5.311179e+003
4.043330e+002, 5.318272e+003
4.048152e+002, 5.323057e+003
4.052973e+002, 5.326992e+003
4.057794e+002, 5.329009e+003
4.062615e+002, 5.331782e+003
4.067436e+002, 5.335426e+003
4.072257e+002, 5.340154e+003
4.077079e+002, 5.345927e+003
4.081900e+002, 5.352790e+003
4.086721e+002, 5.361307e+003
4.091542e+002, 5.373231e+003
4.096363e+002, 5.389808e+003
4.101184e+002, 5.403252e+003
4.106006e+002, 5.410446e+003
4.110827e+002, 5.416306e+003
4.115648e+002, 5.423479e+003
4.120469e+002, 5.431585e+003
4.125290e+002, 5.438716e+003
4.130111e+002, 5.443854e+003
4.134933e+002, 5.447086e+003
4.139754e+002, 5.447440e+003
4.144575e+002, 5.442298e+003
4.149396e+002, 5.441362e+003
4.154217e+002, 5.453665e+003
4.159038e+002, 5.471175e+003
4.163860e+002, 5.484616e+003
4.168681e+002, 5.491204e+003
4.173502e+002, 5.495882e+003
4.178323e+002, 5.502494e+003
4.183144e+002, 5.511035e+003
4.187965e+002, 5.522085e+003
4.192787e+002, 5.538493e+003
4.197608e+002, 5.553467e+003
4.202429e+002, 5.558196e+003
4.207250e+002, 5.553585e+003
4.212071e+002, 5.549831e+003
4.216892e+002, 5.552524e+003
4.221714e+002, 5.557058e+003
4.226535e+002, 5.555124e+003
4.231356e+002, 5.546094e+003
4.236177e+002, 5.541462e+003
4.240998e+002, 5.551737e+003
4.245819e+002, 5.572345e+003
4.250641e+002, 5.582517e+003
4.255462e+002, 5.574235e+003
4.260283e+002, 5.565939e+003
4.265104e+002, 5.567784e+003
4.269925e+002, 5.574898e+003
4.274746e+002, 5.577358e+003
4.279568e+002, 5.571603e+003
4.284389e+002, 5.562294e+003
4.289210e+002, 5.556347e+003
4.294031e+002, 5.555350e+003
4.298852e+002, 5.553613e+003
4.303673e+002, 5.552763e+003
4.308495e+002, 5.549887e+003
4.313316e+002, 5.542018e+003
4.318137e+002, 5.529920e+003
4.322958e+002, 5.517057e+003
4.327779e+002, 5.505887e+003
4.332600e+002, 5.496080e+003
4.337422e+002, 5.485222e+003
4.342243e+002, 5.467874e+003
4.347064e+002, 5.456036e+003
4.351885e+002, 5.456718e+003
4.356706e+002, 5.461063e+003
4.361527e+002, 5.459570e+003
4.366349e+002, 5.449428e+003
4.371170e+002, 5.434460e+003
4.375991e+002, 5.419270e+003
4.380812e+002, 5.402846e+003
4.385633e+002, 5.389968e+003
4.390454e+002, 5.387491e+003
4.395276e+002, 5.382196e+003
4.400097e+002, 5.368189e+003
4.404918e+002, 5.347172e+003
4.409739e+002, 5.323168e+003
4.414560e+002, 5.297867e+003
4.419381e+002, 5.272438e+003
4.424203e+002, 5.249886e+003
4.429024e+002, 5.230607e+003
4.433845e+002, 5.213558e+003
4.438666e+002, 5.202353e+003
4.443487e+002, 5.190938e+003
4.448308e+002, 5.172911e+003
4.453130e+002, 5.147269e+003
4.457951e+002, 5.121614e+003
4.462772e+002, 5.102610e+003
4.467593e+002, 5.089188e+003
4.472414e+002, 5.076683e+003
4.477235e+002, 5.066126e+003
4.482057e+002, 5.053293e+003
4.486878e+002, 5.031740e+003
4.491699e+002, 5.005250e+003
4.496520e+002, 4.983478e+003
4.501341e+002, 4.973312e+003
4.506162e+002, 4.964543e+003
4.510984e+002, 4.945012e+003
4.515805e+002, 4.916935e+003
4.520626e+002, 4.895397e+003
4.525447e+002, 4.889070e+003
4.530268e+002, 4.888737e+003
4.535089e+002, 4.874628e+003
4.539911e+002, 4.842755e+003
4.544732e+002, 4.818604e+003
4.549553e+002, 4.816047e+003
4.554374e+002, 4.819185e+003
4.559195e+002, 4.810586e+003
4.564016e+002, 4.788973e+003
4.568838e+002, 4.764411e+003
4.573659e+002, 4.744546e+003
4.578480e+002, 4.729147e+003
4.583301e+002, 4.713396e+003
4.588122e+002, 4.695961e+003
4.592943e+002, 4.679707e+003
4.597765e+002, 4.664747e+003
4.602586e+002, 4.651533e+003
4.607407e+002, 4.641677e+003
4.612228e+002, 4.635461e+003
4.617049e+002, 4.629416e+003
4.621870e+002, 4.617674e+003
4.626692e+002, 4.597065e+003
4.631513e+002, 4.581134e+003
4.636334e+002, 4.574079e+003
4.641155e+002, 4.567437e+003
4.645976e+002, 4.556520e+003
4.650797e+002, 4.543222e+003
4.655619e+002, 4.532569e+003
4.660440e+002, 4.528282e+003
4.665261e+002, 4.527258e+003
4.670082e+002, 4.519890e+003
4.674903e+002, 4.502273e+003
4.679724e+002, 4.488922e+003
4.684546e+002, 4.488063e+003
4.689367e+002, 4.489679e+003
4.694188e+002, 4.486768e+003
4.699009e+002, 4.478573e+003
4.703830e+002, 4.468575e+003
4.708651e+002, 4.459188e+003
4.713473e+002, 4.450077e+003
4.718294e+002, 4.439111e+003
4.723115e+002, 4.424532e+003
4.727936e+002, 4.413113e+003
4.732757e+002, 4.412622e+003
4.737578e+002, 4.417849e+003
4.742400e+002, 4.419225e+003
4.747221e+002, 4.414702e+003
4.752042e+002, 4.407171e+003
4.756863e+002, 4.396345e+003
4.761684e+002, 4.383919e+003
4.766505e+002, 4.374703e+003
4.771327e+002, 4.369977e+003
4.776148e+002, 4.369285e+003
4.780969e+002, 4.374098e+003
4.785790e+002, 4.386111e+003
4.790611e+002, 4.389587e+003
4.795432e+002, 4.376302e+003
4.800254e+002, 4.360837e+003
4.805075e+002, 4.352079e+003
4.809896e+002, 4.349108e+003
4.814717e+002, 4.347265e+003
4.819538e+002, 4.343938e+003
4.824359e+002, 4.340311e+003
4.829181e+002, 4.339843e+003
4.834002e+002, 4.346290e+003
4.838823e+002, 4.350477e+003
4.843644e+002, 4.350505e+003
4.848465e+002, 4.349699e+003
4.853286e+002, 4.351218e+003
4.858108e+002, 4.354635e+003
4.862929e+002, 4.356265e+003
4.867750e+002, 4.351746e+003
4.872571e+002, 4.342517e+003
4.877392e+002, 4.342222e+003
4.882213e+002, 4.358890e+003
4.887035e+002, 4.371252e+003
4.891856e+002, 4.369866e+003
4.896677e+002, 4.363860e+003
4.901498e+002, 4.362743e+003
4.906319e+002, 4.368820e+003
4.911140e+002, 4.377098e+003
4.915962e+002, 4.383556e+003
4.920783e+002, 4.388154e+003
4.925604e+002, 4.389640e+003
4.930425e+002, 4.385765e+003
4.935246e+002, 4.383007e+003
4.940067e+002, 4.389319e+003
4.944889e+002, 4.400306e+003
4.949710e+002, 4.405638e+003
4.954531e+002, 4.398985e+003
4.959352e+002, 4.390631e+003
4.964173e+002, 4.388354e+003
4.968994e+002, 4.391233e+003
4.973816e+002, 4.396556e+003
4.978637e+002, 4.404118e+003
4.983458e+002, 4.411370e+003
4.988279e+002, 4.413300e+003
4.993100e+002, 4.407475e+003
4.997921e+002, 4.409237e+003
5.002743e+002, 4.429653e+003
5.007564e+002, 4.449188e+003
5.012385e+002, 4.451835e+003
5.017206e+002, 4.441987e+003
5.022027e+002, 4.434124e+003
5.026848e+002, 4.436343e+003
5.031670e+002, 4.446478e+003
5.036491e+002, 4.458503e+003
5.041312e+002, 4.476596e+003
5.046133e+002, 4.489639e+003
5.050954e+002, 4.495942e+003
5.055775e+002, 4.498732e+003
5.060597e+002, 4.498317e+003
5.065418e+002, 4.496071e+003
5.070239e+002, 4.495229e+003
5.075060e+002, 4.498071e+003
5.079881e+002, 4.504483e+003
5.084702e+002, 4.515138e+003
5.089524e+002, 4.534041e+003
5.094345e+002, 4.548017e+003
5.099166e+002, 4.546884e+003
5.103987e+002, 4.542275e+003
5.108808e+002, 4.545488e+003
5.113629e+002, 4.558339e+003
5.118451e+002, 4.571492e+003
5.123271e+002, 4.577118e+003
5.128093e+002, 4.577714e+003
5.132914e+002, 4.579955e+003
5.137735e+002, 4.584379e+003
5.142556e+002, 4.591005e+003
5.147377e+002, 4.602321e+003
5.152198e+002, 4.615590e+003
5.157020e+002, 4.621685e+003
5.161841e+002, 4.614623e+003
5.166662e+002, 4.608660e+003
5.171483e+002, 4.610981e+003
5.176304e+002, 4.618215e+003
5.181125e+002, 4.624819e+003
5.185947e+002, 4.629442e+003
5.190768e+002, 4.634222e+003
5.195589e+002, 4.641771e+003
5.200410e+002, 4.652628e+003
5.205231e+002, 4.661248e+003
5.210052e+002, 4.668657e+003
5.214874e+002, 4.673095e+003
5.219695e+002, 4.671300e+003
5.224516e+002, 4.667142e+003
5.229337e+002, 4.665921e+003
5.234158e+002, 4.669591e+003
5.238979e+002, 4.676274e+003
5.243801e+002, 4.683715e+003
5.248622e+002, 4.692266e+003
5.253443e+002, 4.699634e+003
5.258264e+002, 4.704897e+003
5.263085e+002, 4.709908e+003
5.267906e+002, 4.715638e+003
5.272728e+002, 4.721671e+003
5.277549e+002, 4.727224e+003
5.282370e+002, 4.732018e+003
5.287191e+002, 4.736114e+003
5.292012e+002, 4.739225e+003
5.296833e+002, 4.741438e+003
5.301655e+002, 4.744494e+003
5.306476e+002, 4.749476e+003
5.311297e+002, 4.754312e+003
5.316118e+002, 4.756095e+003
5.320939e+002, 4.755297e+003
5.325760e+002, 4.755233e+003
5.330582e+002, 4.757762e+003
5.335403e+002, 4.760236e+003
5.340224e+002, 4.758840e+003
5.345045e+002, 4.755508e+003
5.349866e+002, 4.757231e+003
5.354688e+002, 4.767621e+003
5.359509e+002, 4.781066e+003
5.364330e+002, 4.786707e+003
5.369151e+002, 4.779149e+003
5.373972e+002, 4.776618e+003
5.378793e+002, 4.784290e+003
5.383615e+002, 4.791755e+003
5.388436e+002, 4.792193e+003
5.393257e+002, 4.787754e+003
5.398078e+002, 4.784912e+003
5.402899e+002, 4.787591e+003
5.407720e+002, 4.792214e+003
5.412542e+002, 4.789214e+003
5.417363e+002, 4.774772e+003
5.422184e+002, 4.765583e+003
5.427005e+002, 4.771202e+003
5.431826e+002, 4.776716e+003
5.436647e+002, 4.771277e+003
5.441469e+002, 4.757443e+003
5.446290e+002, 4.746763e+003
5.451111e+002, 4.747651e+003
5.455932e+002, 4.753049e+003
5.460753e+002, 4.751114e+003
5.465574e+002, 4.742188e+003
5.470396e+002, 4.736779e+003
5.475217e+002, 4.740811e+003
5.480038e+002, 4.747553e+003
5.484859e+002, 4.745089e+003
5.489680e+002, 4.732577e+003
5.494501e+002, 4.722839e+003
5.499323e+002, 4.721425e+003
5.504144e+002, 4.721045e+003
5.508965e+002, 4.714781e+003
5.513786e+002, 4.704203e+003
5.518607e+002, 4.696688e+003
5.523428e+002, 4.696713e+003
5.528250e+002, 4.699450e+003
5.533071e+002, 4.692089e+003
5.537892e+002, 4.662783e+003
5.542713e+002, 4.645042e+003
5.547534e+002, 4.645370e+003
5.552355e+002, 4.649746e+003
5.557177e+002, 4.653711e+003
5.561998e+002, 4.654959e+003
5.566819e+002, 4.649995e+003
5.571640e+002, 4.635865e+003
5.576461e+002, 4.616229e+003
5.581282e+002, 4.598497e+003
5.586104e+002, 4.582544e+003
5.590925e+002, 4.569137e+003
5.595746e+002, 4.559781e+003
5.600567e+002, 4.551805e+003
5.605388e+002, 4.543393e+003
5.610209e+002, 4.534421e+003
5.615031e+002, 4.523792e+003
5.619852e+002, 4.507698e+003
5.624673e+002, 4.492277e+003
5.629494e+002, 4.487583e+003
5.634315e+002, 4.490567e+003
5.639136e+002, 4.485413e+003
5.643958e+002, 4.464398e+003
5.648779e+002, 4.435805e+003
5.653600e+002, 4.413356e+003
5.658421e+002, 4.398862e+003
5.663242e+002, 4.386554e+003
5.668063e+002, 4.379157e+003
5.672885e+002, 4.371236e+003
5.677706e+002, 4.359578e+003
5.682527e+002, 4.345022e+003
5.687348e+002, 4.329409e+003
5.692169e+002, 4.313515e+003
5.696990e+002, 4.298462e+003
5.701812e+002, 4.287842e+003
5.706633e+002, 4.284516e+003
5.711454e+002, 4.273854e+003
5.716275e+002, 4.245745e+003
5.721096e+002, 4.219290e+003
5.725917e+002, 4.205446e+003
5.730739e+002, 4.200519e+003
5.735560e+002, 4.195640e+003
5.740381e+002, 4.187822e+003
5.745202e+002, 4.177979e+003
5.750023e+002, 4.167405e+003
5.754844e+002, 4.155825e+003
5.759666e+002, 4.140723e+003
5.764487e+002, 4.119955e+003
5.769308e+002, 4.100412e+003
5.774129e+002, 4.090228e+003
5.778950e+002, 4.089716e+003
5.783771e+002, 4.086986e+003
5.788593e+002, 4.081770e+003
5.793414e+002, 4.074274e+003
5.798235e+002, 4.063018e+003
5.803056e+002, 4.049980e+003
5.807877e+002, 4.038809e+003
5.812698e+002, 4.030403e+003
5.817520e+002, 4.021991e+003
5.822341e+002, 4.009986e+003
5.827162e+002, 3.993923e+003
5.831984e+002, 3.977489e+003
5.836805e+002, 3.955213e+003
5.841626e+002, 3.939804e+003
5.846447e+002, 3.941313e+003
5.851268e+002, 3.948312e+003
5.856089e+002, 3.946021e+003
5.860911e+002, 3.930406e+003
5.865732e+002, 3.912061e+003
5.870553e+002, 3.901435e+003
5.875374e+002, 3.896222e+003
5.880195e+002, 3.887488e+003
5.885016e+002, 3.873904e+003
5.889838e+002, 3.859717e+003
5.894659e+002, 3.846734e+003
5.899480e+002, 3.835461e+003
5.904301e+002, 3.827189e+003
5.909122e+002, 3.824337e+003
5.913943e+002, 3.819641e+003
5.918765e+002, 3.810846e+003
5.923586e+002, 3.799140e+003
5.928407e+002, 3.782170e+003
5.933228e+002, 3.762115e+003
5.938049e+002, 3.750107e+003
5.942870e+002, 3.755885e+003
5.947692e+002, 3.773952e+003
5.952513e+002, 3.778004e+003
5.957334e+002, 3.758171e+003
5.962155e+002, 3.741527e+003
5.966976e+002, 3.733134e+003
5.971797e+002, 3.726625e+003
5.976619e+002, 3.717653e+003
5.981440e+002, 3.706406e+003
5.986261e+002, 3.695493e+003
5.991082e+002, 3.686058e+003
5.995903e+002, 3.678295e+003
6.000724e+002, 3.672887e+003
6.005546e+002, 3.669822e+003
6.010367e+002, 3.667970e+003
6.015188e+002, 3.668688e+003
6.020009e+002, 3.667863e+003
6.024830e+002, 3.657960e+003
6.029651e+002, 3.639237e+003
6.034473e+002, 3.625077e+003
6.039294e+002, 3.623003e+003
6.044115e+002, 3.620574e+003
6.048936e+002, 3.607579e+003
6.053757e+002, 3.588989e+003
6.058578e+002, 3.576162e+003
6.063400e+002, 3.573169e+003
6.068221e+002, 3.573039e+003
6.073042e+002, 3.565279e+003
6.077863e+002, 3.548041e+003
6.082684e+002, 3.535609e+003
6.087505e+002, 3.533105e+003
6.092327e+002, 3.529641e+003
6.097148e+002, 3.519463e+003
6.101969e+002, 3.507761e+003
6.106790e+002, 3.502601e+003
6.111611e+002, 3.506404e+003
6.116432e+002, 3.509165e+003
6.121254e+002, 3.500521e+003
6.126075e+002, 3.483759e+003
6.130896e+002, 3.468803e+003
6.135717e+002, 3.456257e+003
6.140538e+002, 3.446198e+003
6.145359e+002, 3.439883e+003
6.150181e+002, 3.435514e+003
6.155002e+002, 3.427423e+003
6.159823e+002, 3.412198e+003
6.164644e+002, 3.401152e+003
6.169465e+002, 3.402522e+003
6.174286e+002, 3.404547e+003
6.179108e+002, 3.394909e+003
6.183929e+002, 3.375895e+003
6.188750e+002, 3.359065e+003
6.193571e+002, 3.351895e+003
6.198392e+002, 3.350582e+003
6.203214e+002, 3.344781e+003
6.208035e+002, 3.332491e+003
6.212856e+002, 3.321934e+003
6.217677e+002, 3.316016e+003
6.222498e+002, 3.310112e+003
6.227319e+002, 3.301491e+003
6.232141e+002, 3.290994e+003
6.236962e+002, 3.280825e+003
6.241783e+002, 3.271351e+003
6.246604e+002, 3.263297e+003
6.251425e+002, 3.258511e+003
6.256246e+002, 3.255790e+003
6.261068e+002, 3.250928e+003
6.265889e+002, 3.242864e+003
6.270710e+002, 3.233731e+003
6.275531e+002, 3.225445e+003
6.280352e+002, 3.217994e+003
6.285173e+002, 3.210308e+003
6.289995e+002, 3.199903e+003
6.294816e+002, 3.192497e+003
6.299637e+002, 3.192519e+003
6.304458e+002, 3.194019e+003
6.309279e+002, 3.190798e+003
6.314100e+002, 3.182454e+003
6.318922e+002, 3.173041e+003
6.323743e+002, 3.165830e+003
6.328564e+002, 3.160155e+003
6.333385e+002, 3.153380e+003
6.338206e+002, 3.144998e+003
6.343027e+002, 3.137665e+003
6.347849e+002, 3.134117e+003
6.352670e+002, 3.129961e+003
6.357491e+002, 3.118342e+003
6.362312e+002, 3.100488e+003
6.367133e+002, 3.089829e+003
6.371954e+002, 3.099236e+003
6.376776e+002, 3.109542e+003
6.381597e+002, 3.102264e+003
6.386418e+002, 3.083903e+003
6.391239e+002, 3.071719e+003
6.396060e+002, 3.071421e+003
6.400881e+002, 3.074817e+003
6.405703e+002, 3.071573e+003
6.410524e+002, 3.060999e+003
6.415345e+002, 3.052268e+003
6.420166e+002, 3.048741e+003
6.424987e+002, 3.043140e+003
6.429808e+002, 3.031965e+003
6.434630e+002, 3.019264e+003
6.439451e+002, 3.009050e+003
6.444272e+002, 3.002110e+003
6.449093e+002, 2.996534e+003
6.453914e+002, 2.991115e+003
6.458735e+002, 2.985894e+003
6.463557e+002, 2.980282e+003
6.468378e+002, 2.974115e+003
6.473199e+002, 2.971719e+003
6.478020e+002, 2.977005e+003
6.482841e+002, 2.983917e+003
6.487662e+002, 2.981634e+003
6.492484e+002, 2.967997e+003
6.497305e+002, 2.957695e+003
6.502126e+002, 2.954613e+003
6.506947e+002, 2.952383e+003
6.511768e+002, 2.946406e+003
6.516589e+002, 2.939080e+003
6.521411e+002, 2.935434e+003
6.526232e+002, 2.937080e+003
6.531053e+002, 2.940579e+003
6.535874e+002, 2.941883e+003
6.540695e+002, 2.940988e+003
6.545516e+002, 2.938183e+003
6.550338e+002, 2.932356e+003
6.555159e+002, 2.926881e+003
6.559980e+002, 2.923996e+003
6.564801e+002, 2.921845e+003
6.569622e+002, 2.918249e+003
6.574443e+002, 2.912854e+003
6.579265e+002, 2.907669e+003
6.584086e+002, 2.905783e+003
6.588907e+002, 2.903078e+003
6.593728e+002, 2.892509e+003
6.598549e+002, 2.876290e+003
6.603370e+002, 2.864658e+003
6.608192e+002, 2.862487e+003
6.613013e+002, 2.865550e+003
6.617834e+002, 2.866899e+003
6.622655e+002, 2.866806e+003
6.627476e+002, 2.863964e+003
6.632297e+002, 2.854452e+003
6.637119e+002, 2.846487e+003
6.641940e+002, 2.844895e+003
6.646761e+002, 2.845337e+003
6.651582e+002, 2.841224e+003
6.656403e+002, 2.830805e+003
6.661224e+002, 2.820512e+003
6.666046e+002, 2.815649e+003
6.670867e+002, 2.814845e+003
6.675688e+002, 2.815976e+003
6.680509e+002, 2.818939e+003
6.685330e+002, 2.819581e+003
6.690151e+002, 2.815572e+003
6.694973e+002, 2.808437e+003
6.699794e+002, 2.801140e+003
6.704615e+002, 2.794031e+003
6.709436e+002, 2.785742e+003
6.714257e+002, 2.775071e+003
6.719078e+002, 2.764444e+003
6.723900e+002, 2.754794e+003
6.728721e+002, 2.746136e+003
6.733542e+002, 2.738033e+003
6.738363e+002, 2.730370e+003
6.743184e+002, 2.724091e+003
6.748005e+002, 2.721421e+003
6.752827e+002, 2.721756e+003
6.757648e+002, 2.718746e+003
6.762469e+002, 2.711352e+003
6.767290e+002, 2.703835e+003
6.772111e+002, 2.698223e+003
6.776932e+002, 2.693677e+003
6.781754e+002, 2.688973e+003
6.786575e+002, 2.684382e+003
6.791396e+002, 2.678266e+003
6.796217e+002, 2.669196e+003
6.801038e+002, 2.659354e+003
6.805859e+002, 2.650045e+003
6.810681e+002, 2.641360e+003
6.815502e+002, 2.633305e+003
6.820323e+002, 2.625901e+003
6.825144e+002, 2.618990e+003
6.829965e+002, 2.612508e+003
6.834786e+002, 2.606492e+003
6.839608e+002, 2.600169e+003
6.844429e+002, 2.591629e+003
6.849250e+002, 2.586279e+003
6.854071e+002, 2.590997e+003
6.858892e+002, 2.597474e+003
6.863713e+002, 2.596344e+003
6.868535e+002, 2.586455e+003
6.873356e+002, 2.574881e+003
6.878177e+002, 2.563312e+003
6.882998e+002, 2.552563e+003
6.887819e+002, 2.542768e+003
6.892640e+002, 2.534456e+003
6.897462e+002, 2.530233e+003
6.902283e+002, 2.531170e+003
6.907104e+002, 2.532796e+003
6.911925e+002, 2.528698e+003
6.916746e+002, 2.518354e+003
6.921567e+002, 2.506669e+003
6.926389e+002, 2.488234e+003
6.931210e+002, 2.475975e+003
6.936031e+002, 2.478144e+003
6.940852e+002, 2.484600e+003
6.945673e+002, 2.485525e+003
6.950494e+002, 2.479649e+003
6.955316e+002, 2.470807e+003
6.960137e+002, 2.459444e+003
6.964958e+002, 2.447543e+003
6.969779e+002, 2.438008e+003
6.974600e+002, 2.430424e+003
6.979421e+002, 2.422807e+003
6.984243e+002, 2.414575e+003
6.989064e+002, 2.405218e+003
6.993885e+002, 2.393376e+003
6.998706e+002, 2.378426e+003
7.003527e+002, 2.369207e+003
7.008348e+002, 2.371266e+003
7.013170e+002, 2.372354e+003
7.017991e+002, 2.369789e+003
7.022812e+002, 2.365712e+003
7.027633e+002, 2.362839e+003
7.032454e+002, 2.360940e+003
7.037275e+002, 2.356545e+003
7.042097e+002, 2.344781e+003
7.046918e+002, 2.331521e+003
7.051739e+002, 2.326564e+003
7.056560e+002, 2.328770e+003
7.061381e+002, 2.331854e+003
7.066202e+002, 2.334620e+003
7.071024e+002, 2.334703e+003
7.075845e+002, 2.328905e+003
7.080666e+002, 2.317319e+003
7.085487e+002, 2.308860e+003
7.090308e+002, 2.305252e+003
7.095129e+002, 2.302270e+003
7.099951e+002, 2.298441e+003
7.104772e+002, 2.295601e+003
7.109593e+002, 2.296038e+003
7.114414e+002, 2.299125e+003
7.119235e+002, 2.302368e+003
7.124056e+002, 2.305469e+003
7.128878e+002, 2.305784e+003
7.133699e+002, 2.295180e+003
7.138520e+002, 2.276216e+003
7.143341e+002, 2.269360e+003
7.148162e+002, 2.280501e+003
7.152983e+002, 2.293499e+003
7.157805e+002, 2.295226e+003
7.162626e+002, 2.287727e+003
7.167447e+002, 2.282709e+003
7.172268e+002, 2.281878e+003
7.177089e+002, 2.280937e+003
7.181910e+002, 2.281314e+003
7.186732e+002, 2.279973e+003
7.191553e+002, 2.273347e+003
7.196374e+002, 2.263283e+003
7.201195e+002, 2.254381e+003
7.206016e+002, 2.248861e+003
7.210837e+002, 2.245313e+003
7.215659e+002, 2.242100e+003
7.220480e+002, 2.239262e+003
7.225301e+002, 2.237373e+003
7.230122e+002, 2.236720e+003
7.234943e+002, 2.235278e+003
7.239764e+002, 2.231264e+003
7.244586e+002, 2.226052e+003
7.249407e+002, 2.223122e+003
7.254228e+002, 2.222926e+003
7.259049e+002, 2.223813e+003
7.263870e+002, 2.227710e+003
7.268691e+002, 2.230647e+003
7.273513e+002, 2.229523e+003
7.278334e+002, 2.226211e+003
7.283155e+002, 2.224777e+003
7.287976e+002, 2.226394e+003
7.292797e+002, 2.226607e+003
7.297618e+002, 2.218166e+003
7.302440e+002, 2.204462e+003
7.307261e+002, 2.199106e+003
7.312082e+002, 2.203051e+003
7.316903e+002, 2.205418e+003
7.321724e+002, 2.200722e+003
7.326545e+002, 2.194243e+003
7.331367e+002, 2.194547e+003
7.336188e+002, 2.203840e+003
7.341009e+002, 2.207071e+003
7.345830e+002, 2.198917e+003
7.350651e+002, 2.191153e+003
7.355472e+002, 2.187948e+003
7.360294e+002, 2.187182e+003
7.365115e+002, 2.186654e+003
7.369936e+002, 2.185794e+003
7.374757e+002, 2.184662e+003
7.379578e+002, 2.183239e+003
7.384399e+002, 2.181621e+003
7.389221e+002, 2.179770e+003
7.394042e+002, 2.177745e+003
7.398863e+002, 2.176609e+003
7.403684e+002, 2.176822e+003
7.408505e+002, 2.177226e+003
7.413326e+002, 2.176923e+003
7.418148e+002, 2.175884e+003
7.422969e+002, 2.173770e+003
7.427790e+002, 2.168547e+003
7.432611e+002, 2.165151e+003
7.437432e+002, 2.163961e+003
7.442253e+002, 2.164972e+003
7.447075e+002, 2.170221e+003
7.451896e+002, 2.177587e+003
7.456717e+002, 2.181674e+003
7.461538e+002, 2.179545e+003
7.466359e+002, 2.174985e+003
7.471180e+002, 2.172437e+003
7.476002e+002, 2.171270e+003
7.480823e+002, 2.168302e+003
7.485644e+002, 2.163003e+003
7.490465e+002, 2.160654e+003
7.495286e+002, 2.165289e+003
7.500107e+002, 2.173532e+003
7.504929e+002, 2.177440e+003
7.509750e+002, 2.175689e+003
7.514571e+002, 2.172708e+003
7.519392e+002, 2.167081e+003
7.524213e+002, 2.161911e+003
7.529034e+002, 2.158015e+003
7.533856e+002, 2.155484e+003
7.538677e+002, 2.154782e+003
7.543498e+002, 2.155892e+003
7.548319e+002, 2.156873e+003
7.553140e+002, 2.155745e+003
7.557961e+002, 2.153857e+003
7.562783e+002, 2.153634e+003
7.567604e+002, 2.154825e+003
7.572425e+002, 2.155627e+003
7.577246e+002, 2.155368e+003
7.582067e+002, 2.155405e+003
7.586888e+002, 2.157875e+003
7.591710e+002, 2.162727e+003
7.596531e+002, 2.162665e+003
7.601352e+002, 2.153558e+003
7.606173e+002, 2.145762e+003
7.610994e+002, 2.140935e+003
7.615815e+002, 2.137697e+003
7.620637e+002, 2.134271e+003
7.625458e+002, 2.131419e+003
7.630279e+002, 2.132488e+003
7.635100e+002, 2.141749e+003
7.639921e+002, 2.149790e+003
7.644742e+002, 2.148869e+003
7.649564e+002, 2.141340e+003
7.654385e+002, 2.128838e+003
7.659206e+002, 2.112951e+003
7.664027e+002, 2.101732e+003
7.668848e+002, 2.100571e+003
7.673669e+002, 2.106148e+003
7.678491e+002, 2.111490e+003
7.683312e+002, 2.117854e+003
7.688133e+002, 2.119157e+003
7.692954e+002, 2.113295e+003
7.697775e+002, 2.105090e+003
7.702596e+002, 2.094220e+003
7.707418e+002, 2.083444e+003
7.712239e+002, 2.076803e+003
7.717060e+002, 2.074989e+003
7.721881e+002, 2.073913e+003
7.726702e+002, 2.071944e+003
7.731523e+002, 2.070173e+003
7.736345e+002, 2.070315e+003
7.741166e+002, 2.071144e+003
7.745987e+002, 2.070105e+003
7.750808e+002, 2.066538e+003
7.755629e+002, 2.061845e+003
7.760450e+002, 2.057636e+003
7.765272e+002, 2.053367e+003
7.770093e+002, 2.045267e+003
7.774914e+002, 2.031775e+003
7.779735e+002, 2.023327e+003
7.784556e+002, 2.024666e+003
7.789377e+002, 2.028035e+003
7.794199e+002, 2.026895e+003
7.799020e+002, 2.021924e+003
7.803841e+002, 2.016614e+003
7.808662e+002, 2.011512e+003
7.813483e+002, 2.005428e+003
7.818304e+002, 1.996534e+003
7.823126e+002, 1.987768e+003
7.827947e+002, 1.982116e+003
7.832768e+002, 1.978619e+003
7.837589e+002, 1.974657e+003
7.842410e+002, 1.969087e+003
7.847231e+002, 1.962078e+003
7.852053e+002, 1.953112e+003
7.856874e+002, 1.942847e+003
7.861695e+002, 1.933353e+003
7.866516e+002, 1.924694e+003
7.871337e+002, 1.919021e+003
7.876158e+002, 1.918297e+003
7.880980e+002, 1.918718e+003
7.885801e+002, 1.914211e+003
7.890622e+002, 1.903803e+003
7.895443e+002, 1.895011e+003
7.900264e+002, 1.888242e+003
7.905085e+002, 1.882573e+003
7.909907e+002, 1.879629e+003
7.914728e+002, 1.876400e+003
7.919549e+002, 1.869256e+003
7.924370e+002, 1.858908e+003
7.929191e+002, 1.849913e+003
7.934012e+002, 1.845574e+003
7.938834e+002, 1.841900e+003
7.943655e+002, 1.834385e+003
7.948476e+002, 1.824758e+003
7.953297e+002, 1.817138e+003
7.958118e+002, 1.811813e+003
7.962939e+002, 1.805601e+003
7.967761e+002, 1.796250e+003
7.972582e+002, 1.785377e+003
7.977403e+002, 1.777241e+003
7.982224e+002, 1.772784e+003
7.987045e+002, 1.766797e+003
7.991866e+002, 1.758539e+003
7.996688e+002, 1.749766e+003
8.001509e+002, 1.740643e+003
8.006330e+002, 1.731746e+003
8.011151e+002, 1.724081e+003
8.015972e+002, 1.717884e+003
8.020793e+002, 1.710957e+003
8.025615e+002, 1.703397e+003
8.030436e+002, 1.694265e+003
8.035257e+002, 1.680558e+003
8.040078e+002, 1.666038e+003
8.044899e+002, 1.657271e+003
8.049720e+002, 1.654629e+003
8.054542e+002, 1.652119e+003
8.059363e+002, 1.644942e+003
8.064184e+002, 1.635120e+003
8.069005e+002, 1.627117e+003
8.073826e+002, 1.620846e+003
8.078647e+002, 1.614888e+003
8.083469e+002, 1.609440e+003
8.088290e+002, 1.602062e+003
8.093111e+002, 1.590220e+003
8.097932e+002, 1.575699e+003
8.102753e+002, 1.564014e+003
8.107574e+002, 1.555214e+003
8.112396e+002, 1.549192e+003
8.117217e+002, 1.550737e+003
8.122038e+002, 1.549655e+003
8.126859e+002, 1.539570e+003
8.131680e+002, 1.525223e+003
8.136501e+002, 1.513304e+003
8.141323e+002, 1.504993e+003
8.146144e+002, 1.496553e+003
8.150965e+002, 1.484212e+003
8.155786e+002, 1.471674e+003
8.160607e+002, 1.464768e+003
8.165428e+002, 1.461068e+003
8.170250e+002, 1.453263e+003
8.175071e+002, 1.440030e+003
8.179892e+002, 1.427439e+003
8.184713e+002, 1.420865e+003
8.189534e+002, 1.418259e+003
8.194355e+002, 1.411835e+003
8.199177e+002, 1.400337e+003
8.203998e+002, 1.390996e+003
8.208819e+002, 1.386380e+003
8.213640e+002, 1.380975e+003
8.218461e+002, 1.370749e+003
8.223282e+002, 1.357705e+003
8.228104e+002, 1.345307e+003
8.232925e+002, 1.333016e+003
8.237746e+002, 1.323739e+003
8.242567e+002, 1.319665e+003
8.247388e+002, 1.316999e+003
8.252209e+002, 1.315483e+003
8.257031e+002, 1.313099e+003
8.261852e+002, 1.306548e+003
8.266673e+002, 1.295690e+003
8.271494e+002, 1.284228e+003
8.276315e+002, 1.274330e+003
8.281136e+002, 1.266343e+003
8.285958e+002, 1.262956e+003
8.290779e+002, 1.262425e+003
8.295600e+002, 1.254372e+003
8.300421e+002, 1.236534e+003
8.305242e+002, 1.220892e+003
8.310063e+002, 1.217105e+003
8.314885e+002, 1.220448e+003
8.319706e+002, 1.215727e+003
8.324527e+002, 1.197569e+003
8.329348e+002, 1.185625e+003
8.334169e+002, 1.184281e+003
8.338990e+002, 1.183854e+003
8.343812e+002, 1.181898e+003
8.348633e+002, 1.177943e+003
8.353454e+002, 1.170494e+003
8.358275e+002, 1.159349e+003
8.363096e+002, 1.149619e+003
8.367917e+002, 1.143567e+003
8.372739e+002, 1.138854e+003
8.377560e+002, 1.135257e+003
8.382381e+002, 1.131435e+003
8.387202e+002, 1.125221e+003
8.392023e+002, 1.116672e+003
8.396844e+002, 1.107629e+003
8.401666e+002, 1.099118e+003
8.406487e+002, 1.091657e+003
8.411308e+002, 1.087234e+003
8.416129e+002, 1.085153e+003
8.420950e+002, 1.080062e+003
8.425771e+002, 1.071113e+003
8.430593e+002, 1.062866e+003
8.435414e+002, 1.058028e+003
8.440235e+002, 1.054789e+003
8.445056e+002, 1.049578e+003
8.449877e+002, 1.041638e+003
8.454698e+002, 1.035694e+003
8.459520e+002, 1.033853e+003
8.464341e+002, 1.031239e+003
8.469162e+002, 1.026188e+003
8.473983e+002, 1.020378e+003
8.478804e+002, 1.015373e+003
8.483625e+002, 1.011043e+003
8.488447e+002, 1.006029e+003
8.493268e+002, 9.990220e+002
8.498089e+002, 9.926222e+002
8.502910e+002, 9.885262e+002
8.507731e+002, 9.856266e+002
8.512552e+002, 9.828547e+002
8.517374e+002, 9.800350e+002
8.522195e+002, 9.774546e+002
8.527016e+002, 9.752463e+002
8.531837e+002, 9.721945e+002
8.536658e+002, 9.663449e+002
8.541479e+002, 9.582443e+002
8.546301e+002, 9.497458e+002
8.551122e+002, 9.408582e+002
8.555943e+002, 9.347220e+002
8.560764e+002, 9.330385e+002
8.565585e+002, 9.322479e+002
8.570406e+002, 9.284171e+002
8.575228e+002, 9.218917e+002
8.580049e+002, 9.166349e+002
8.584870e+002, 9.147626e+002
8.589691e+002, 9.105986e+002
8.594512e+002, 9.010740e+002
8.599333e+002, 8.918776e+002
8.604155e+002, 8.858391e+002
8.608976e+002, 8.822755e+002
8.613797e+002, 8.799393e+002
8.618618e+002, 8.789066e+002
8.623439e+002, 8.773361e+002
8.628260e+002, 8.745784e+002
8.633082e+002, 8.708791e+002
8.637903e+002, 8.658677e+002
8.642724e+002, 8.602677e+002
8.647545e+002, 8.545856e+002
8.652366e+002, 8.493217e+002
8.657188e+002, 8.464072e+002
8.662009e+002, 8.482332e+002
8.666830e+002, 8.516511e+002
8.671651e+002, 8.503436e+002
8.676472e+002, 8.449410e+002
8.681293e+002, 8.391250e+002
8.686115e+002, 8.334016e+002
8.690936e+002, 8.278522e+002
8.695757e+002, 8.223122e+002
8.700578e+002, 8.175475e+002
8.705399e+002, 8.154606e+002
8.710220e+002, 8.170458e+002
8.715042e+002, 8.162570e+002
8.719863e+002, 8.117966e+002
8.724684e+002, 8.070706e+002
8.729505e+002, 8.025187e+002
8.734326e+002, 7.985927e+002
8.739147e+002, 7.964368e+002
8.743969e+002, 7.955877e+002
8.748790e+002, 7.930491e+002
8.753611e+002, 7.857900e+002
8.758432e+002, 7.802793e+002
8.763253e+002, 7.812606e+002
8.768074e+002, 7.828409e+002
8.772896e+002, 7.789596e+002
8.777717e+002, 7.714784e+002
8.782538e+002, 7.656002e+002
8.787359e+002, 7.632208e+002
8.792180e+002, 7.624651e+002
8.797001e+002, 7.631246e+002
8.801823e+002, 7.634584e+002
8.806644e+002, 7.590522e+002
8.811465e+002, 7.511578e+002
8.816286e+002, 7.455479e+002
8.821107e+002, 7.437050e+002
8.825928e+002, 7.427365e+002
8.830750e+002, 7.400906e+002
8.835571e+002, 7.364834e+002
8.840392e+002, 7.344809e+002
8.845213e+002, 7.343705e+002
8.850034e+002, 7.343795e+002
8.854855e+002, 7.348472e+002
8.859677e+002, 7.343010e+002
8.864498e+002, 7.316918e+002
8.869319e+002, 7.278542e+002
8.874140e+002, 7.239579e+002
8.878961e+002, 7.198590e+002
8.883782e+002, 7.167776e+002
8.888604e+002, 7.155067e+002
8.893425e+002, 7.143060e+002
8.898246e+002, 7.123524e+002
8.903067e+002, 7.105529e+002
8.907888e+002, 7.097485e+002
8.912709e+002, 7.098286e+002
8.917531e+002, 7.103173e+002
8.922352e+002, 7.113200e+002
8.927173e+002, 7.117939e+002
8.931994e+002, 7.099469e+002
8.936815e+002, 7.079767e+002
8.941636e+002, 7.098296e+002
8.946458e+002, 7.136465e+002
8.951279e+002, 7.134503e+002
8.956100e+002, 7.077280e+002
8.960921e+002, 7.019487e+002
8.965742e+002, 7.017720e+002
8.970563e+002, 7.049841e+002
8.975385e+002, 7.057770e+002
8.980206e+002, 7.042933e+002
8.985027e+002, 7.019591e+002
8.989848e+002, 6.987952e+002
8.994669e+002, 6.975356e+002
8.999490e+002, 7.005912e+002
9.004312e+002, 7.054141e+002
9.009133e+002, 7.058212e+002
9.013954e+002, 7.002785e+002
9.018775e+002, 6.975316e+002
9.023596e+002, 6.996812e+002
9.028417e+002, 7.009974e+002
9.033239e+002, 6.974730e+002
9.038060e+002, 6.942123e+002
9.042881e+002, 6.972587e+002
9.047702e+002, 7.054033e+002
9.052523e+002, 7.107471e+002
9.057344e+002, 7.111250e+002
9.062166e+002, 7.104413e+002
9.066987e+002, 7.088042e+002
9.071808e+002, 7.072137e+002
9.076629e+002, 7.063143e+002
9.081450e+002, 7.060208e+002
9.086271e+002, 7.065417e+002
9.091093e+002, 7.078221e+002
9.095914e+002, 7.077760e+002
9.100735e+002, 7.030963e+002
9.105556e+002, 6.979521e+002
9.110377e+002, 6.975718e+002
9.115198e+002, 7.000621e+002
9.120020e+002, 7.019694e+002
9.124841e+002, 7.024789e+002
9.129662e+002, 7.013560e+002
9.134483e+002, 6.983136e+002
9.139304e+002, 6.945475e+002
9.144125e+002, 6.917172e+002
9.148947e+002, 6.898912e+002
9.153768e+002, 6.900767e+002
9.158589e+002, 6.924459e+002
9.163410e+002, 6.940731e+002
9.168231e+002, 6.940919e+002
9.173052e+002, 6.920576e+002
9.177874e+002, 6.870045e+002
9.182695e+002, 6.793998e+002
9.187516e+002, 6.739294e+002
9.192337e+002, 6.709884e+002
9.197158e+002, 6.693275e+002
9.201979e+002, 6.707869e+002
9.206801e+002, 6.709424e+002
9.211622e+002, 6.646849e+002
9.216443e+002, 6.566721e+002
9.221264e+002, 6.555073e+002
9.226085e+002, 6.628904e+002
9.230906e+002, 6.663511e+002
9.235728e+002, 6.598174e+002
9.240549e+002, 6.545023e+002
9.245370e+002, 6.558734e+002
9.250191e+002, 6.593501e+002
9.255012e+002, 6.609634e+002
9.259833e+002, 6.605770e+002
9.264655e+002, 6.593212e+002
9.269476e+002, 6.572406e+002
9.274297e+002, 6.559034e+002
9.279118e+002, 6.572000e+002
9.283939e+002, 6.591664e+002
9.288760e+002, 6.602430e+002
9.293582e+002, 6.600235e+002
9.298403e+002, 6.568946e+002
9.303224e+002, 6.511197e+002
9.308045e+002, 6.472391e+002
9.312866e+002, 6.496395e+002
9.317687e+002, 6.546002e+002
9.322509e+002, 6.542960e+002
9.327330e+002, 6.502392e+002
9.332151e+002, 6.502716e+002
9.336972e+002, 6.549895e+002
9.341793e+002, 6.568969e+002
9.346614e+002, 6.518596e+002
9.351436e+002, 6.454764e+002
9.356257e+002, 6.463245e+002
9.361078e+002, 6.539426e+002
9.365899e+002, 6.591956e+002
9.370720e+002, 6.618403e+002
9.375541e+002, 6.627518e+002
9.380363e+002, 6.612689e+002
9.385184e+002, 6.597946e+002
9.390005e+002, 6.602581e+002
9.394826e+002, 6.619222e+002
9.399647e+002, 6.625159e+002
9.404468e+002, 6.605988e+002
9.409290e+002, 6.615591e+002
9.414111e+002, 6.694651e+002
9.418932e+002, 6.749935e+002
9.423753e+002, 6.739780e+002
9.428574e+002, 6.706056e+002
9.433395e+002, 6.672115e+002
9.438217e+002, 6.647729e+002
9.443038e+002, 6.668105e+002
9.447859e+002, 6.775562e+002
9.452680e+002, 6.861158e+002
9.457501e+002, 6.870860e+002
9.462322e+002, 6.858905e+002
9.467144e+002, 6.862902e+002
9.471965e+002, 6.875878e+002
9.476786e+002, 6.877689e+002
9.481607e+002, 6.866019e+002
9.486428e+002, 6.861920e+002
9.491249e+002, 6.881205e+002
9.496071e+002, 6.910751e+002
9.500892e+002, 6.944551e+002
9.505713e+002, 6.975823e+002
9.510534e+002, 6.990863e+002
9.515355e+002, 6.991290e+002
9.520176e+002, 6.987313e+002
9.524998e+002, 6.983727e+002
9.529819e+002, 6.986230e+002
9.534640e+002, 7.011777e+002
9.539461e+002, 7.045119e+002
9.544282e+002, 7.029923e+002
9.549103e+002, 6.973838e+002
9.553925e+002, 6.937099e+002
9.558746e+002, 6.932167e+002
9.563567e+002, 6.942007e+002
9.568388e+002, 6.956838e+002
9.573209e+002, 6.971287e+002
9.578030e+002, 6.970392e+002
9.582852e+002, 6.951337e+002
9.587673e+002, 6.954782e+002
9.592494e+002, 6.992121e+002
9.597315e+002, 7.003888e+002
9.602136e+002, 6.961618e+002
9.606957e+002, 6.908400e+002
9.611779e+002, 6.882648e+002
9.616600e+002, 6.881697e+002
9.621421e+002, 6.892560e+002
9.626242e+002, 6.927181e+002
9.631063e+002, 6.949822e+002
9.635884e+002, 6.950043e+002
9.640706e+002, 6.951006e+002
9.645527e+002, 6.964344e+002
9.650348e+002, 6.980740e+002
9.655169e+002, 6.990460e+002
9.659990e+002, 6.993378e+002
9.664811e+002, 6.992784e+002
9.669633e+002, 6.982341e+002
9.674454e+002, 6.977970e+002
9.679275e+002, 6.984305e+002
9.684096e+002, 6.996707e+002
9.688917e+002, 7.016095e+002
9.693738e+002, 7.037644e+002
9.698560e+002, 7.050017e+002
9.703381e+002, 7.051982e+002
9.708202e+002, 7.068066e+002
9.713023e+002, 7.135474e+002
9.717844e+002, 7.191682e+002
9.722665e+002, 7.180654e+002
9.727487e+002, 7.145227e+002
9.732308e+002, 7.135685e+002
9.737129e+002, 7.149657e+002
9.741950e+002, 7.159691e+002
9.746771e+002, 7.155225e+002
9.751592e+002, 7.155752e+002
9.756414e+002, 7.193910e+002
9.761235e+002, 7.236198e+002
9.766056e+002, 7.221359e+002
9.770877e+002, 7.175612e+002
9.775698e+002, 7.166563e+002
9.780519e+002, 7.200112e+002
9.785341e+002, 7.231288e+002
9.790162e+002, 7.232566e+002
9.794983e+002, 7.228962e+002
9.799804e+002, 7.269417e+002
9.804625e+002, 7.335431e+002
9.809446e+002, 7.339985e+002
9.814268e+002, 7.290884e+002
9.819089e+002, 7.290942e+002
9.823910e+002, 7.367737e+002
9.828731e+002, 7.441698e+002
9.833552e+002, 7.446942e+002
9.838373e+002, 7.410677e+002
9.843195e+002, 7.403056e+002
9.848016e+002, 7.426105e+002
9.852837e+002, 7.427334e+002
9.857658e+002, 7.397664e+002
9.862479e+002, 7.390355e+002
9.867300e+002, 7.427736e+002
9.872122e+002, 7.484174e+002
9.876943e+002, 7.540673e+002
9.881764e+002, 7.591869e+002
9.886585e+002, 7.605811e+002
9.891406e+002, 7.564584e+002
9.896227e+002, 7.536904e+002
9.901049e+002, 7.520322e+002
9.905870e+002, 7.527785e+002
9.910691e+002, 7.579509e+002
9.915512e+002, 7.643459e+002
9.920333e+002, 7.678300e+002
9.925154e+002, 7.685206e+002
9.929976e+002, 7.707300e+002
9.934797e+002, 7.767267e+002
9.939618e+002, 7.807816e+002
9.944439e+002, 7.818055e+002
9.949260e+002, 7.817526e+002
9.954081e+002, 7.805544e+002
9.958903e+002, 7.793811e+002
9.963724e+002, 7.796777e+002
9.968545e+002, 7.815424e+002
9.973366e+002, 7.844457e+002
9.978187e+002, 7.898032e+002
9.983008e+002, 7.940960e+002
9.987830e+002, 7.946187e+002
9.992651e+002, 7.954080e+002
9.997472e+002, 8.008206e+002
1.000229e+003, 8.080067e+002
1.000711e+003, 8.113842e+002
1.001194e+003, 8.099559e+002
1.001676e+003, 8.088909e+002
1.002158e+003, 8.107029e+002
1.002640e+003, 8.131756e+002
1.003122e+003, 8.154779e+002
1.003604e+003, 8.174475e+002
1.004086e+003, 8.186166e+002
1.004568e+003, 8.193993e+002
1.005050e+003, 8.205524e+002
1.005533e+003, 8.223374e+002
1.006015e+003, 8.252473e+002
1.006497e+003, 8.312225e+002
1.006979e+003, 8.369243e+002
1.007461e+003, 8.382282e+002
1.007943e+003, 8.375634e+002
1.008425e+003, 8.384899e+002
1.008907e+003, 8.412328e+002
1.009390e+003, 8.440252e+002
1.009872e+003, 8.461476e+002
1.010354e+003, 8.505206e+002
1.010836e+003, 8.647580e+002
1.011318e+003, 8.798917e+002
1.011800e+003, 8.751572e+002
1.012282e+003, 8.608400e+002
1.012764e+003, 8.667493e+002
1.013246e+003, 8.930272e+002
1.013729e+003, 9.131281e+002
1.014211e+003, 9.130555e+002
1.014693e+003, 9.030737e+002
1.015175e+003, 8.938607e+002
1.015657e+003, 8.861330e+002
1.016139e+003, 8.818635e+002
1.016621e+003, 8.810056e+002
1.017103e+003, 8.846235e+002
1.017586e+003, 8.924443e+002
1.018068e+003, 8.983408e+002
1.018550e+003, 8.983093e+002
1.019032e+003, 8.962096e+002
1.019514e+003, 8.987458e+002
1.019996e+003, 9.051465e+002
1.020478e+003, 9.099957e+002
1.020960e+003, 9.133164e+002
1.021442e+003, 9.151558e+002
1.021925e+003, 9.154227e+002
1.022407e+003, 9.157640e+002
1.022889e+003, 9.172545e+002
1.023371e+003, 9.197340e+002
1.023853e+003, 9.227357e+002
1.024335e+003, 9.262417e+002
1.024817e+003, 9.325233e+002
1.025299e+003, 9.423151e+002
1.025781e+003, 9.488138e+002
1.026264e+003, 9.497220e+002
1.026746e+003, 9.496949e+002
1.027228e+003, 9.518953e+002
1.027710e+003, 9.560726e+002
1.028192e+003, 9.623221e+002
1.028674e+003, 9.714325e+002
1.029156e+003, 9.752424e+002
1.029638e+003, 9.712695e+002
1.030120e+003, 9.705250e+002
1.030603e+003, 9.767715e+002
1.031085e+003, 9.848366e+002
1.031567e+003, 9.911974e+002
1.032049e+003, 9.959723e+002
1.032531e+003, 9.992419e+002
1.033013e+003, 1.000264e+003
1.033495e+003, 1.003266e+003
1.033977e+003, 1.009119e+003
1.034460e+003, 1.015235e+003
1.034942e+003, 1.021963e+003
1.035424e+003, 1.027319e+003
1.035906e+003, 1.028896e+003
1.036388e+003, 1.028205e+003
1.036870e+003, 1.029753e+003
1.037352e+003, 1.034681e+003
1.037834e+003, 1.037767e+003
1.038317e+003, 1.036358e+003
1.038799e+003, 1.037169e+003
1.039281e+003, 1.041902e+003
1.039763e+003, 1.049210e+003
1.040245e+003, 1.060537e+003
1.040727e+003, 1.073401e+003
1.041209e+003, 1.080611e+003
1.041691e+003, 1.080176e+003
1.042173e+003, 1.080341e+003
1.042656e+003, 1.079141e+003
1.043138e+003, 1.081376e+003
1.043620e+003, 1.090900e+003
1.044102e+003, 1.101790e+003
1.044584e+003, 1.109943e+003
1.045066e+003, 1.115943e+003
1.045548e+003, 1.121299e+003
1.046030e+003, 1.125815e+003
1.046512e+003, 1.130883e+003
1.046995e+003, 1.137904e+003
1.047477e+003, 1.143836e+003
1.047959e+003, 1.146298e+003
1.048441e+003, 1.148694e+003
1.048923e+003, 1.154265e+003
1.049405e+003, 1.161743e+003
1.049887e+003, 1.167477e+003
1.050369e+003, 1.170326e+003
1.050852e+003, 1.175300e+003
1.051334e+003, 1.185489e+003
1.051816e+003, 1.195179e+003
1.052298e+003, 1.200420e+003
1.052780e+003, 1.206221e+003
1.053262e+003, 1.218543e+003
1.053744e+003, 1.234203e+003
1.054226e+003, 1.245474e+003
1.054708e+003, 1.250682e+003
1.055191e+003, 1.255647e+003
1.055673e+003, 1.261304e+003
1.056155e+003, 1.267802e+003
1.056637e+003, 1.275310e+003
1.057119e+003, 1.283579e+003
1.057601e+003, 1.293300e+003
1.058083e+003, 1.303342e+003
1.058565e+003, 1.311487e+003
1.059047e+003, 1.317225e+003
1.059530e+003, 1.322161e+003
1.060012e+003, 1.323517e+003
1.060494e+003, 1.328397e+003
1.060976e+003, 1.343365e+003
1.061458e+003, 1.359761e+003
1.061940e+003, 1.370006e+003
1.062422e+003, 1.376467e+003
1.062904e+003, 1.384969e+003
1.063387e+003, 1.396604e+003
1.063869e+003, 1.407799e+003
1.064351e+003, 1.418468e+003
1.064833e+003, 1.426819e+003
1.065315e+003, 1.429907e+003
1.065797e+003, 1.432374e+003
1.066279e+003, 1.438235e+003
1.066761e+003, 1.446249e+003
1.067244e+003, 1.454357e+003
1.067726e+003, 1.461969e+003
1.068208e+003, 1.467205e+003
1.068690e+003, 1.465788e+003
1.069172e+003, 1.466563e+003
1.069654e+003, 1.476824e+003
1.070136e+003, 1.487711e+003
1.070618e+003, 1.490748e+003
1.071100e+003, 1.489963e+003
1.071583e+003, 1.492831e+003
1.072065e+003, 1.500160e+003
1.072547e+003, 1.506719e+003
1.073029e+003, 1.508749e+003
1.073511e+003, 1.512449e+003
1.073993e+003, 1.522480e+003
1.074475e+003, 1.533550e+003
1.074957e+003, 1.539933e+003
1.075439e+003, 1.545554e+003
1.075922e+003, 1.558329e+003
1.076404e+003, 1.577492e+003
1.076886e+003, 1.592305e+003
1.077368e+003, 1.597401e+003
1.077850e+003, 1.600718e+003
1.078332e+003, 1.605027e+003
1.078814e+003, 1.609989e+003
1.079297e+003, 1.617415e+003
1.079779e+003, 1.624035e+003
1.080261e+003, 1.624002e+003
1.080743e+003, 1.618691e+003
1.081225e+003, 1.616431e+003
1.081707e+003, 1.620950e+003
1.082189e+003, 1.625529e+003
1.082671e+003, 1.625750e+003
1.083153e+003, 1.626556e+003
1.083635e+003, 1.633218e+003
1.084118e+003, 1.640748e+003
1.084600e+003, 1.641388e+003
1.085082e+003, 1.637506e+003
1.085564e+003, 1.638814e+003
1.086046e+003, 1.648821e+003
1.086528e+003, 1.659877e+003
1.087010e+003, 1.670706e+003
1.087492e+003, 1.679353e+003
1.087975e+003, 1.682741e+003
1.088457e+003, 1.685075e+003
1.088939e+003, 1.689947e+003
1.089421e+003, 1.697543e+003
1.089903e+003, 1.707950e+003
1.090385e+003, 1.721536e+003
1.090867e+003, 1.733127e+003
1.091349e+003, 1.738081e+003
1.091832e+003, 1.743989e+003
1.092314e+003, 1.755713e+003
1.092796e+003, 1.768553e+003
1.093278e+003, 1.778629e+003
1.093760e+003, 1.786644e+003
1.094242e+003, 1.794317e+003
1.094724e+003, 1.801955e+003
1.095206e+003, 1.809926e+003
1.095688e+003, 1.817227e+003
1.096171e+003, 1.826386e+003
1.096653e+003, 1.842086e+003
1.097135e+003, 1.855989e+003
1.097617e+003, 1.857910e+003
1.098099e+003, 1.856746e+003
1.098581e+003, 1.867523e+003
1.099063e+003, 1.890519e+003
1.099545e+003, 1.910270e+003
1.100027e+003, 1.922956e+003
1.100510e+003, 1.932469e+003
1.100992e+003, 1.937247e+003
1.101474e+003, 1.942105e+003
1.101956e+003, 1.949263e+003
1.102438e+003, 1.958180e+003
1.102920e+003, 1.968391e+003
1.103402e+003, 1.979670e+003
1.103884e+003, 1.991461e+003
1.104367e+003, 2.004140e+003
1.104849e+003, 2.016135e+003
1.105331e+003, 2.026063e+003
1.105813e+003, 2.036610e+003
1.106295e+003, 2.049059e+003
1.106777e+003, 2.062373e+003
1.107259e+003, 2.075585e+003
1.107741e+003, 2.088780e+003
1.108224e+003, 2.102755e+003
1.108706e+003, 2.118565e+003
1.109188e+003, 2.130833e+003
1.109670e+003, 2.136349e+003
1.110152e+003, 2.142036e+003
1.110634e+003, 2.147651e+003
1.111116e+003, 2.155815e+003
1.111598e+003, 2.170902e+003
1.112080e+003, 2.188764e+003
1.112563e+003, 2.200480e+003
1.113045e+003, 2.204763e+003
1.113527e+003, 2.213973e+003
1.114009e+003, 2.233457e+003
1.114491e+003, 2.249163e+003
1.114973e+003, 2.255514e+003
1.115455e+003, 2.263583e+003
1.115937e+003, 2.279411e+003
1.116419e+003, 2.299163e+003
1.116902e+003, 2.319557e+003
1.117384e+003, 2.339939e+003
1.117866e+003, 2.352235e+003
1.118348e+003, 2.347650e+003
1.118830e+003, 2.356323e+003
1.119312e+003, 2.387619e+003
1.119794e+003, 2.415414e+003
1.120276e+003, 2.429342e+003
1.120759e+003, 2.437907e+003
1.121241e+003, 2.448251e+003
1.121723e+003, 2.460220e+003
1.122205e+003, 2.473320e+003
1.122687e+003, 2.487400e+003
1.123169e+003, 2.503934e+003
1.123651e+003, 2.524588e+003
1.124133e+003, 2.541590e+003
1.124615e+003, 2.551057e+003
1.125098e+003, 2.562797e+003
1.125580e+003, 2.584789e+003
1.126062e+003, 2.610931e+003
1.126544e+003, 2.628913e+003
1.127026e+003, 2.638885e+003
1.127508e+003, 2.650308e+003
1.127990e+003, 2.663039e+003
1.128472e+003, 2.678668e+003
1.128954e+003, 2.697628e+003
1.129437e+003, 2.718847e+003
1.129919e+003, 2.742388e+003
1.130401e+003, 2.765254e+003
1.130883e+003, 2.783749e+003
1.131365e+003, 2.798945e+003
1.131847e+003, 2.814973e+003
1.132329e+003, 2.831928e+003
1.132811e+003, 2.851256e+003
1.133294e+003, 2.873037e+003
1.133776e+003, 2.893688e+003
1.134258e+003, 2.912018e+003
1.134740e+003, 2.931273e+003
1.135222e+003, 2.954442e+003
1.135704e+003, 2.978974e+003
1.136186e+003, 2.999351e+003
1.136668e+003, 3.016677e+003
1.137151e+003, 3.035221e+003
1.137633e+003, 3.054738e+003
1.138115e+003, 3.072611e+003
1.138597e+003, 3.088761e+003
1.139079e+003, 3.107604e+003
1.139561e+003, 3.131515e+003
1.140043e+003, 3.157987e+003
1.140525e+003, 3.184551e+003
1.141007e+003, 3.211216e+003
1.141490e+003, 3.238345e+003
1.141972e+003, 3.265228e+003
1.142454e+003, 3.289951e+003
1.142936e+003, 3.312994e+003
1.143418e+003, 3.337558e+003
1.143900e+003, 3.364182e+003
1.144382e+003, 3.386710e+003
1.144864e+003, 3.396059e+003
1.145346e+003, 3.407880e+003
1.145829e+003, 3.444729e+003
1.146311e+003, 3.489131e+003
1.146793e+003, 3.518331e+003
1.147275e+003, 3.537771e+003
1.147757e+003, 3.561322e+003
1.148239e+003, 3.590320e+003
1.148721e+003, 3.616073e+003
1.149203e+003, 3.633794e+003
1.149686e+003, 3.652190e+003
1.150168e+003, 3.673944e+003
1.150650e+003, 3.701573e+003
1.151132e+003, 3.743042e+003
1.151614e+003, 3.786875e+003
1.152096e+003, 3.818213e+003
1.152578e+003, 3.841064e+003
1.153060e+003, 3.868794e+003
1.153542e+003, 3.904411e+003
1.154025e+003, 3.939368e+003
1.154507e+003, 3.969922e+003
1.154989e+003, 4.000235e+003
1.155471e+003, 4.033363e+003
1.155953e+003, 4.064877e+003
1.156435e+003, 4.090938e+003
1.156917e+003, 4.114457e+003
1.157399e+003, 4.137771e+003
1.157881e+003, 4.161797e+003
1.158364e+003, 4.192895e+003
1.158846e+003, 4.236208e+003
1.159328e+003, 4.277961e+003
1.159810e+003, 4.320212e+003
1.160292e+003, 4.356537e+003
1.160774e+003, 4.378747e+003
1.161256e+003, 4.401319e+003
1.161738e+003, 4.437655e+003
1.162221e+003, 4.481597e+003
1.162703e+003, 4.517608e+003
1.163185e+003, 4.543815e+003
1.163667e+003, 4.577790e+003
1.164149e+003, 4.622786e+003
1.164631e+003, 4.665676e+003
1.165113e+003, 4.703515e+003
1.165595e+003, 4.742148e+003
1.166078e+003, 4.785120e+003
1.166560e+003, 4.829318e+003
1.167042e+003, 4.871275e+003
1.167524e+003, 4.911413e+003
1.168006e+003, 4.951126e+003
1.168488e+003, 4.990669e+003
1.168970e+003, 5.029993e+003
1.169452e+003, 5.069240e+003
1.169934e+003, 5.106995e+003
1.170417e+003, 5.142815e+003
1.170899e+003, 5.182624e+003
1.171381e+003, 5.231003e+003
1.171863e+003, 5.283376e+003
1.172345e+003, 5.333158e+003
1.172827e+003, 5.380268e+003
1.173309e+003, 5.423222e+003
1.173791e+003, 5.462965e+003
1.174273e+003, 5.501757e+003
1.174756e+003, 5.541078e+003
1.175238e+003, 5.587315e+003
1.175720e+003, 5.642702e+003
1.176202e+003, 5.699072e+003
1.176684e+003, 5.748900e+003
1.177166e+003, 5.797310e+003
1.177648e+003, 5.853016e+003
1.178130e+003, 5.910577e+003
1.178613e+003, 5.959674e+003
1.179095e+003, 6.005692e+003
1.179577e+003, 6.063689e+003
1.180059e+003, 6.132353e+003
1.180541e+003, 6.193273e+003
1.181023e+003, 6.236639e+003
1.181505e+003, 6.282540e+003
1.181987e+003, 6.345688e+003
1.182469e+003, 6.412877e+003
1.182952e+003, 6.476460e+003
1.183434e+003, 6.538892e+003
1.183916e+003, 6.602445e+003
1.184398e+003, 6.667154e+003
1.184880e+003, 6.733071e+003
1.185362e+003, 6.799991e+003
1.185844e+003, 6.863018e+003
1.186326e+003, 6.908941e+003
1.186808e+003, 6.969062e+003
1.187291e+003, 7.059850e+003
1.187773e+003, 7.151927e+003
1.188255e+003, 7.236836e+003
1.188737e+003, 7.313535e+003
1.189219e+003, 7.376220e+003
1.189701e+003, 7.432190e+003
1.190183e+003, 7.505852e+003
1.190665e+003, 7.602346e+003
1.191148e+003, 7.690601e+003
1.191630e+003, 7.766835e+003
1.192112e+003, 7.846241e+003
1.192594e+003, 7.931192e+003
1.193076e+003, 8.020656e+003
1.193558e+003, 8.115102e+003
1.194040e+003, 8.210738e+003
1.194522e+003, 8.302311e+003
1.195005e+003, 8.390377e+003
1.195487e+003, 8.474135e+003
1.195969e+003, 8.553873e+003
1.196451e+003, 8.652457e+003
1.196933e+003, 8.770240e+003
1.197415e+003, 8.888688e+003
1.197897e+003, 9.003365e+003
1.198379e+003, 9.116812e+003
1.198861e+003, 9.231760e+003
1.199344e+003, 9.346670e+003
1.199826e+003, 9.459612e+003
1.200308e+003, 9.572247e+003
1.200790e+003, 9.687197e+003
1.201272e+003, 9.806189e+003
1.201754e+003, 9.934342e+003
1.202236e+003, 1.007051e+004
1.202718e+003, 1.021108e+004
1.203200e+003, 1.035465e+004
1.203683e+003, 1.049629e+004
1.204165e+003, 1.063245e+004
1.204647e+003, 1.076797e+004
1.205129e+003, 1.090164e+004
1.205611e+003, 1.104155e+004
1.206093e+003, 1.119781e+004
1.206575e+003, 1.136031e+004
1.207057e+003, 1.151095e+004
1.207540e+003, 1.165698e+004
1.208022e+003, 1.182778e+004
1.208504e+003, 1.203095e+004
1.208986e+003, 1.222437e+004
1.209468e+003, 1.238942e+004
1.209950e+003, 1.255765e+004
1.210432e+003, 1.273852e+004
1.210914e+003, 1.292200e+004
1.211396e+003, 1.309637e+004
1.211879e+003, 1.327772e+004
1.212361e+003, 1.348831e+004
1.212843e+003, 1.371975e+004
1.213325e+003, 1.393440e+004
1.213807e+003, 1.412562e+004
1.214289e+003, 1.432878e+004
1.214771e+003, 1.454589e+004
1.215253e+003, 1.476550e+004
1.215735e+003, 1.498284e+004
1.216218e+003, 1.520847e+004
1.216700e+003, 1.544910e+004
1.217182e+003, 1.569573e+004
1.217664e+003, 1.594004e+004
1.218146e+003, 1.618333e+004
1.218628e+003, 1.643309e+004
1.219110e+003, 1.668894e+004
1.219592e+003, 1.695700e+004
1.220075e+003, 1.723404e+004
1.220557e+003, 1.750602e+004
1.221039e+003, 1.777053e+004
1.221521e+003, 1.804365e+004
1.222003e+003, 1.833345e+004
1.222485e+003, 1.863082e+004
1.222967e+003, 1.893001e+004
1.223449e+003, 1.922843e+004
1.223932e+003, 1.952361e+004
1.224414e+003, 1.981587e+004
1.224896e+003, 2.010196e+004
1.225378e+003, 2.038763e+004
1.225860e+003, 2.068065e+004
1.226342e+003, 2.098449e+004
1.226824e+003, 2.129490e+004
1.227306e+003, 2.161418e+004
1.227788e+003, 2.193361e+004
1.228271e+003, 2.225082e+004
1.228753e+003, 2.256906e+004
1.229235e+003, 2.289382e+004
1.229717e+003, 2.321472e+004
1.230199e+003, 2.351600e+004
1.230681e+003, 2.380893e+004
1.231163e+003, 2.411804e+004
1.231645e+003, 2.444226e+004
1.232127e+003, 2.476016e+004
1.232610e+003, 2.507376e+004
1.233092e+003, 2.537389e+004
1.233574e+003, 2.566078e+004
1.234056e+003, 2.593527e+004
1.234538e+003, 2.619573e+004
1.235020e+003, 2.646008e+004
1.235502e+003, 2.674268e+004
1.235984e+003, 2.702538e+004
1.236467e+003, 2.726861e+004
1.236949e+003, 2.748360e+004
1.237431e+003, 2.771377e+004
1.237913e+003, 2.795546e+004
1.238395e+003, 2.819480e+004
1.238877e+003, 2.842685e+004
1.239359e+003, 2.864388e+004
1.239841e+003, 2.884228e+004
1.240323e+003, 2.902185e+004
1.240806e+003, 2.918005e+004
1.241288e+003, 2.932710e+004
1.241770e+003, 2.947387e+004
1.242252e+003, 2.961257e+004
1.242734e+003, 2.973383e+004
1.243216e+003, 2.984465e+004
1.243698e+003, 2.995757e+004
1.244180e+003, 3.006565e+004
1.244662e+003, 3.015523e+004
1.245145e+003, 3.022326e+004
1.245627e+003, 3.026553e+004
1.246109e+003, 3.026965e+004
1.246591e+003, 3.026874e+004
1.247073e+003, 3.026754e+004
1.247555e+003, 3.026400e+004
1.248037e+003, 3.027497e+004
1.248519e+003, 3.026241e+004
1.249002e+003, 3.019281e+004
1.249484e+003, 3.008831e+004
1.249966e+003, 2.998599e+004
1.250448e+003, 2.988616e+004
1.250930e+003, 2.979178e+004
1.251412e+003, 2.970355e+004
1.251894e+003, 2.961537e+004
1.252376e+003, 2.952699e+004
1.252859e+003, 2.941815e+004
1.253341e+003, 2.928311e+004
1.253823e+003, 2.913340e+004
1.254305e+003, 2.897676e+004
1.254787e+003, 2.881168e+004
1.255269e+003, 2.863135e+004
1.255751e+003, 2.844510e+004
1.256233e+003, 2.827032e+004
1.256715e+003, 2.809943e+004
1.257198e+003, 2.791461e+004
1.257680e+003, 2.771987e+004
1.258162e+003, 2.753094e+004
1.258644e+003, 2.734816e+004
1.259126e+003, 2.715296e+004
1.259608e+003, 2.693296e+004
1.260090e+003, 2.672004e+004
1.260572e+003, 2.654060e+004
1.261054e+003, 2.635673e+004
1.261537e+003, 2.615049e+004
1.262019e+003, 2.593417e+004
1.262501e+003, 2.571353e+004
1.262983e+003, 2.549068e+004
1.263465e+003, 2.526097e+004
1.263947e+003, 2.502916e+004
1.264429e+003, 2.482669e+004
1.264911e+003, 2.467024e+004
1.265394e+003, 2.448574e+004
1.265876e+003, 2.426516e+004
1.266358e+003, 2.404945e+004
1.266840e+003, 2.384753e+004
1.267322e+003, 2.365653e+004
1.267804e+003, 2.347506e+004
1.268286e+003, 2.329558e+004
1.268768e+003, 2.310706e+004
1.269250e+003, 2.291983e+004
1.269733e+003, 2.276937e+004
1.270215e+003, 2.263404e+004
1.270697e+003, 2.244869e+004
1.271179e+003, 2.223281e+004
1.271661e+003, 2.204266e+004
1.272143e+003, 2.188450e+004
1.272625e+003, 2.173708e+004
1.273107e+003, 2.159244e+004
1.273589e+003, 2.145148e+004
1.274072e+003, 2.132082e+004
1.274554e+003, 2.118669e+004
1.275036e+003, 2.103835e+004
1.275518e+003, 2.088853e+004
1.276000e+003, 2.074269e+004
1.276482e+003, 2.060234e+004
1.276964e+003, 2.046827e+004
1.277446e+003, 2.034442e+004
1.277929e+003, 2.023819e+004
1.278411e+003, 2.015255e+004
1.278893e+003, 2.005386e+004
1.279375e+003, 1.993932e+004
1.279857e+003, 1.982246e+004
1.280339e+003, 1.970266e+004
1.280821e+003, 1.959379e+004
1.281303e+003, 1.950188e+004
1.281786e+003, 1.942892e+004
1.282268e+003, 1.937372e+004
##END=



