##NAMES=Tundrite-(Nd)
##RRUFFID=R130565
##IDEAL CHEMISTRY=Na_2_Nd^3+^_2_Ti^4+^O_2_(SiO_4_)(CO_3_)_2_
##LOCALITY=Ilimaussaq complex, Narsaq, Kitaa, Greenland
##OWNER=RRUFF
##SOURCE=Rock Currier
##DESCRIPTION=Pale tan prismatic crystals associated with green to dark-green prismatic aegirine, white microcline, and pinkish fluorite.
##STATUS=The identification of this mineral has been confirmed only by single crystal X-ray diffraction.
##URL=rruff.info/R130565
8.806445e+001, 7.518271e+002
8.854657e+001, 7.306868e+002
8.902869e+001, 7.233764e+002
8.951080e+001, 7.375727e+002
8.999292e+001, 7.621462e+002
9.047504e+001, 7.860755e+002
9.095715e+001, 8.065462e+002
9.143927e+001, 8.263200e+002
9.192139e+001, 8.503262e+002
9.240350e+001, 8.784806e+002
9.288562e+001, 9.054573e+002
9.336774e+001, 9.222599e+002
9.384985e+001, 9.234318e+002
9.433197e+001, 9.122542e+002
9.481409e+001, 9.015782e+002
9.529620e+001, 8.893022e+002
9.577832e+001, 8.788413e+002
9.626044e+001, 8.707178e+002
9.674255e+001, 8.647941e+002
9.722467e+001, 8.612106e+002
9.770679e+001, 8.607484e+002
9.818890e+001, 8.594816e+002
9.867102e+001, 8.553037e+002
9.915314e+001, 8.507816e+002
9.963525e+001, 8.478021e+002
1.001174e+002, 8.471483e+002
1.005995e+002, 8.484655e+002
1.010816e+002, 8.507259e+002
1.015637e+002, 8.545682e+002
1.020458e+002, 8.586547e+002
1.025280e+002, 8.626379e+002
1.030101e+002, 8.665228e+002
1.034922e+002, 8.703589e+002
1.039743e+002, 8.740667e+002
1.044564e+002, 8.776454e+002
1.049385e+002, 8.824465e+002
1.054207e+002, 8.893631e+002
1.059028e+002, 8.963561e+002
1.063849e+002, 9.024351e+002
1.068670e+002, 9.075150e+002
1.073491e+002, 9.120460e+002
1.078312e+002, 9.166187e+002
1.083134e+002, 9.210997e+002
1.087955e+002, 9.239894e+002
1.092776e+002, 9.253083e+002
1.097597e+002, 9.248702e+002
1.102418e+002, 9.217274e+002
1.107239e+002, 9.146019e+002
1.112061e+002, 9.074196e+002
1.116882e+002, 9.043291e+002
1.121703e+002, 9.044430e+002
1.126524e+002, 9.042827e+002
1.131345e+002, 9.019691e+002
1.136166e+002, 8.975490e+002
1.140988e+002, 8.918351e+002
1.145809e+002, 8.826354e+002
1.150630e+002, 8.740601e+002
1.155451e+002, 8.680394e+002
1.160272e+002, 8.647750e+002
1.165093e+002, 8.638292e+002
1.169915e+002, 8.654870e+002
1.174736e+002, 8.719818e+002
1.179557e+002, 8.749982e+002
1.184378e+002, 8.712563e+002
1.189199e+002, 8.661537e+002
1.194020e+002, 8.632521e+002
1.198842e+002, 8.637693e+002
1.203663e+002, 8.666818e+002
1.208484e+002, 8.696940e+002
1.213305e+002, 8.727959e+002
1.218126e+002, 8.760013e+002
1.222947e+002, 8.798431e+002
1.227769e+002, 8.836467e+002
1.232590e+002, 8.865124e+002
1.237411e+002, 8.879618e+002
1.242232e+002, 8.881999e+002
1.247053e+002, 8.881599e+002
1.251874e+002, 8.884860e+002
1.256696e+002, 8.880011e+002
1.261517e+002, 8.852380e+002
1.266338e+002, 8.808932e+002
1.271159e+002, 8.778226e+002
1.275980e+002, 8.780699e+002
1.280801e+002, 8.811041e+002
1.285623e+002, 8.842140e+002
1.290444e+002, 8.888439e+002
1.295265e+002, 8.924633e+002
1.300086e+002, 8.917575e+002
1.304907e+002, 8.858654e+002
1.309728e+002, 8.799800e+002
1.314550e+002, 8.774535e+002
1.319371e+002, 8.770145e+002
1.324192e+002, 8.773578e+002
1.329013e+002, 8.786064e+002
1.333834e+002, 8.801628e+002
1.338655e+002, 8.800699e+002
1.343477e+002, 8.770684e+002
1.348298e+002, 8.741880e+002
1.353119e+002, 8.716110e+002
1.357940e+002, 8.700319e+002
1.362761e+002, 8.708641e+002
1.367582e+002, 8.760277e+002
1.372404e+002, 8.856917e+002
1.377225e+002, 8.922262e+002
1.382046e+002, 8.929330e+002
1.386867e+002, 8.926828e+002
1.391688e+002, 8.921642e+002
1.396509e+002, 8.918737e+002
1.401331e+002, 8.925421e+002
1.406152e+002, 8.952664e+002
1.410973e+002, 9.014134e+002
1.415794e+002, 9.043413e+002
1.420615e+002, 9.024330e+002
1.425436e+002, 8.992440e+002
1.430258e+002, 8.964790e+002
1.435079e+002, 8.946063e+002
1.439900e+002, 8.935503e+002
1.444721e+002, 8.930714e+002
1.449542e+002, 8.925856e+002
1.454363e+002, 8.948371e+002
1.459185e+002, 9.023856e+002
1.464006e+002, 9.117990e+002
1.468827e+002, 9.191658e+002
1.473648e+002, 9.232903e+002
1.478469e+002, 9.254742e+002
1.483290e+002, 9.278594e+002
1.488112e+002, 9.307477e+002
1.492933e+002, 9.323239e+002
1.497754e+002, 9.304084e+002
1.502575e+002, 9.264363e+002
1.507396e+002, 9.248799e+002
1.512217e+002, 9.281334e+002
1.517039e+002, 9.332028e+002
1.521860e+002, 9.361252e+002
1.526681e+002, 9.367116e+002
1.531502e+002, 9.367966e+002
1.536323e+002, 9.386758e+002
1.541144e+002, 9.424996e+002
1.545966e+002, 9.434232e+002
1.550787e+002, 9.359629e+002
1.555608e+002, 9.275273e+002
1.560429e+002, 9.233703e+002
1.565250e+002, 9.246043e+002
1.570071e+002, 9.284758e+002
1.574893e+002, 9.317687e+002
1.579714e+002, 9.352583e+002
1.584535e+002, 9.358094e+002
1.589356e+002, 9.307572e+002
1.594177e+002, 9.241342e+002
1.598998e+002, 9.187786e+002
1.603820e+002, 9.157930e+002
1.608641e+002, 9.146831e+002
1.613462e+002, 9.143304e+002
1.618283e+002, 9.147814e+002
1.623104e+002, 9.160995e+002
1.627925e+002, 9.191990e+002
1.632747e+002, 9.227661e+002
1.637568e+002, 9.252746e+002
1.642389e+002, 9.259261e+002
1.647210e+002, 9.252816e+002
1.652031e+002, 9.256720e+002
1.656852e+002, 9.272821e+002
1.661674e+002, 9.297267e+002
1.666495e+002, 9.341427e+002
1.671316e+002, 9.392941e+002
1.676137e+002, 9.425505e+002
1.680958e+002, 9.419183e+002
1.685779e+002, 9.385992e+002
1.690601e+002, 9.402682e+002
1.695422e+002, 9.511911e+002
1.700243e+002, 9.616105e+002
1.705064e+002, 9.662785e+002
1.709885e+002, 9.665975e+002
1.714706e+002, 9.686357e+002
1.719528e+002, 9.770726e+002
1.724349e+002, 9.901699e+002
1.729170e+002, 9.995218e+002
1.733991e+002, 1.001597e+003
1.738812e+002, 1.002792e+003
1.743633e+002, 1.008596e+003
1.748455e+002, 1.019131e+003
1.753276e+002, 1.029576e+003
1.758097e+002, 1.036570e+003
1.762918e+002, 1.041534e+003
1.767739e+002, 1.046980e+003
1.772560e+002, 1.053713e+003
1.777382e+002, 1.060923e+003
1.782203e+002, 1.067866e+003
1.787024e+002, 1.075001e+003
1.791845e+002, 1.080228e+003
1.796666e+002, 1.079590e+003
1.801487e+002, 1.077068e+003
1.806309e+002, 1.078199e+003
1.811130e+002, 1.086891e+003
1.815951e+002, 1.099816e+003
1.820772e+002, 1.107473e+003
1.825593e+002, 1.105557e+003
1.830414e+002, 1.105374e+003
1.835236e+002, 1.112355e+003
1.840057e+002, 1.122992e+003
1.844878e+002, 1.132364e+003
1.849699e+002, 1.137480e+003
1.854520e+002, 1.138944e+003
1.859341e+002, 1.140574e+003
1.864163e+002, 1.141704e+003
1.868984e+002, 1.143851e+003
1.873805e+002, 1.147286e+003
1.878626e+002, 1.151970e+003
1.883447e+002, 1.158001e+003
1.888268e+002, 1.165743e+003
1.893090e+002, 1.175065e+003
1.897911e+002, 1.182257e+003
1.902732e+002, 1.186351e+003
1.907553e+002, 1.189338e+003
1.912374e+002, 1.190683e+003
1.917195e+002, 1.191260e+003
1.922017e+002, 1.192683e+003
1.926838e+002, 1.196180e+003
1.931659e+002, 1.201842e+003
1.936480e+002, 1.208355e+003
1.941301e+002, 1.217317e+003
1.946122e+002, 1.225445e+003
1.950944e+002, 1.230820e+003
1.955765e+002, 1.233910e+003
1.960586e+002, 1.236823e+003
1.965407e+002, 1.241449e+003
1.970228e+002, 1.247832e+003
1.975049e+002, 1.251911e+003
1.979871e+002, 1.252247e+003
1.984692e+002, 1.251732e+003
1.989513e+002, 1.251943e+003
1.994334e+002, 1.252958e+003
1.999155e+002, 1.254319e+003
2.003976e+002, 1.255881e+003
2.008798e+002, 1.257528e+003
2.013619e+002, 1.258399e+003
2.018440e+002, 1.257581e+003
2.023261e+002, 1.256527e+003
2.028082e+002, 1.256222e+003
2.032903e+002, 1.256700e+003
2.037725e+002, 1.258507e+003
2.042546e+002, 1.263694e+003
2.047367e+002, 1.270673e+003
2.052188e+002, 1.274761e+003
2.057009e+002, 1.274367e+003
2.061830e+002, 1.270937e+003
2.066652e+002, 1.265082e+003
2.071473e+002, 1.255625e+003
2.076294e+002, 1.248491e+003
2.081115e+002, 1.249512e+003
2.085936e+002, 1.255320e+003
2.090757e+002, 1.261304e+003
2.095579e+002, 1.266734e+003
2.100400e+002, 1.270936e+003
2.105221e+002, 1.272266e+003
2.110042e+002, 1.269743e+003
2.114863e+002, 1.266450e+003
2.119685e+002, 1.263244e+003
2.124506e+002, 1.260438e+003
2.129327e+002, 1.258654e+003
2.134148e+002, 1.258492e+003
2.138969e+002, 1.259393e+003
2.143790e+002, 1.259543e+003
2.148612e+002, 1.258271e+003
2.153433e+002, 1.257366e+003
2.158254e+002, 1.257339e+003
2.163075e+002, 1.258022e+003
2.167896e+002, 1.259269e+003
2.172717e+002, 1.261110e+003
2.177539e+002, 1.263366e+003
2.182360e+002, 1.265224e+003
2.187181e+002, 1.266757e+003
2.192002e+002, 1.267703e+003
2.196823e+002, 1.267508e+003
2.201644e+002, 1.266840e+003
2.206466e+002, 1.266294e+003
2.211287e+002, 1.266021e+003
2.216108e+002, 1.266436e+003
2.220929e+002, 1.270042e+003
2.225750e+002, 1.281776e+003
2.230571e+002, 1.291390e+003
2.235393e+002, 1.296361e+003
2.240214e+002, 1.298283e+003
2.245035e+002, 1.298851e+003
2.249856e+002, 1.298777e+003
2.254677e+002, 1.298831e+003
2.259498e+002, 1.304042e+003
2.264320e+002, 1.320969e+003
2.269141e+002, 1.336070e+003
2.273962e+002, 1.347041e+003
2.278783e+002, 1.354785e+003
2.283604e+002, 1.360624e+003
2.288425e+002, 1.365117e+003
2.293247e+002, 1.368750e+003
2.298068e+002, 1.374445e+003
2.302889e+002, 1.382232e+003
2.307710e+002, 1.391816e+003
2.312531e+002, 1.404729e+003
2.317352e+002, 1.419281e+003
2.322174e+002, 1.432304e+003
2.326995e+002, 1.441845e+003
2.331816e+002, 1.449094e+003
2.336637e+002, 1.459471e+003
2.341458e+002, 1.474533e+003
2.346279e+002, 1.490241e+003
2.351101e+002, 1.505676e+003
2.355922e+002, 1.521050e+003
2.360743e+002, 1.536853e+003
2.365564e+002, 1.553243e+003
2.370385e+002, 1.570188e+003
2.375206e+002, 1.587108e+003
2.380028e+002, 1.603809e+003
2.384849e+002, 1.620866e+003
2.389670e+002, 1.639238e+003
2.394491e+002, 1.658031e+003
2.399312e+002, 1.675186e+003
2.404133e+002, 1.689181e+003
2.408955e+002, 1.701713e+003
2.413776e+002, 1.716670e+003
2.418597e+002, 1.734197e+003
2.423418e+002, 1.752934e+003
2.428239e+002, 1.772950e+003
2.433060e+002, 1.793731e+003
2.437882e+002, 1.814246e+003
2.442703e+002, 1.834440e+003
2.447524e+002, 1.853496e+003
2.452345e+002, 1.868983e+003
2.457166e+002, 1.879466e+003
2.461987e+002, 1.893127e+003
2.466809e+002, 1.917210e+003
2.471630e+002, 1.948245e+003
2.476451e+002, 1.974325e+003
2.481272e+002, 1.989782e+003
2.486093e+002, 2.002068e+003
2.490914e+002, 2.020141e+003
2.495736e+002, 2.043865e+003
2.500557e+002, 2.069091e+003
2.505378e+002, 2.095307e+003
2.510199e+002, 2.121533e+003
2.515020e+002, 2.143261e+003
2.519841e+002, 2.156996e+003
2.524663e+002, 2.169722e+003
2.529484e+002, 2.187833e+003
2.534305e+002, 2.210845e+003
2.539126e+002, 2.235539e+003
2.543947e+002, 2.261617e+003
2.548768e+002, 2.288353e+003
2.553590e+002, 2.311301e+003
2.558411e+002, 2.327806e+003
2.563232e+002, 2.343536e+003
2.568053e+002, 2.362760e+003
2.572874e+002, 2.384719e+003
2.577695e+002, 2.406714e+003
2.582516e+002, 2.426952e+003
2.587338e+002, 2.445863e+003
2.592159e+002, 2.464984e+003
2.596980e+002, 2.484449e+003
2.601801e+002, 2.504113e+003
2.606622e+002, 2.522996e+003
2.611443e+002, 2.541909e+003
2.616265e+002, 2.562876e+003
2.621086e+002, 2.588762e+003
2.625907e+002, 2.617832e+003
2.630728e+002, 2.641028e+003
2.635549e+002, 2.654371e+003
2.640370e+002, 2.667795e+003
2.645192e+002, 2.684443e+003
2.650013e+002, 2.703979e+003
2.654834e+002, 2.726066e+003
2.659655e+002, 2.751255e+003
2.664476e+002, 2.778464e+003
2.669297e+002, 2.804185e+003
2.674119e+002, 2.827221e+003
2.678940e+002, 2.850533e+003
2.683761e+002, 2.874852e+003
2.688582e+002, 2.899920e+003
2.693403e+002, 2.925669e+003
2.698224e+002, 2.952067e+003
2.703046e+002, 2.978849e+003
2.707867e+002, 3.004789e+003
2.712688e+002, 3.027091e+003
2.717509e+002, 3.053902e+003
2.722330e+002, 3.088895e+003
2.727151e+002, 3.127524e+003
2.731973e+002, 3.165860e+003
2.736794e+002, 3.202401e+003
2.741615e+002, 3.237433e+003
2.746436e+002, 3.271344e+003
2.751257e+002, 3.301367e+003
2.756078e+002, 3.336072e+003
2.760900e+002, 3.378868e+003
2.765721e+002, 3.424339e+003
2.770542e+002, 3.467789e+003
2.775363e+002, 3.507962e+003
2.780184e+002, 3.546731e+003
2.785005e+002, 3.587310e+003
2.789827e+002, 3.631626e+003
2.794648e+002, 3.673289e+003
2.799469e+002, 3.712771e+003
2.804290e+002, 3.749554e+003
2.809111e+002, 3.781822e+003
2.813932e+002, 3.809908e+003
2.818754e+002, 3.837001e+003
2.823575e+002, 3.867687e+003
2.828396e+002, 3.904240e+003
2.833217e+002, 3.937645e+003
2.838038e+002, 3.969007e+003
2.842859e+002, 3.996876e+003
2.847681e+002, 4.018985e+003
2.852502e+002, 4.036155e+003
2.857323e+002, 4.051581e+003
2.862144e+002, 4.068314e+003
2.866965e+002, 4.086391e+003
2.871786e+002, 4.105857e+003
2.876608e+002, 4.133763e+003
2.881429e+002, 4.156535e+003
2.886250e+002, 4.167169e+003
2.891071e+002, 4.167451e+003
2.895892e+002, 4.163411e+003
2.900714e+002, 4.159436e+003
2.905535e+002, 4.155519e+003
2.910356e+002, 4.153657e+003
2.915177e+002, 4.154705e+003
2.919998e+002, 4.156922e+003
2.924819e+002, 4.161013e+003
2.929641e+002, 4.165893e+003
2.934462e+002, 4.169821e+003
2.939283e+002, 4.171716e+003
2.944104e+002, 4.171701e+003
2.948925e+002, 4.170702e+003
2.953746e+002, 4.167677e+003
2.958568e+002, 4.164746e+003
2.963389e+002, 4.162426e+003
2.968210e+002, 4.160277e+003
2.973031e+002, 4.157447e+003
2.977852e+002, 4.153481e+003
2.982673e+002, 4.149063e+003
2.987495e+002, 4.146235e+003
2.992316e+002, 4.144234e+003
2.997137e+002, 4.145115e+003
3.001958e+002, 4.149190e+003
3.006779e+002, 4.155977e+003
3.011600e+002, 4.166106e+003
3.016422e+002, 4.179525e+003
3.021243e+002, 4.193653e+003
3.026064e+002, 4.203639e+003
3.030885e+002, 4.206376e+003
3.035706e+002, 4.210140e+003
3.040527e+002, 4.213149e+003
3.045349e+002, 4.218209e+003
3.050170e+002, 4.229060e+003
3.054991e+002, 4.245519e+003
3.059812e+002, 4.262583e+003
3.064633e+002, 4.273882e+003
3.069454e+002, 4.277167e+003
3.074276e+002, 4.282317e+003
3.079097e+002, 4.291716e+003
3.083918e+002, 4.300615e+003
3.088739e+002, 4.304562e+003
3.093560e+002, 4.304899e+003
3.098381e+002, 4.307579e+003
3.103203e+002, 4.318422e+003
3.108024e+002, 4.338136e+003
3.112845e+002, 4.354099e+003
3.117666e+002, 4.368106e+003
3.122487e+002, 4.377272e+003
3.127308e+002, 4.376422e+003
3.132130e+002, 4.369921e+003
3.136951e+002, 4.367540e+003
3.141772e+002, 4.376218e+003
3.146593e+002, 4.393442e+003
3.151414e+002, 4.401441e+003
3.156235e+002, 4.394039e+003
3.161057e+002, 4.384434e+003
3.165878e+002, 4.372611e+003
3.170699e+002, 4.360345e+003
3.175520e+002, 4.350987e+003
3.180341e+002, 4.346128e+003
3.185162e+002, 4.342211e+003
3.189984e+002, 4.330105e+003
3.194805e+002, 4.300653e+003
3.199626e+002, 4.274477e+003
3.204447e+002, 4.255999e+003
3.209268e+002, 4.238653e+003
3.214089e+002, 4.215101e+003
3.218911e+002, 4.183837e+003
3.223732e+002, 4.151014e+003
3.228553e+002, 4.126238e+003
3.233374e+002, 4.117142e+003
3.238195e+002, 4.097085e+003
3.243016e+002, 4.058368e+003
3.247838e+002, 4.016473e+003
3.252659e+002, 3.980504e+003
3.257480e+002, 3.951191e+003
3.262301e+002, 3.925286e+003
3.267122e+002, 3.900030e+003
3.271943e+002, 3.876177e+003
3.276765e+002, 3.847053e+003
3.281586e+002, 3.805629e+003
3.286407e+002, 3.766723e+003
3.291228e+002, 3.737896e+003
3.296049e+002, 3.715997e+003
3.300870e+002, 3.692958e+003
3.305692e+002, 3.663145e+003
3.310513e+002, 3.627589e+003
3.315334e+002, 3.594920e+003
3.320155e+002, 3.568036e+003
3.324976e+002, 3.540585e+003
3.329797e+002, 3.511650e+003
3.334619e+002, 3.481671e+003
3.339440e+002, 3.451009e+003
3.344261e+002, 3.419776e+003
3.349082e+002, 3.388661e+003
3.353904e+002, 3.359081e+003
3.358725e+002, 3.334075e+003
3.363546e+002, 3.306015e+003
3.368367e+002, 3.269198e+003
3.373188e+002, 3.232836e+003
3.378009e+002, 3.205811e+003
3.382831e+002, 3.189391e+003
3.387652e+002, 3.176869e+003
3.392473e+002, 3.159397e+003
3.397294e+002, 3.134829e+003
3.402115e+002, 3.111678e+003
3.406936e+002, 3.089000e+003
3.411758e+002, 3.068273e+003
3.416579e+002, 3.051280e+003
3.421400e+002, 3.037116e+003
3.426221e+002, 3.023196e+003
3.431042e+002, 3.007240e+003
3.435863e+002, 2.989242e+003
3.440685e+002, 2.971734e+003
3.445506e+002, 2.953797e+003
3.450327e+002, 2.937484e+003
3.455148e+002, 2.925029e+003
3.459969e+002, 2.914221e+003
3.464790e+002, 2.901426e+003
3.469612e+002, 2.884382e+003
3.474433e+002, 2.864917e+003
3.479254e+002, 2.848470e+003
3.484075e+002, 2.836572e+003
3.488896e+002, 2.825691e+003
3.493717e+002, 2.816330e+003
3.498539e+002, 2.807135e+003
3.503360e+002, 2.795935e+003
3.508181e+002, 2.782386e+003
3.513002e+002, 2.769411e+003
3.517823e+002, 2.761841e+003
3.522644e+002, 2.761540e+003
3.527466e+002, 2.760630e+003
3.532287e+002, 2.758209e+003
3.537108e+002, 2.755468e+003
3.541929e+002, 2.753332e+003
3.546750e+002, 2.751593e+003
3.551571e+002, 2.749023e+003
3.556393e+002, 2.743500e+003
3.561214e+002, 2.735056e+003
3.566035e+002, 2.731715e+003
3.570856e+002, 2.739833e+003
3.575677e+002, 2.745552e+003
3.580498e+002, 2.741165e+003
3.585320e+002, 2.731523e+003
3.590141e+002, 2.725300e+003
3.594962e+002, 2.727783e+003
3.599783e+002, 2.735749e+003
3.604604e+002, 2.740745e+003
3.609425e+002, 2.742052e+003
3.614247e+002, 2.741957e+003
3.619068e+002, 2.739135e+003
3.623889e+002, 2.736352e+003
3.628710e+002, 2.736058e+003
3.633531e+002, 2.738913e+003
3.638352e+002, 2.744105e+003
3.643174e+002, 2.751465e+003
3.647995e+002, 2.761331e+003
3.652816e+002, 2.770023e+003
3.657637e+002, 2.777333e+003
3.662458e+002, 2.782712e+003
3.667279e+002, 2.784868e+003
3.672101e+002, 2.784331e+003
3.676922e+002, 2.784197e+003
3.681743e+002, 2.786446e+003
3.686564e+002, 2.790862e+003
3.691385e+002, 2.796294e+003
3.696206e+002, 2.802404e+003
3.701028e+002, 2.810337e+003
3.705849e+002, 2.822146e+003
3.710670e+002, 2.835950e+003
3.715491e+002, 2.848039e+003
3.720312e+002, 2.855644e+003
3.725133e+002, 2.862546e+003
3.729955e+002, 2.876250e+003
3.734776e+002, 2.897906e+003
3.739597e+002, 2.914492e+003
3.744418e+002, 2.915672e+003
3.749239e+002, 2.911654e+003
3.754060e+002, 2.915509e+003
3.758882e+002, 2.929481e+003
3.763703e+002, 2.946176e+003
3.768524e+002, 2.961635e+003
3.773345e+002, 2.975834e+003
3.778166e+002, 2.988479e+003
3.782987e+002, 2.998741e+003
3.787809e+002, 3.008840e+003
3.792630e+002, 3.021693e+003
3.797451e+002, 3.036961e+003
3.802272e+002, 3.051657e+003
3.807093e+002, 3.065242e+003
3.811914e+002, 3.077478e+003
3.816736e+002, 3.087088e+003
3.821557e+002, 3.093788e+003
3.826378e+002, 3.101610e+003
3.831199e+002, 3.114468e+003
3.836020e+002, 3.130890e+003
3.840841e+002, 3.143964e+003
3.845663e+002, 3.149491e+003
3.850484e+002, 3.155763e+003
3.855305e+002, 3.167809e+003
3.860126e+002, 3.184555e+003
3.864947e+002, 3.203515e+003
3.869768e+002, 3.224646e+003
3.874590e+002, 3.245390e+003
3.879411e+002, 3.259341e+003
3.884232e+002, 3.264695e+003
3.889053e+002, 3.270285e+003
3.893874e+002, 3.278628e+003
3.898695e+002, 3.287739e+003
3.903517e+002, 3.293852e+003
3.908338e+002, 3.296619e+003
3.913159e+002, 3.302012e+003
3.917980e+002, 3.317585e+003
3.922801e+002, 3.345379e+003
3.927622e+002, 3.363979e+003
3.932444e+002, 3.365961e+003
3.937265e+002, 3.366675e+003
3.942086e+002, 3.374062e+003
3.946907e+002, 3.386667e+003
3.951728e+002, 3.399401e+003
3.956549e+002, 3.409168e+003
3.961371e+002, 3.417003e+003
3.966192e+002, 3.426701e+003
3.971013e+002, 3.444616e+003
3.975834e+002, 3.456384e+003
3.980655e+002, 3.454025e+003
3.985476e+002, 3.448499e+003
3.990298e+002, 3.451945e+003
3.995119e+002, 3.467056e+003
3.999940e+002, 3.486178e+003
4.004761e+002, 3.498792e+003
4.009582e+002, 3.502263e+003
4.014403e+002, 3.508369e+003
4.019225e+002, 3.517385e+003
4.024046e+002, 3.528351e+003
4.028867e+002, 3.543611e+003
4.033688e+002, 3.560583e+003
4.038509e+002, 3.573302e+003
4.043330e+002, 3.576994e+003
4.048152e+002, 3.573695e+003
4.052973e+002, 3.575208e+003
4.057794e+002, 3.584974e+003
4.062615e+002, 3.594635e+003
4.067436e+002, 3.602520e+003
4.072257e+002, 3.609594e+003
4.077079e+002, 3.616958e+003
4.081900e+002, 3.624964e+003
4.086721e+002, 3.632732e+003
4.091542e+002, 3.638974e+003
4.096363e+002, 3.643527e+003
4.101184e+002, 3.647700e+003
4.106006e+002, 3.649854e+003
4.110827e+002, 3.653334e+003
4.115648e+002, 3.660280e+003
4.120469e+002, 3.670170e+003
4.125290e+002, 3.680832e+003
4.130111e+002, 3.690638e+003
4.134933e+002, 3.700214e+003
4.139754e+002, 3.712556e+003
4.144575e+002, 3.729989e+003
4.149396e+002, 3.743970e+003
4.154217e+002, 3.744336e+003
4.159038e+002, 3.741215e+003
4.163860e+002, 3.747629e+003
4.168681e+002, 3.768907e+003
4.173502e+002, 3.792234e+003
4.178323e+002, 3.806069e+003
4.183144e+002, 3.811025e+003
4.187965e+002, 3.810366e+003
4.192787e+002, 3.799867e+003
4.197608e+002, 3.791401e+003
4.202429e+002, 3.800691e+003
4.207250e+002, 3.826046e+003
4.212071e+002, 3.848654e+003
4.216892e+002, 3.860708e+003
4.221714e+002, 3.867028e+003
4.226535e+002, 3.873927e+003
4.231356e+002, 3.881870e+003
4.236177e+002, 3.888262e+003
4.240998e+002, 3.890550e+003
4.245819e+002, 3.889960e+003
4.250641e+002, 3.892037e+003
4.255462e+002, 3.899081e+003
4.260283e+002, 3.905859e+003
4.265104e+002, 3.910604e+003
4.269925e+002, 3.913470e+003
4.274746e+002, 3.914207e+003
4.279568e+002, 3.912546e+003
4.284389e+002, 3.910405e+003
4.289210e+002, 3.911097e+003
4.294031e+002, 3.917154e+003
4.298852e+002, 3.918391e+003
4.303673e+002, 3.911536e+003
4.308495e+002, 3.902482e+003
4.313316e+002, 3.895060e+003
4.318137e+002, 3.889289e+003
4.322958e+002, 3.883260e+003
4.327779e+002, 3.875490e+003
4.332600e+002, 3.866253e+003
4.337422e+002, 3.857974e+003
4.342243e+002, 3.852971e+003
4.347064e+002, 3.846093e+003
4.351885e+002, 3.835539e+003
4.356706e+002, 3.823323e+003
4.361527e+002, 3.811713e+003
4.366349e+002, 3.801359e+003
4.371170e+002, 3.791286e+003
4.375991e+002, 3.780325e+003
4.380812e+002, 3.768737e+003
4.385633e+002, 3.755257e+003
4.390454e+002, 3.738400e+003
4.395276e+002, 3.721122e+003
4.400097e+002, 3.703602e+003
4.404918e+002, 3.686669e+003
4.409739e+002, 3.671775e+003
4.414560e+002, 3.660491e+003
4.419381e+002, 3.651189e+003
4.424203e+002, 3.638873e+003
4.429024e+002, 3.622885e+003
4.433845e+002, 3.605810e+003
4.438666e+002, 3.587948e+003
4.443487e+002, 3.569654e+003
4.448308e+002, 3.550977e+003
4.453130e+002, 3.531979e+003
4.457951e+002, 3.512885e+003
4.462772e+002, 3.493252e+003
4.467593e+002, 3.473467e+003
4.472414e+002, 3.456214e+003
4.477235e+002, 3.443116e+003
4.482057e+002, 3.429917e+003
4.486878e+002, 3.412950e+003
4.491699e+002, 3.393323e+003
4.496520e+002, 3.373689e+003
4.501341e+002, 3.354302e+003
4.506162e+002, 3.335427e+003
4.510984e+002, 3.316964e+003
4.515805e+002, 3.299061e+003
4.520626e+002, 3.283231e+003
4.525447e+002, 3.271201e+003
4.530268e+002, 3.259938e+003
4.535089e+002, 3.242865e+003
4.539911e+002, 3.218717e+003
4.544732e+002, 3.196177e+003
4.549553e+002, 3.177357e+003
4.554374e+002, 3.160942e+003
4.559195e+002, 3.146320e+003
4.564016e+002, 3.133040e+003
4.568838e+002, 3.119427e+003
4.573659e+002, 3.103933e+003
4.578480e+002, 3.086712e+003
4.583301e+002, 3.070195e+003
4.588122e+002, 3.054115e+003
4.592943e+002, 3.038833e+003
4.597765e+002, 3.023965e+003
4.602586e+002, 3.010063e+003
4.607407e+002, 2.998676e+003
4.612228e+002, 2.990132e+003
4.617049e+002, 2.981579e+003
4.621870e+002, 2.968210e+003
4.626692e+002, 2.947530e+003
4.631513e+002, 2.930197e+003
4.636334e+002, 2.918959e+003
4.641155e+002, 2.908294e+003
4.645976e+002, 2.893702e+003
4.650797e+002, 2.877919e+003
4.655619e+002, 2.867548e+003
4.660440e+002, 2.867550e+003
4.665261e+002, 2.873567e+003
4.670082e+002, 2.873461e+003
4.674903e+002, 2.865607e+003
4.679724e+002, 2.856002e+003
4.684546e+002, 2.843591e+003
4.689367e+002, 2.831667e+003
4.694188e+002, 2.822990e+003
4.699009e+002, 2.817648e+003
4.703830e+002, 2.813310e+003
4.708651e+002, 2.807727e+003
4.713473e+002, 2.801618e+003
4.718294e+002, 2.798594e+003
4.723115e+002, 2.800496e+003
4.727936e+002, 2.800326e+003
4.732757e+002, 2.791607e+003
4.737578e+002, 2.777950e+003
4.742400e+002, 2.766036e+003
4.747221e+002, 2.757608e+003
4.752042e+002, 2.749794e+003
4.756863e+002, 2.739449e+003
4.761684e+002, 2.728072e+003
4.766505e+002, 2.720784e+003
4.771327e+002, 2.719664e+003
4.776148e+002, 2.720274e+003
4.780969e+002, 2.716745e+003
4.785790e+002, 2.708328e+003
4.790611e+002, 2.701362e+003
4.795432e+002, 2.697770e+003
4.800254e+002, 2.694357e+003
4.805075e+002, 2.687899e+003
4.809896e+002, 2.679741e+003
4.814717e+002, 2.674411e+003
4.819538e+002, 2.674640e+003
4.824359e+002, 2.678241e+003
4.829181e+002, 2.678911e+003
4.834002e+002, 2.673847e+003
4.838823e+002, 2.669815e+003
4.843644e+002, 2.669479e+003
4.848465e+002, 2.668214e+003
4.853286e+002, 2.660775e+003
4.858108e+002, 2.648296e+003
4.862929e+002, 2.637291e+003
4.867750e+002, 2.633344e+003
4.872571e+002, 2.635877e+003
4.877392e+002, 2.640238e+003
4.882213e+002, 2.649504e+003
4.887035e+002, 2.655330e+003
4.891856e+002, 2.652334e+003
4.896677e+002, 2.646919e+003
4.901498e+002, 2.646128e+003
4.906319e+002, 2.651665e+003
4.911140e+002, 2.658562e+003
4.915962e+002, 2.661428e+003
4.920783e+002, 2.660892e+003
4.925604e+002, 2.662406e+003
4.930425e+002, 2.667735e+003
4.935246e+002, 2.672770e+003
4.940067e+002, 2.673239e+003
4.944889e+002, 2.671175e+003
4.949710e+002, 2.671259e+003
4.954531e+002, 2.676099e+003
4.959352e+002, 2.681610e+003
4.964173e+002, 2.683980e+003
4.968994e+002, 2.684165e+003
4.973816e+002, 2.686092e+003
4.978637e+002, 2.691513e+003
4.983458e+002, 2.697655e+003
4.988279e+002, 2.700087e+003
4.993100e+002, 2.697660e+003
4.997921e+002, 2.697414e+003
5.002743e+002, 2.700025e+003
5.007564e+002, 2.704707e+003
5.012385e+002, 2.712603e+003
5.017206e+002, 2.722290e+003
5.022027e+002, 2.729476e+003
5.026848e+002, 2.731477e+003
5.031670e+002, 2.730631e+003
5.036491e+002, 2.734015e+003
5.041312e+002, 2.746553e+003
5.046133e+002, 2.755335e+003
5.050954e+002, 2.756415e+003
5.055775e+002, 2.756811e+003
5.060597e+002, 2.760785e+003
5.065418e+002, 2.768688e+003
5.070239e+002, 2.779145e+003
5.075060e+002, 2.791792e+003
5.079881e+002, 2.805846e+003
5.084702e+002, 2.817812e+003
5.089524e+002, 2.828193e+003
5.094345e+002, 2.835258e+003
5.099166e+002, 2.833629e+003
5.103987e+002, 2.831214e+003
5.108808e+002, 2.836264e+003
5.113629e+002, 2.850107e+003
5.118451e+002, 2.864443e+003
5.123271e+002, 2.874612e+003
5.128093e+002, 2.880454e+003
5.132914e+002, 2.879583e+003
5.137735e+002, 2.870263e+003
5.142556e+002, 2.862383e+003
5.147377e+002, 2.863997e+003
5.152198e+002, 2.872493e+003
5.157020e+002, 2.878061e+003
5.161841e+002, 2.879593e+003
5.166662e+002, 2.879413e+003
5.171483e+002, 2.877368e+003
5.176304e+002, 2.874590e+003
5.181125e+002, 2.872943e+003
5.185947e+002, 2.872878e+003
5.190768e+002, 2.873732e+003
5.195589e+002, 2.874939e+003
5.200410e+002, 2.876618e+003
5.205231e+002, 2.877444e+003
5.210052e+002, 2.874574e+003
5.214874e+002, 2.874165e+003
5.219695e+002, 2.879236e+003
5.224516e+002, 2.887624e+003
5.229337e+002, 2.897255e+003
5.234158e+002, 2.907186e+003
5.238979e+002, 2.915031e+003
5.243801e+002, 2.916316e+003
5.248622e+002, 2.909392e+003
5.253443e+002, 2.904615e+003
5.258264e+002, 2.903029e+003
5.263085e+002, 2.902929e+003
5.267906e+002, 2.903297e+003
5.272728e+002, 2.904585e+003
5.277549e+002, 2.907868e+003
5.282370e+002, 2.914002e+003
5.287191e+002, 2.921361e+003
5.292012e+002, 2.927832e+003
5.296833e+002, 2.933497e+003
5.301655e+002, 2.940043e+003
5.306476e+002, 2.948984e+003
5.311297e+002, 2.957093e+003
5.316118e+002, 2.959239e+003
5.320939e+002, 2.956404e+003
5.325760e+002, 2.955983e+003
5.330582e+002, 2.961952e+003
5.335403e+002, 2.968713e+003
5.340224e+002, 2.971735e+003
5.345045e+002, 2.971913e+003
5.349866e+002, 2.971742e+003
5.354688e+002, 2.972047e+003
5.359509e+002, 2.974243e+003
5.364330e+002, 2.981648e+003
5.369151e+002, 2.999657e+003
5.373972e+002, 3.009571e+003
5.378793e+002, 3.006013e+003
5.383615e+002, 3.000151e+003
5.388436e+002, 2.997114e+003
5.393257e+002, 2.996875e+003
5.398078e+002, 2.997703e+003
5.402899e+002, 2.998579e+003
5.407720e+002, 3.000177e+003
5.412542e+002, 3.005098e+003
5.417363e+002, 3.015687e+003
5.422184e+002, 3.021476e+003
5.427005e+002, 3.014924e+003
5.431826e+002, 3.008126e+003
5.436647e+002, 3.009611e+003
5.441469e+002, 3.017485e+003
5.446290e+002, 3.023123e+003
5.451111e+002, 3.021628e+003
5.455932e+002, 3.015853e+003
5.460753e+002, 3.008302e+003
5.465574e+002, 2.999188e+003
5.470396e+002, 2.994307e+003
5.475217e+002, 2.996905e+003
5.480038e+002, 3.003342e+003
5.484859e+002, 3.008824e+003
5.489680e+002, 3.013668e+003
5.494501e+002, 3.015944e+003
5.499323e+002, 3.013843e+003
5.504144e+002, 3.010252e+003
5.508965e+002, 3.006776e+003
5.513786e+002, 3.003773e+003
5.518607e+002, 3.001559e+003
5.523428e+002, 3.000274e+003
5.528250e+002, 3.000061e+003
5.533071e+002, 3.001752e+003
5.537892e+002, 3.010566e+003
5.542713e+002, 3.011463e+003
5.547534e+002, 2.998941e+003
5.552355e+002, 2.984619e+003
5.557177e+002, 2.973420e+003
5.561998e+002, 2.966081e+003
5.566819e+002, 2.962678e+003
5.571640e+002, 2.963942e+003
5.576461e+002, 2.967759e+003
5.581282e+002, 2.969960e+003
5.586104e+002, 2.970645e+003
5.590925e+002, 2.969021e+003
5.595746e+002, 2.963453e+003
5.600567e+002, 2.956850e+003
5.605388e+002, 2.952401e+003
5.610209e+002, 2.949664e+003
5.615031e+002, 2.945222e+003
5.619852e+002, 2.936348e+003
5.624673e+002, 2.926264e+003
5.629494e+002, 2.918474e+003
5.634315e+002, 2.912562e+003
5.639136e+002, 2.905730e+003
5.643958e+002, 2.896242e+003
5.648779e+002, 2.887177e+003
5.653600e+002, 2.884820e+003
5.658421e+002, 2.894835e+003
5.663242e+002, 2.894510e+003
5.668063e+002, 2.873720e+003
5.672885e+002, 2.852327e+003
5.677706e+002, 2.842767e+003
5.682527e+002, 2.841188e+003
5.687348e+002, 2.837632e+003
5.692169e+002, 2.827132e+003
5.696990e+002, 2.813704e+003
5.701812e+002, 2.805445e+003
5.706633e+002, 2.803828e+003
5.711454e+002, 2.801548e+003
5.716275e+002, 2.797614e+003
5.721096e+002, 2.793355e+003
5.725917e+002, 2.789074e+003
5.730739e+002, 2.785027e+003
5.735560e+002, 2.781821e+003
5.740381e+002, 2.780046e+003
5.745202e+002, 2.778533e+003
5.750023e+002, 2.777002e+003
5.754844e+002, 2.774935e+003
5.759666e+002, 2.769122e+003
5.764487e+002, 2.758248e+003
5.769308e+002, 2.745009e+003
5.774129e+002, 2.730719e+003
5.778950e+002, 2.715486e+003
5.783771e+002, 2.705906e+003
5.788593e+002, 2.706765e+003
5.793414e+002, 2.708233e+003
5.798235e+002, 2.705792e+003
5.803056e+002, 2.701055e+003
5.807877e+002, 2.696425e+003
5.812698e+002, 2.692746e+003
5.817520e+002, 2.690421e+003
5.822341e+002, 2.690587e+003
5.827162e+002, 2.693934e+003
5.831984e+002, 2.693022e+003
5.836805e+002, 2.685614e+003
5.841626e+002, 2.676470e+003
5.846447e+002, 2.664418e+003
5.851268e+002, 2.652544e+003
5.856089e+002, 2.644885e+003
5.860911e+002, 2.642544e+003
5.865732e+002, 2.642313e+003
5.870553e+002, 2.642447e+003
5.875374e+002, 2.642387e+003
5.880195e+002, 2.639066e+003
5.885016e+002, 2.631286e+003
5.889838e+002, 2.625412e+003
5.894659e+002, 2.627812e+003
5.899480e+002, 2.634390e+003
5.904301e+002, 2.632651e+003
5.909122e+002, 2.617661e+003
5.913943e+002, 2.604398e+003
5.918765e+002, 2.598779e+003
5.923586e+002, 2.596305e+003
5.928407e+002, 2.591303e+003
5.933228e+002, 2.583889e+003
5.938049e+002, 2.579178e+003
5.942870e+002, 2.581403e+003
5.947692e+002, 2.588674e+003
5.952513e+002, 2.592140e+003
5.957334e+002, 2.590137e+003
5.962155e+002, 2.587089e+003
5.966976e+002, 2.583151e+003
5.971797e+002, 2.578719e+003
5.976619e+002, 2.573625e+003
5.981440e+002, 2.568173e+003
5.986261e+002, 2.563184e+003
5.991082e+002, 2.558518e+003
5.995903e+002, 2.555189e+003
6.000724e+002, 2.556716e+003
6.005546e+002, 2.563124e+003
6.010367e+002, 2.565323e+003
6.015188e+002, 2.558936e+003
6.020009e+002, 2.549425e+003
6.024830e+002, 2.543204e+003
6.029651e+002, 2.540079e+003
6.034473e+002, 2.538517e+003
6.039294e+002, 2.540980e+003
6.044115e+002, 2.542369e+003
6.048936e+002, 2.538298e+003
6.053757e+002, 2.531031e+003
6.058578e+002, 2.525854e+003
6.063400e+002, 2.524642e+003
6.068221e+002, 2.523606e+003
6.073042e+002, 2.516396e+003
6.077863e+002, 2.500994e+003
6.082684e+002, 2.492856e+003
6.087505e+002, 2.498412e+003
6.092327e+002, 2.504037e+003
6.097148e+002, 2.507005e+003
6.101969e+002, 2.507317e+003
6.106790e+002, 2.505072e+003
6.111611e+002, 2.500276e+003
6.116432e+002, 2.493335e+003
6.121254e+002, 2.482081e+003
6.126075e+002, 2.468946e+003
6.130896e+002, 2.462642e+003
6.135717e+002, 2.464532e+003
6.140538e+002, 2.467159e+003
6.145359e+002, 2.465891e+003
6.150181e+002, 2.462237e+003
6.155002e+002, 2.460812e+003
6.159823e+002, 2.462906e+003
6.164644e+002, 2.463978e+003
6.169465e+002, 2.462945e+003
6.174286e+002, 2.460632e+003
6.179108e+002, 2.457471e+003
6.183929e+002, 2.453667e+003
6.188750e+002, 2.449297e+003
6.193571e+002, 2.444291e+003
6.198392e+002, 2.439398e+003
6.203214e+002, 2.437024e+003
6.208035e+002, 2.438611e+003
6.212856e+002, 2.438305e+003
6.217677e+002, 2.434093e+003
6.222498e+002, 2.429156e+003
6.227319e+002, 2.424700e+003
6.232141e+002, 2.420861e+003
6.236962e+002, 2.417813e+003
6.241783e+002, 2.415883e+003
6.246604e+002, 2.414318e+003
6.251425e+002, 2.412800e+003
6.256246e+002, 2.411061e+003
6.261068e+002, 2.408258e+003
6.265889e+002, 2.404208e+003
6.270710e+002, 2.398767e+003
6.275531e+002, 2.390885e+003
6.280352e+002, 2.380882e+003
6.285173e+002, 2.376205e+003
6.289995e+002, 2.381749e+003
6.294816e+002, 2.385579e+003
6.299637e+002, 2.385467e+003
6.304458e+002, 2.382372e+003
6.309279e+002, 2.375910e+003
6.314100e+002, 2.367000e+003
6.318922e+002, 2.358984e+003
6.323743e+002, 2.354667e+003
6.328564e+002, 2.353316e+003
6.333385e+002, 2.352425e+003
6.338206e+002, 2.352104e+003
6.343027e+002, 2.351768e+003
6.347849e+002, 2.351745e+003
6.352670e+002, 2.351129e+003
6.357491e+002, 2.349308e+003
6.362312e+002, 2.346258e+003
6.367133e+002, 2.341893e+003
6.371954e+002, 2.333702e+003
6.376776e+002, 2.326387e+003
6.381597e+002, 2.325805e+003
6.386418e+002, 2.328964e+003
6.391239e+002, 2.327336e+003
6.396060e+002, 2.318158e+003
6.400881e+002, 2.308060e+003
6.405703e+002, 2.305956e+003
6.410524e+002, 2.312916e+003
6.415345e+002, 2.315505e+003
6.420166e+002, 2.309223e+003
6.424987e+002, 2.303789e+003
6.429808e+002, 2.302470e+003
6.434630e+002, 2.302157e+003
6.439451e+002, 2.298682e+003
6.444272e+002, 2.291735e+003
6.449093e+002, 2.286123e+003
6.453914e+002, 2.287918e+003
6.458735e+002, 2.293320e+003
6.463557e+002, 2.291679e+003
6.468378e+002, 2.282563e+003
6.473199e+002, 2.275965e+003
6.478020e+002, 2.276959e+003
6.482841e+002, 2.281173e+003
6.487662e+002, 2.281526e+003
6.492484e+002, 2.277332e+003
6.497305e+002, 2.273307e+003
6.502126e+002, 2.270086e+003
6.506947e+002, 2.266833e+003
6.511768e+002, 2.261851e+003
6.516589e+002, 2.256826e+003
6.521411e+002, 2.255842e+003
6.526232e+002, 2.260002e+003
6.531053e+002, 2.264250e+003
6.535874e+002, 2.260587e+003
6.540695e+002, 2.248875e+003
6.545516e+002, 2.244203e+003
6.550338e+002, 2.250654e+003
6.555159e+002, 2.256043e+003
6.559980e+002, 2.255275e+003
6.564801e+002, 2.250486e+003
6.569622e+002, 2.242158e+003
6.574443e+002, 2.229679e+003
6.579265e+002, 2.220875e+003
6.584086e+002, 2.222862e+003
6.588907e+002, 2.227810e+003
6.593728e+002, 2.226746e+003
6.598549e+002, 2.220495e+003
6.603370e+002, 2.214910e+003
6.608192e+002, 2.212782e+003
6.613013e+002, 2.211609e+003
6.617834e+002, 2.206688e+003
6.622655e+002, 2.196131e+003
6.627476e+002, 2.188854e+003
6.632297e+002, 2.187431e+003
6.637119e+002, 2.186492e+003
6.641940e+002, 2.185306e+003
6.646761e+002, 2.183286e+003
6.651582e+002, 2.179303e+003
6.656403e+002, 2.173057e+003
6.661224e+002, 2.167085e+003
6.666046e+002, 2.164314e+003
6.670867e+002, 2.163191e+003
6.675688e+002, 2.160562e+003
6.680509e+002, 2.156275e+003
6.685330e+002, 2.148194e+003
6.690151e+002, 2.133486e+003
6.694973e+002, 2.117038e+003
6.699794e+002, 2.109221e+003
6.704615e+002, 2.115024e+003
6.709436e+002, 2.116017e+003
6.714257e+002, 2.107622e+003
6.719078e+002, 2.098751e+003
6.723900e+002, 2.093973e+003
6.728721e+002, 2.091912e+003
6.733542e+002, 2.090452e+003
6.738363e+002, 2.088692e+003
6.743184e+002, 2.084938e+003
6.748005e+002, 2.075465e+003
6.752827e+002, 2.061164e+003
6.757648e+002, 2.051678e+003
6.762469e+002, 2.048430e+003
6.767290e+002, 2.045977e+003
6.772111e+002, 2.043093e+003
6.776932e+002, 2.038538e+003
6.781754e+002, 2.029545e+003
6.786575e+002, 2.014878e+003
6.791396e+002, 2.002640e+003
6.796217e+002, 1.995050e+003
6.801038e+002, 1.990151e+003
6.805859e+002, 1.988673e+003
6.810681e+002, 1.988434e+003
6.815502e+002, 1.984701e+003
6.820323e+002, 1.975702e+003
6.825144e+002, 1.964280e+003
6.829965e+002, 1.954623e+003
6.834786e+002, 1.946920e+003
6.839608e+002, 1.937584e+003
6.844429e+002, 1.923677e+003
6.849250e+002, 1.913515e+003
6.854071e+002, 1.914144e+003
6.858892e+002, 1.918263e+003
6.863713e+002, 1.918047e+003
6.868535e+002, 1.912579e+003
6.873356e+002, 1.906558e+003
6.878177e+002, 1.902045e+003
6.882998e+002, 1.897931e+003
6.887819e+002, 1.892918e+003
6.892640e+002, 1.887279e+003
6.897462e+002, 1.882520e+003
6.902283e+002, 1.879227e+003
6.907104e+002, 1.875448e+003
6.911925e+002, 1.868029e+003
6.916746e+002, 1.856271e+003
6.921567e+002, 1.847011e+003
6.926389e+002, 1.841203e+003
6.931210e+002, 1.836631e+003
6.936031e+002, 1.833750e+003
6.940852e+002, 1.831091e+003
6.945673e+002, 1.827044e+003
6.950494e+002, 1.821465e+003
6.955316e+002, 1.815703e+003
6.960137e+002, 1.810360e+003
6.964958e+002, 1.805414e+003
6.969779e+002, 1.800887e+003
6.974600e+002, 1.796751e+003
6.979421e+002, 1.792883e+003
6.984243e+002, 1.789270e+003
6.989064e+002, 1.785674e+003
6.993885e+002, 1.781459e+003
6.998706e+002, 1.776332e+003
7.003527e+002, 1.774438e+003
7.008348e+002, 1.780194e+003
7.013170e+002, 1.783778e+003
7.017991e+002, 1.783626e+003
7.022812e+002, 1.780448e+003
7.027633e+002, 1.772826e+003
7.032454e+002, 1.761984e+003
7.037275e+002, 1.754495e+003
7.042097e+002, 1.757311e+003
7.046918e+002, 1.763433e+003
7.051739e+002, 1.760605e+003
7.056560e+002, 1.750455e+003
7.061381e+002, 1.743994e+003
7.066202e+002, 1.744675e+003
7.071024e+002, 1.747321e+003
7.075845e+002, 1.746550e+003
7.080666e+002, 1.742437e+003
7.085487e+002, 1.740278e+003
7.090308e+002, 1.743630e+003
7.095129e+002, 1.744084e+003
7.099951e+002, 1.737181e+003
7.104772e+002, 1.729314e+003
7.109593e+002, 1.725513e+003
7.114414e+002, 1.725954e+003
7.119235e+002, 1.728709e+003
7.124056e+002, 1.733639e+003
7.128878e+002, 1.738413e+003
7.133699e+002, 1.738727e+003
7.138520e+002, 1.735240e+003
7.143341e+002, 1.732375e+003
7.148162e+002, 1.730789e+003
7.152983e+002, 1.730986e+003
7.157805e+002, 1.734211e+003
7.162626e+002, 1.739578e+003
7.167447e+002, 1.741944e+003
7.172268e+002, 1.739262e+003
7.177089e+002, 1.736765e+003
7.181910e+002, 1.735164e+003
7.186732e+002, 1.733629e+003
7.191553e+002, 1.731010e+003
7.196374e+002, 1.727997e+003
7.201195e+002, 1.726433e+003
7.206016e+002, 1.727318e+003
7.210837e+002, 1.729214e+003
7.215659e+002, 1.730069e+003
7.220480e+002, 1.730183e+003
7.225301e+002, 1.732005e+003
7.230122e+002, 1.736445e+003
7.234943e+002, 1.737890e+003
7.239764e+002, 1.731185e+003
7.244586e+002, 1.720618e+003
7.249407e+002, 1.717522e+003
7.254228e+002, 1.725769e+003
7.259049e+002, 1.731731e+003
7.263870e+002, 1.733670e+003
7.268691e+002, 1.734178e+003
7.273513e+002, 1.734211e+003
7.278334e+002, 1.733936e+003
7.283155e+002, 1.733065e+003
7.287976e+002, 1.731580e+003
7.292797e+002, 1.730785e+003
7.297618e+002, 1.733466e+003
7.302440e+002, 1.737991e+003
7.307261e+002, 1.737163e+003
7.312082e+002, 1.730310e+003
7.316903e+002, 1.726217e+003
7.321724e+002, 1.729617e+003
7.326545e+002, 1.735495e+003
7.331367e+002, 1.736308e+003
7.336188e+002, 1.730758e+003
7.341009e+002, 1.727279e+003
7.345830e+002, 1.725747e+003
7.350651e+002, 1.726363e+003
7.355472e+002, 1.732202e+003
7.360294e+002, 1.738507e+003
7.365115e+002, 1.738595e+003
7.369936e+002, 1.732488e+003
7.374757e+002, 1.727280e+003
7.379578e+002, 1.729071e+003
7.384399e+002, 1.734399e+003
7.389221e+002, 1.736097e+003
7.394042e+002, 1.734401e+003
7.398863e+002, 1.733043e+003
7.403684e+002, 1.732912e+003
7.408505e+002, 1.733540e+003
7.413326e+002, 1.735176e+003
7.418148e+002, 1.737464e+003
7.422969e+002, 1.736191e+003
7.427790e+002, 1.725364e+003
7.432611e+002, 1.719573e+003
7.437432e+002, 1.725357e+003
7.442253e+002, 1.732693e+003
7.447075e+002, 1.733214e+003
7.451896e+002, 1.728763e+003
7.456717e+002, 1.726481e+003
7.461538e+002, 1.730127e+003
7.466359e+002, 1.735414e+003
7.471180e+002, 1.738481e+003
7.476002e+002, 1.738949e+003
7.480823e+002, 1.733624e+003
7.485644e+002, 1.721774e+003
7.490465e+002, 1.713305e+003
7.495286e+002, 1.714782e+003
7.500107e+002, 1.722300e+003
7.504929e+002, 1.726754e+003
7.509750e+002, 1.727407e+003
7.514571e+002, 1.726688e+003
7.519392e+002, 1.722945e+003
7.524213e+002, 1.719786e+003
7.529034e+002, 1.718588e+003
7.533856e+002, 1.718852e+003
7.538677e+002, 1.720409e+003
7.543498e+002, 1.723061e+003
7.548319e+002, 1.724624e+003
7.553140e+002, 1.722692e+003
7.557961e+002, 1.719052e+003
7.562783e+002, 1.716246e+003
7.567604e+002, 1.714373e+003
7.572425e+002, 1.714063e+003
7.577246e+002, 1.715719e+003
7.582067e+002, 1.717068e+003
7.586888e+002, 1.715380e+003
7.591710e+002, 1.710660e+003
7.596531e+002, 1.705659e+003
7.601352e+002, 1.697603e+003
7.606173e+002, 1.693632e+003
7.610994e+002, 1.698755e+003
7.615815e+002, 1.704703e+003
7.620637e+002, 1.704601e+003
7.625458e+002, 1.699771e+003
7.630279e+002, 1.696601e+003
7.635100e+002, 1.698838e+003
7.639921e+002, 1.701128e+003
7.644742e+002, 1.698458e+003
7.649564e+002, 1.692992e+003
7.654385e+002, 1.688733e+003
7.659206e+002, 1.686055e+003
7.664027e+002, 1.683118e+003
7.668848e+002, 1.678654e+003
7.673669e+002, 1.673730e+003
7.678491e+002, 1.671123e+003
7.683312e+002, 1.671716e+003
7.688133e+002, 1.671325e+003
7.692954e+002, 1.669407e+003
7.697775e+002, 1.667157e+003
7.702596e+002, 1.666063e+003
7.707418e+002, 1.664492e+003
7.712239e+002, 1.659312e+003
7.717060e+002, 1.649624e+003
7.721881e+002, 1.642531e+003
7.726702e+002, 1.643072e+003
7.731523e+002, 1.645110e+003
7.736345e+002, 1.644363e+003
7.741166e+002, 1.641123e+003
7.745987e+002, 1.636019e+003
7.750808e+002, 1.629452e+003
7.755629e+002, 1.622670e+003
7.760450e+002, 1.616823e+003
7.765272e+002, 1.611865e+003
7.770093e+002, 1.608252e+003
7.774914e+002, 1.606808e+003
7.779735e+002, 1.601805e+003
7.784556e+002, 1.589605e+003
7.789377e+002, 1.576950e+003
7.794199e+002, 1.569790e+003
7.799020e+002, 1.567323e+003
7.803841e+002, 1.565281e+003
7.808662e+002, 1.563525e+003
7.813483e+002, 1.562154e+003
7.818304e+002, 1.563000e+003
7.823126e+002, 1.562727e+003
7.827947e+002, 1.557769e+003
7.832768e+002, 1.549357e+003
7.837589e+002, 1.540854e+003
7.842410e+002, 1.533704e+003
7.847231e+002, 1.527838e+003
7.852053e+002, 1.523964e+003
7.856874e+002, 1.521366e+003
7.861695e+002, 1.516887e+003
7.866516e+002, 1.510295e+003
7.871337e+002, 1.504069e+003
7.876158e+002, 1.499831e+003
7.880980e+002, 1.495254e+003
7.885801e+002, 1.486015e+003
7.890622e+002, 1.470656e+003
7.895443e+002, 1.460590e+003
7.900264e+002, 1.460236e+003
7.905085e+002, 1.459381e+003
7.909907e+002, 1.455910e+003
7.914728e+002, 1.450950e+003
7.919549e+002, 1.445264e+003
7.924370e+002, 1.439133e+003
7.929191e+002, 1.432871e+003
7.934012e+002, 1.426328e+003
7.938834e+002, 1.420265e+003
7.943655e+002, 1.415987e+003
7.948476e+002, 1.412589e+003
7.953297e+002, 1.408515e+003
7.958118e+002, 1.403375e+003
7.962939e+002, 1.396334e+003
7.967761e+002, 1.386614e+003
7.972582e+002, 1.375560e+003
7.977403e+002, 1.366620e+003
7.982224e+002, 1.360333e+003
7.987045e+002, 1.353569e+003
7.991866e+002, 1.345585e+003
7.996688e+002, 1.338198e+003
8.001509e+002, 1.333014e+003
8.006330e+002, 1.328470e+003
8.011151e+002, 1.322381e+003
8.015972e+002, 1.314484e+003
8.020793e+002, 1.307507e+003
8.025615e+002, 1.303256e+003
8.030436e+002, 1.299106e+003
8.035257e+002, 1.293635e+003
8.040078e+002, 1.287161e+003
8.044899e+002, 1.280091e+003
8.049720e+002, 1.272637e+003
8.054542e+002, 1.265148e+003
8.059363e+002, 1.258013e+003
8.064184e+002, 1.250881e+003
8.069005e+002, 1.242860e+003
8.073826e+002, 1.233984e+003
8.078647e+002, 1.225014e+003
8.083469e+002, 1.215900e+003
8.088290e+002, 1.207484e+003
8.093111e+002, 1.200515e+003
8.097932e+002, 1.194545e+003
8.102753e+002, 1.188227e+003
8.107574e+002, 1.180597e+003
8.112396e+002, 1.174539e+003
8.117217e+002, 1.172153e+003
8.122038e+002, 1.168949e+003
8.126859e+002, 1.162608e+003
8.131680e+002, 1.154478e+003
8.136501e+002, 1.146121e+003
8.141323e+002, 1.137917e+003
8.146144e+002, 1.130599e+003
8.150965e+002, 1.125700e+003
8.155786e+002, 1.121066e+003
8.160607e+002, 1.113971e+003
8.165428e+002, 1.105153e+003
8.170250e+002, 1.096000e+003
8.175071e+002, 1.087042e+003
8.179892e+002, 1.080105e+003
8.184713e+002, 1.077119e+003
8.189534e+002, 1.076516e+003
8.194355e+002, 1.072268e+003
8.199177e+002, 1.063284e+003
8.203998e+002, 1.055776e+003
8.208819e+002, 1.051446e+003
8.213640e+002, 1.046909e+003
8.218461e+002, 1.039905e+003
8.223282e+002, 1.031382e+003
8.228104e+002, 1.022714e+003
8.232925e+002, 1.013122e+003
8.237746e+002, 1.006530e+003
8.242567e+002, 1.007131e+003
8.247388e+002, 1.007283e+003
8.252209e+002, 1.001220e+003
8.257031e+002, 9.925622e+002
8.261852e+002, 9.868986e+002
8.266673e+002, 9.851993e+002
8.271494e+002, 9.844059e+002
8.276315e+002, 9.829022e+002
8.281136e+002, 9.801305e+002
8.285958e+002, 9.743381e+002
8.290779e+002, 9.662078e+002
8.295600e+002, 9.591660e+002
8.300421e+002, 9.538978e+002
8.305242e+002, 9.486028e+002
8.310063e+002, 9.416403e+002
8.314885e+002, 9.342031e+002
8.319706e+002, 9.303597e+002
8.324527e+002, 9.322855e+002
8.329348e+002, 9.319440e+002
8.334169e+002, 9.273085e+002
8.338990e+002, 9.228766e+002
8.343812e+002, 9.206906e+002
8.348633e+002, 9.195192e+002
8.353454e+002, 9.182219e+002
8.358275e+002, 9.167209e+002
8.363096e+002, 9.136530e+002
8.367917e+002, 9.070789e+002
8.372739e+002, 9.004290e+002
8.377560e+002, 8.964196e+002
8.382381e+002, 8.933569e+002
8.387202e+002, 8.874625e+002
8.392023e+002, 8.793508e+002
8.396844e+002, 8.750687e+002
8.401666e+002, 8.796664e+002
8.406487e+002, 8.868885e+002
8.411308e+002, 8.842770e+002
8.416129e+002, 8.736221e+002
8.420950e+002, 8.683781e+002
8.425771e+002, 8.704289e+002
8.430593e+002, 8.713934e+002
8.435414e+002, 8.662220e+002
8.440235e+002, 8.584301e+002
8.445056e+002, 8.546682e+002
8.449877e+002, 8.561156e+002
8.454698e+002, 8.557285e+002
8.459520e+002, 8.535671e+002
8.464341e+002, 8.493932e+002
8.469162e+002, 8.411105e+002
8.473983e+002, 8.324175e+002
8.478804e+002, 8.260204e+002
8.483625e+002, 8.221426e+002
8.488447e+002, 8.205775e+002
8.493268e+002, 8.229858e+002
8.498089e+002, 8.249879e+002
8.502910e+002, 8.241073e+002
8.507731e+002, 8.215134e+002
8.512552e+002, 8.180299e+002
8.517374e+002, 8.141338e+002
8.522195e+002, 8.104987e+002
8.527016e+002, 8.074354e+002
8.531837e+002, 8.050336e+002
8.536658e+002, 8.040895e+002
8.541479e+002, 8.039964e+002
8.546301e+002, 8.015210e+002
8.551122e+002, 7.965917e+002
8.555943e+002, 7.915946e+002
8.560764e+002, 7.872938e+002
8.565585e+002, 7.833466e+002
8.570406e+002, 7.790986e+002
8.575228e+002, 7.747762e+002
8.580049e+002, 7.731582e+002
8.584870e+002, 7.776982e+002
8.589691e+002, 7.790676e+002
8.594512e+002, 7.739393e+002
8.599333e+002, 7.681700e+002
8.604155e+002, 7.647518e+002
8.608976e+002, 7.628813e+002
8.613797e+002, 7.609377e+002
8.618618e+002, 7.587286e+002
8.623439e+002, 7.559113e+002
8.628260e+002, 7.514125e+002
8.633082e+002, 7.471364e+002
8.637903e+002, 7.449162e+002
8.642724e+002, 7.438746e+002
8.647545e+002, 7.420319e+002
8.652366e+002, 7.392211e+002
8.657188e+002, 7.375619e+002
8.662009e+002, 7.391312e+002
8.666830e+002, 7.420520e+002
8.671651e+002, 7.426613e+002
8.676472e+002, 7.412653e+002
8.681293e+002, 7.398751e+002
8.686115e+002, 7.388117e+002
8.690936e+002, 7.367670e+002
8.695757e+002, 7.325720e+002
8.700578e+002, 7.279178e+002
8.705399e+002, 7.266378e+002
8.710220e+002, 7.299689e+002
8.715042e+002, 7.302930e+002
8.719863e+002, 7.249655e+002
8.724684e+002, 7.208917e+002
8.729505e+002, 7.228689e+002
8.734326e+002, 7.249889e+002
8.739147e+002, 7.213947e+002
8.743969e+002, 7.128734e+002
8.748790e+002, 7.052684e+002
8.753611e+002, 6.990399e+002
8.758432e+002, 6.948068e+002
8.763253e+002, 6.933325e+002
8.768074e+002, 6.934649e+002
8.772896e+002, 6.952974e+002
8.777717e+002, 6.976762e+002
8.782538e+002, 6.980970e+002
8.787359e+002, 6.956716e+002
8.792180e+002, 6.929667e+002
8.797001e+002, 6.923963e+002
8.801823e+002, 6.931141e+002
8.806644e+002, 6.943286e+002
8.811465e+002, 6.955156e+002
8.816286e+002, 6.939901e+002
8.821107e+002, 6.891455e+002
8.825928e+002, 6.843394e+002
8.830750e+002, 6.825224e+002
8.835571e+002, 6.830518e+002
8.840392e+002, 6.840138e+002
8.845213e+002, 6.856099e+002
8.850034e+002, 6.864562e+002
8.854855e+002, 6.864711e+002
8.859677e+002, 6.856431e+002
8.864498e+002, 6.839484e+002
8.869319e+002, 6.814268e+002
8.874140e+002, 6.777924e+002
8.878961e+002, 6.726876e+002
8.883782e+002, 6.689701e+002
8.888604e+002, 6.669468e+002
8.893425e+002, 6.660499e+002
8.898246e+002, 6.668514e+002
8.903067e+002, 6.681393e+002
8.907888e+002, 6.691755e+002
8.912709e+002, 6.697584e+002
8.917531e+002, 6.696361e+002
8.922352e+002, 6.686255e+002
8.927173e+002, 6.672128e+002
8.931994e+002, 6.646483e+002
8.936815e+002, 6.626536e+002
8.941636e+002, 6.642565e+002
8.946458e+002, 6.680772e+002
8.951279e+002, 6.700753e+002
8.956100e+002, 6.690786e+002
8.960921e+002, 6.675162e+002
8.965742e+002, 6.680721e+002
8.970563e+002, 6.694297e+002
8.975385e+002, 6.673353e+002
8.980206e+002, 6.621680e+002
8.985027e+002, 6.588644e+002
8.989848e+002, 6.582760e+002
8.994669e+002, 6.600159e+002
8.999490e+002, 6.646185e+002
9.004312e+002, 6.698112e+002
9.009133e+002, 6.698889e+002
9.013954e+002, 6.629086e+002
9.018775e+002, 6.599158e+002
9.023596e+002, 6.632756e+002
9.028417e+002, 6.666082e+002
9.033239e+002, 6.681874e+002
9.038060e+002, 6.687130e+002
9.042881e+002, 6.687905e+002
9.047702e+002, 6.684129e+002
9.052523e+002, 6.674540e+002
9.057344e+002, 6.636923e+002
9.062166e+002, 6.626303e+002
9.066987e+002, 6.683652e+002
9.071808e+002, 6.746002e+002
9.076629e+002, 6.766545e+002
9.081450e+002, 6.759051e+002
9.086271e+002, 6.756556e+002
9.091093e+002, 6.767291e+002
9.095914e+002, 6.769476e+002
9.100735e+002, 6.737490e+002
9.105556e+002, 6.698427e+002
9.110377e+002, 6.679785e+002
9.115198e+002, 6.677690e+002
9.120020e+002, 6.691951e+002
9.124841e+002, 6.716799e+002
9.129662e+002, 6.724137e+002
9.134483e+002, 6.694103e+002
9.139304e+002, 6.652547e+002
9.144125e+002, 6.651771e+002
9.148947e+002, 6.683584e+002
9.153768e+002, 6.673640e+002
9.158589e+002, 6.616520e+002
9.163410e+002, 6.574728e+002
9.168231e+002, 6.571557e+002
9.173052e+002, 6.590988e+002
9.177874e+002, 6.619150e+002
9.182695e+002, 6.653749e+002
9.187516e+002, 6.671627e+002
9.192337e+002, 6.672130e+002
9.197158e+002, 6.656442e+002
9.201979e+002, 6.605665e+002
9.206801e+002, 6.563312e+002
9.211622e+002, 6.566156e+002
9.216443e+002, 6.587327e+002
9.221264e+002, 6.579826e+002
9.226085e+002, 6.535788e+002
9.230906e+002, 6.511093e+002
9.235728e+002, 6.528030e+002
9.240549e+002, 6.547289e+002
9.245370e+002, 6.557441e+002
9.250191e+002, 6.560819e+002
9.255012e+002, 6.554821e+002
9.259833e+002, 6.544581e+002
9.264655e+002, 6.545374e+002
9.269476e+002, 6.566285e+002
9.274297e+002, 6.584594e+002
9.279118e+002, 6.580238e+002
9.283939e+002, 6.568440e+002
9.288760e+002, 6.564377e+002
9.293582e+002, 6.567382e+002
9.298403e+002, 6.570758e+002
9.303224e+002, 6.574364e+002
9.308045e+002, 6.592909e+002
9.312866e+002, 6.647859e+002
9.317687e+002, 6.704870e+002
9.322509e+002, 6.681705e+002
9.327330e+002, 6.600775e+002
9.332151e+002, 6.570573e+002
9.336972e+002, 6.600903e+002
9.341793e+002, 6.624808e+002
9.346614e+002, 6.608007e+002
9.351436e+002, 6.578744e+002
9.356257e+002, 6.577990e+002
9.361078e+002, 6.604460e+002
9.365899e+002, 6.635385e+002
9.370720e+002, 6.673900e+002
9.375541e+002, 6.702640e+002
9.380363e+002, 6.714761e+002
9.385184e+002, 6.722954e+002
9.390005e+002, 6.737200e+002
9.394826e+002, 6.753852e+002
9.399647e+002, 6.762513e+002
9.404468e+002, 6.759777e+002
9.409290e+002, 6.758051e+002
9.414111e+002, 6.758862e+002
9.418932e+002, 6.758610e+002
9.423753e+002, 6.750599e+002
9.428574e+002, 6.745380e+002
9.433395e+002, 6.753235e+002
9.438217e+002, 6.773140e+002
9.443038e+002, 6.797592e+002
9.447859e+002, 6.827665e+002
9.452680e+002, 6.856779e+002
9.457501e+002, 6.888532e+002
9.462322e+002, 6.912809e+002
9.467144e+002, 6.920546e+002
9.471965e+002, 6.915967e+002
9.476786e+002, 6.900372e+002
9.481607e+002, 6.877529e+002
9.486428e+002, 6.869747e+002
9.491249e+002, 6.900591e+002
9.496071e+002, 6.940555e+002
9.500892e+002, 6.959183e+002
9.505713e+002, 6.966402e+002
9.510534e+002, 6.977828e+002
9.515355e+002, 6.994647e+002
9.520176e+002, 7.015349e+002
9.524998e+002, 7.038932e+002
9.529819e+002, 7.052708e+002
9.534640e+002, 7.035930e+002
9.539461e+002, 6.999596e+002
9.544282e+002, 6.975416e+002
9.549103e+002, 6.962863e+002
9.553925e+002, 6.959301e+002
9.558746e+002, 6.964141e+002
9.563567e+002, 6.972520e+002
9.568388e+002, 6.981160e+002
9.573209e+002, 6.990821e+002
9.578030e+002, 7.005569e+002
9.582852e+002, 7.027035e+002
9.587673e+002, 7.032206e+002
9.592494e+002, 7.015833e+002
9.597315e+002, 7.004462e+002
9.602136e+002, 7.008454e+002
9.606957e+002, 7.014907e+002
9.611779e+002, 7.007903e+002
9.616600e+002, 6.993073e+002
9.621421e+002, 7.001740e+002
9.626242e+002, 7.054030e+002
9.631063e+002, 7.089772e+002
9.635884e+002, 7.097332e+002
9.640706e+002, 7.102225e+002
9.645527e+002, 7.115220e+002
9.650348e+002, 7.129567e+002
9.655169e+002, 7.139369e+002
9.659990e+002, 7.144135e+002
9.664811e+002, 7.140943e+002
9.669633e+002, 7.115680e+002
9.674454e+002, 7.101806e+002
9.679275e+002, 7.105383e+002
9.684096e+002, 7.124004e+002
9.688917e+002, 7.172320e+002
9.693738e+002, 7.227665e+002
9.698560e+002, 7.251854e+002
9.703381e+002, 7.238224e+002
9.708202e+002, 7.219335e+002
9.713023e+002, 7.195459e+002
9.717844e+002, 7.188719e+002
9.722665e+002, 7.229611e+002
9.727487e+002, 7.285023e+002
9.732308e+002, 7.316148e+002
9.737129e+002, 7.324804e+002
9.741950e+002, 7.331396e+002
9.746771e+002, 7.343774e+002
9.751592e+002, 7.350548e+002
9.756414e+002, 7.320978e+002
9.761235e+002, 7.294724e+002
9.766056e+002, 7.352094e+002
9.770877e+002, 7.452496e+002
9.775698e+002, 7.491561e+002
9.780519e+002, 7.460445e+002
9.785341e+002, 7.424601e+002
9.790162e+002, 7.422141e+002
9.794983e+002, 7.440635e+002
9.799804e+002, 7.470541e+002
9.804625e+002, 7.505683e+002
9.809446e+002, 7.517938e+002
9.814268e+002, 7.509474e+002
9.819089e+002, 7.506331e+002
9.823910e+002, 7.515371e+002
9.828731e+002, 7.533097e+002
9.833552e+002, 7.557538e+002
9.838373e+002, 7.586066e+002
9.843195e+002, 7.615206e+002
9.848016e+002, 7.645787e+002
9.852837e+002, 7.653666e+002
9.857658e+002, 7.632286e+002
9.862479e+002, 7.621837e+002
9.867300e+002, 7.638367e+002
9.872122e+002, 7.664239e+002
9.876943e+002, 7.681918e+002
9.881764e+002, 7.693631e+002
9.886585e+002, 7.712419e+002
9.891406e+002, 7.743737e+002
9.896227e+002, 7.765094e+002
9.901049e+002, 7.764313e+002
9.905870e+002, 7.775004e+002
9.910691e+002, 7.821788e+002
9.915512e+002, 7.876158e+002
9.920333e+002, 7.900375e+002
9.925154e+002, 7.895668e+002
9.929976e+002, 7.905746e+002
9.934797e+002, 7.959516e+002
9.939618e+002, 7.984009e+002
9.944439e+002, 7.942721e+002
9.949260e+002, 7.908240e+002
9.954081e+002, 7.920185e+002
9.958903e+002, 7.956532e+002
9.963724e+002, 7.988901e+002
9.968545e+002, 8.015175e+002
9.973366e+002, 8.040518e+002
9.978187e+002, 8.073921e+002
9.983008e+002, 8.095407e+002
9.987830e+002, 8.079401e+002
9.992651e+002, 8.068917e+002
9.997472e+002, 8.103284e+002
1.000229e+003, 8.162042e+002
1.000711e+003, 8.212615e+002
1.001194e+003, 8.247780e+002
1.001676e+003, 8.259277e+002
1.002158e+003, 8.209019e+002
1.002640e+003, 8.175419e+002
1.003122e+003, 8.217905e+002
1.003604e+003, 8.288595e+002
1.004086e+003, 8.341419e+002
1.004568e+003, 8.378424e+002
1.005050e+003, 8.424916e+002
1.005533e+003, 8.488082e+002
1.006015e+003, 8.528799e+002
1.006497e+003, 8.503542e+002
1.006979e+003, 8.459266e+002
1.007461e+003, 8.427770e+002
1.007943e+003, 8.415270e+002
1.008425e+003, 8.440145e+002
1.008907e+003, 8.493221e+002
1.009390e+003, 8.539789e+002
1.009872e+003, 8.565295e+002
1.010354e+003, 8.588185e+002
1.010836e+003, 8.631750e+002
1.011318e+003, 8.680912e+002
1.011800e+003, 8.710651e+002
1.012282e+003, 8.725931e+002
1.012764e+003, 8.734056e+002
1.013246e+003, 8.739901e+002
1.013729e+003, 8.760509e+002
1.014211e+003, 8.805403e+002
1.014693e+003, 8.855106e+002
1.015175e+003, 8.883765e+002
1.015657e+003, 8.897274e+002
1.016139e+003, 8.906781e+002
1.016621e+003, 8.915912e+002
1.017103e+003, 8.949781e+002
1.017586e+003, 9.010625e+002
1.018068e+003, 9.059925e+002
1.018550e+003, 9.072822e+002
1.019032e+003, 9.069843e+002
1.019514e+003, 9.082933e+002
1.019996e+003, 9.110646e+002
1.020478e+003, 9.143257e+002
1.020960e+003, 9.180734e+002
1.021442e+003, 9.221589e+002
1.021925e+003, 9.266030e+002
1.022407e+003, 9.301785e+002
1.022889e+003, 9.319651e+002
1.023371e+003, 9.325181e+002
1.023853e+003, 9.324532e+002
1.024335e+003, 9.317410e+002
1.024817e+003, 9.345732e+002
1.025299e+003, 9.416846e+002
1.025781e+003, 9.463951e+002
1.026264e+003, 9.466083e+002
1.026746e+003, 9.460501e+002
1.027228e+003, 9.472172e+002
1.027710e+003, 9.499945e+002
1.028192e+003, 9.544700e+002
1.028674e+003, 9.610306e+002
1.029156e+003, 9.658576e+002
1.029638e+003, 9.684064e+002
1.030120e+003, 9.710387e+002
1.030603e+003, 9.745652e+002
1.031085e+003, 9.777305e+002
1.031567e+003, 9.790276e+002
1.032049e+003, 9.797065e+002
1.032531e+003, 9.834763e+002
1.033013e+003, 9.917352e+002
1.033495e+003, 9.965724e+002
1.033977e+003, 9.957465e+002
1.034460e+003, 9.963841e+002
1.034942e+003, 1.001430e+003
1.035424e+003, 1.006775e+003
1.035906e+003, 1.009288e+003
1.036388e+003, 1.009589e+003
1.036870e+003, 1.009041e+003
1.037352e+003, 1.006216e+003
1.037834e+003, 1.007580e+003
1.038317e+003, 1.016025e+003
1.038799e+003, 1.024256e+003
1.039281e+003, 1.031542e+003
1.039763e+003, 1.037126e+003
1.040245e+003, 1.039084e+003
1.040727e+003, 1.039078e+003
1.041209e+003, 1.042108e+003
1.041691e+003, 1.049465e+003
1.042173e+003, 1.055697e+003
1.042656e+003, 1.060656e+003
1.043138e+003, 1.064632e+003
1.043620e+003, 1.065636e+003
1.044102e+003, 1.067572e+003
1.044584e+003, 1.075160e+003
1.045066e+003, 1.085673e+003
1.045548e+003, 1.091488e+003
1.046030e+003, 1.090342e+003
1.046512e+003, 1.091583e+003
1.046995e+003, 1.097480e+003
1.047477e+003, 1.104211e+003
1.047959e+003, 1.112776e+003
1.048441e+003, 1.119843e+003
1.048923e+003, 1.121154e+003
1.049405e+003, 1.119279e+003
1.049887e+003, 1.120518e+003
1.050369e+003, 1.126130e+003
1.050852e+003, 1.132168e+003
1.051334e+003, 1.138204e+003
1.051816e+003, 1.144158e+003
1.052298e+003, 1.149582e+003
1.052780e+003, 1.155327e+003
1.053262e+003, 1.162759e+003
1.053744e+003, 1.170910e+003
1.054226e+003, 1.177502e+003
1.054708e+003, 1.182028e+003
1.055191e+003, 1.186434e+003
1.055673e+003, 1.190267e+003
1.056155e+003, 1.195338e+003
1.056637e+003, 1.203079e+003
1.057119e+003, 1.211679e+003
1.057601e+003, 1.220493e+003
1.058083e+003, 1.228723e+003
1.058565e+003, 1.234724e+003
1.059047e+003, 1.238020e+003
1.059530e+003, 1.241782e+003
1.060012e+003, 1.247374e+003
1.060494e+003, 1.253168e+003
1.060976e+003, 1.256778e+003
1.061458e+003, 1.261824e+003
1.061940e+003, 1.273397e+003
1.062422e+003, 1.287994e+003
1.062904e+003, 1.298227e+003
1.063387e+003, 1.302707e+003
1.063869e+003, 1.307920e+003
1.064351e+003, 1.317505e+003
1.064833e+003, 1.326740e+003
1.065315e+003, 1.332816e+003
1.065797e+003, 1.338356e+003
1.066279e+003, 1.347237e+003
1.066761e+003, 1.356486e+003
1.067244e+003, 1.359299e+003
1.067726e+003, 1.355032e+003
1.068208e+003, 1.353184e+003
1.068690e+003, 1.359508e+003
1.069172e+003, 1.366482e+003
1.069654e+003, 1.370082e+003
1.070136e+003, 1.373539e+003
1.070618e+003, 1.380671e+003
1.071100e+003, 1.388906e+003
1.071583e+003, 1.392947e+003
1.072065e+003, 1.392589e+003
1.072547e+003, 1.393862e+003
1.073029e+003, 1.399165e+003
1.073511e+003, 1.406499e+003
1.073993e+003, 1.416968e+003
1.074475e+003, 1.427030e+003
1.074957e+003, 1.432091e+003
1.075439e+003, 1.435957e+003
1.075922e+003, 1.444780e+003
1.076404e+003, 1.458705e+003
1.076886e+003, 1.472860e+003
1.077368e+003, 1.485856e+003
1.077850e+003, 1.497861e+003
1.078332e+003, 1.509794e+003
1.078814e+003, 1.520050e+003
1.079297e+003, 1.526268e+003
1.079779e+003, 1.530821e+003
1.080261e+003, 1.537073e+003
1.080743e+003, 1.544843e+003
1.081225e+003, 1.551284e+003
1.081707e+003, 1.555443e+003
1.082189e+003, 1.558214e+003
1.082671e+003, 1.561317e+003
1.083153e+003, 1.561665e+003
1.083635e+003, 1.553471e+003
1.084118e+003, 1.544116e+003
1.084600e+003, 1.542359e+003
1.085082e+003, 1.547361e+003
1.085564e+003, 1.553496e+003
1.086046e+003, 1.559407e+003
1.086528e+003, 1.565077e+003
1.087010e+003, 1.569576e+003
1.087492e+003, 1.574939e+003
1.087975e+003, 1.583568e+003
1.088457e+003, 1.592627e+003
1.088939e+003, 1.598647e+003
1.089421e+003, 1.602833e+003
1.089903e+003, 1.609164e+003
1.090385e+003, 1.618801e+003
1.090867e+003, 1.627134e+003
1.091349e+003, 1.631573e+003
1.091832e+003, 1.635361e+003
1.092314e+003, 1.637677e+003
1.092796e+003, 1.642049e+003
1.093278e+003, 1.653050e+003
1.093760e+003, 1.667695e+003
1.094242e+003, 1.680930e+003
1.094724e+003, 1.691790e+003
1.095206e+003, 1.699204e+003
1.095688e+003, 1.697855e+003
1.096171e+003, 1.699829e+003
1.096653e+003, 1.713457e+003
1.097135e+003, 1.727548e+003
1.097617e+003, 1.733313e+003
1.098099e+003, 1.735114e+003
1.098581e+003, 1.739774e+003
1.099063e+003, 1.747954e+003
1.099545e+003, 1.756887e+003
1.100027e+003, 1.766119e+003
1.100510e+003, 1.775796e+003
1.100992e+003, 1.785733e+003
1.101474e+003, 1.796441e+003
1.101956e+003, 1.810007e+003
1.102438e+003, 1.823213e+003
1.102920e+003, 1.831666e+003
1.103402e+003, 1.836098e+003
1.103884e+003, 1.841566e+003
1.104367e+003, 1.849424e+003
1.104849e+003, 1.856897e+003
1.105331e+003, 1.862673e+003
1.105813e+003, 1.869006e+003
1.106295e+003, 1.875948e+003
1.106777e+003, 1.884526e+003
1.107259e+003, 1.896932e+003
1.107741e+003, 1.911491e+003
1.108224e+003, 1.923402e+003
1.108706e+003, 1.931784e+003
1.109188e+003, 1.939322e+003
1.109670e+003, 1.942272e+003
1.110152e+003, 1.949893e+003
1.110634e+003, 1.969487e+003
1.111116e+003, 1.989214e+003
1.111598e+003, 2.000491e+003
1.112080e+003, 2.006896e+003
1.112563e+003, 2.015133e+003
1.113045e+003, 2.025489e+003
1.113527e+003, 2.035795e+003
1.114009e+003, 2.047854e+003
1.114491e+003, 2.056878e+003
1.114973e+003, 2.057627e+003
1.115455e+003, 2.061762e+003
1.115937e+003, 2.077177e+003
1.116419e+003, 2.096943e+003
1.116902e+003, 2.112848e+003
1.117384e+003, 2.124926e+003
1.117866e+003, 2.133842e+003
1.118348e+003, 2.136916e+003
1.118830e+003, 2.143100e+003
1.119312e+003, 2.153326e+003
1.119794e+003, 2.165684e+003
1.120276e+003, 2.181355e+003
1.120759e+003, 2.195650e+003
1.121241e+003, 2.202788e+003
1.121723e+003, 2.205842e+003
1.122205e+003, 2.216210e+003
1.122687e+003, 2.235791e+003
1.123169e+003, 2.254282e+003
1.123651e+003, 2.272126e+003
1.124133e+003, 2.287343e+003
1.124615e+003, 2.298814e+003
1.125098e+003, 2.309228e+003
1.125580e+003, 2.319943e+003
1.126062e+003, 2.331760e+003
1.126544e+003, 2.346383e+003
1.127026e+003, 2.363705e+003
1.127508e+003, 2.381187e+003
1.127990e+003, 2.399118e+003
1.128472e+003, 2.414453e+003
1.128954e+003, 2.426411e+003
1.129437e+003, 2.438296e+003
1.129919e+003, 2.451793e+003
1.130401e+003, 2.465861e+003
1.130883e+003, 2.479168e+003
1.131365e+003, 2.492338e+003
1.131847e+003, 2.508346e+003
1.132329e+003, 2.527094e+003
1.132811e+003, 2.546326e+003
1.133294e+003, 2.565833e+003
1.133776e+003, 2.581630e+003
1.134258e+003, 2.592375e+003
1.134740e+003, 2.605319e+003
1.135222e+003, 2.627112e+003
1.135704e+003, 2.652313e+003
1.136186e+003, 2.669285e+003
1.136668e+003, 2.680408e+003
1.137151e+003, 2.694943e+003
1.137633e+003, 2.712547e+003
1.138115e+003, 2.730562e+003
1.138597e+003, 2.748179e+003
1.139079e+003, 2.764525e+003
1.139561e+003, 2.778944e+003
1.140043e+003, 2.794729e+003
1.140525e+003, 2.818128e+003
1.141007e+003, 2.843913e+003
1.141490e+003, 2.860389e+003
1.141972e+003, 2.871845e+003
1.142454e+003, 2.888033e+003
1.142936e+003, 2.908982e+003
1.143418e+003, 2.930035e+003
1.143900e+003, 2.949548e+003
1.144382e+003, 2.968904e+003
1.144864e+003, 2.988486e+003
1.145346e+003, 3.009466e+003
1.145829e+003, 3.033000e+003
1.146311e+003, 3.058550e+003
1.146793e+003, 3.088013e+003
1.147275e+003, 3.118002e+003
1.147757e+003, 3.140885e+003
1.148239e+003, 3.157168e+003
1.148721e+003, 3.175623e+003
1.149203e+003, 3.200871e+003
1.149686e+003, 3.225665e+003
1.150168e+003, 3.240435e+003
1.150650e+003, 3.258469e+003
1.151132e+003, 3.294822e+003
1.151614e+003, 3.335922e+003
1.152096e+003, 3.366891e+003
1.152578e+003, 3.388760e+003
1.153060e+003, 3.406869e+003
1.153542e+003, 3.422080e+003
1.154025e+003, 3.442173e+003
1.154507e+003, 3.474755e+003
1.154989e+003, 3.505620e+003
1.155471e+003, 3.524881e+003
1.155953e+003, 3.546031e+003
1.156435e+003, 3.583144e+003
1.156917e+003, 3.624583e+003
1.157399e+003, 3.652187e+003
1.157881e+003, 3.666679e+003
1.158364e+003, 3.686529e+003
1.158846e+003, 3.715126e+003
1.159328e+003, 3.746072e+003
1.159810e+003, 3.780559e+003
1.160292e+003, 3.815212e+003
1.160774e+003, 3.852081e+003
1.161256e+003, 3.885104e+003
1.161738e+003, 3.905011e+003
1.162221e+003, 3.919852e+003
1.162703e+003, 3.950782e+003
1.163185e+003, 4.001000e+003
1.163667e+003, 4.040269e+003
1.164149e+003, 4.065214e+003
1.164631e+003, 4.088146e+003
1.165113e+003, 4.108916e+003
1.165595e+003, 4.133695e+003
1.166078e+003, 4.166642e+003
1.166560e+003, 4.202635e+003
1.167042e+003, 4.235035e+003
1.167524e+003, 4.265698e+003
1.168006e+003, 4.305571e+003
1.168488e+003, 4.355690e+003
1.168970e+003, 4.389128e+003
1.169452e+003, 4.403934e+003
1.169934e+003, 4.426267e+003
1.170417e+003, 4.463847e+003
1.170899e+003, 4.506703e+003
1.171381e+003, 4.547732e+003
1.171863e+003, 4.588009e+003
1.172345e+003, 4.629397e+003
1.172827e+003, 4.671510e+003
1.173309e+003, 4.713151e+003
1.173791e+003, 4.754050e+003
1.174273e+003, 4.794063e+003
1.174756e+003, 4.832589e+003
1.175238e+003, 4.866044e+003
1.175720e+003, 4.893742e+003
1.176202e+003, 4.924949e+003
1.176684e+003, 4.968640e+003
1.177166e+003, 5.017999e+003
1.177648e+003, 5.066568e+003
1.178130e+003, 5.114424e+003
1.178613e+003, 5.162771e+003
1.179095e+003, 5.210561e+003
1.179577e+003, 5.254919e+003
1.180059e+003, 5.296630e+003
1.180541e+003, 5.340841e+003
1.181023e+003, 5.389705e+003
1.181505e+003, 5.440897e+003
1.181987e+003, 5.497897e+003
1.182469e+003, 5.551297e+003
1.182952e+003, 5.588442e+003
1.183434e+003, 5.624650e+003
1.183916e+003, 5.675478e+003
1.184398e+003, 5.736948e+003
1.184880e+003, 5.800037e+003
1.185362e+003, 5.863119e+003
1.185844e+003, 5.923122e+003
1.186326e+003, 5.973499e+003
1.186808e+003, 6.029278e+003
1.187291e+003, 6.097288e+003
1.187773e+003, 6.165687e+003
1.188255e+003, 6.228557e+003
1.188737e+003, 6.290278e+003
1.189219e+003, 6.354909e+003
1.189701e+003, 6.422496e+003
1.190183e+003, 6.493948e+003
1.190665e+003, 6.570163e+003
1.191148e+003, 6.646776e+003
1.191630e+003, 6.723507e+003
1.192112e+003, 6.802704e+003
1.192594e+003, 6.886119e+003
1.193076e+003, 6.967211e+003
1.193558e+003, 7.040337e+003
1.194040e+003, 7.116235e+003
1.194522e+003, 7.209686e+003
1.195005e+003, 7.315329e+003
1.195487e+003, 7.410163e+003
1.195969e+003, 7.494222e+003
1.196451e+003, 7.580628e+003
1.196933e+003, 7.670150e+003
1.197415e+003, 7.763805e+003
1.197897e+003, 7.862172e+003
1.198379e+003, 7.963068e+003
1.198861e+003, 8.066011e+003
1.199344e+003, 8.171966e+003
1.199826e+003, 8.284721e+003
1.200308e+003, 8.400939e+003
1.200790e+003, 8.515631e+003
1.201272e+003, 8.628858e+003
1.201754e+003, 8.737945e+003
1.202236e+003, 8.846498e+003
1.202718e+003, 8.965912e+003
1.203200e+003, 9.098718e+003
1.203683e+003, 9.232701e+003
1.204165e+003, 9.356768e+003
1.204647e+003, 9.490939e+003
1.205129e+003, 9.659826e+003
1.205611e+003, 9.835400e+003
1.206093e+003, 9.991854e+003
1.206575e+003, 1.014036e+004
1.207057e+003, 1.029401e+004
1.207540e+003, 1.045270e+004
1.208022e+003, 1.061298e+004
1.208504e+003, 1.077275e+004
1.208986e+003, 1.094253e+004
1.209468e+003, 1.112990e+004
1.209950e+003, 1.132077e+004
1.210432e+003, 1.150892e+004
1.210914e+003, 1.170446e+004
1.211396e+003, 1.192043e+004
1.211879e+003, 1.214046e+004
1.212361e+003, 1.234148e+004
1.212843e+003, 1.253386e+004
1.213325e+003, 1.275893e+004
1.213807e+003, 1.302522e+004
1.214289e+003, 1.327855e+004
1.214771e+003, 1.351479e+004
1.215253e+003, 1.375221e+004
1.215735e+003, 1.399055e+004
1.216218e+003, 1.424204e+004
1.216700e+003, 1.451441e+004
1.217182e+003, 1.479779e+004
1.217664e+003, 1.508418e+004
1.218146e+003, 1.537250e+004
1.218628e+003, 1.566454e+004
1.219110e+003, 1.595950e+004
1.219592e+003, 1.625596e+004
1.220075e+003, 1.655560e+004
1.220557e+003, 1.687443e+004
1.221039e+003, 1.721336e+004
1.221521e+003, 1.756250e+004
1.222003e+003, 1.791551e+004
1.222485e+003, 1.827025e+004
1.222967e+003, 1.861751e+004
1.223449e+003, 1.897245e+004
1.223932e+003, 1.936005e+004
1.224414e+003, 1.976022e+004
1.224896e+003, 2.014614e+004
1.225378e+003, 2.052416e+004
1.225860e+003, 2.091066e+004
1.226342e+003, 2.130903e+004
1.226824e+003, 2.169848e+004
1.227306e+003, 2.206558e+004
1.227788e+003, 2.244703e+004
1.228271e+003, 2.285321e+004
1.228753e+003, 2.328155e+004
1.229235e+003, 2.375049e+004
1.229717e+003, 2.422027e+004
1.230199e+003, 2.465338e+004
1.230681e+003, 2.506546e+004
1.231163e+003, 2.548920e+004
1.231645e+003, 2.592360e+004
1.232127e+003, 2.635872e+004
1.232610e+003, 2.679985e+004
1.233092e+003, 2.722359e+004
1.233574e+003, 2.762768e+004
1.234056e+003, 2.802658e+004
1.234538e+003, 2.842702e+004
1.235020e+003, 2.882029e+004
1.235502e+003, 2.919796e+004
1.235984e+003, 2.956379e+004
1.236467e+003, 2.991577e+004
1.236949e+003, 3.025828e+004
1.237431e+003, 3.060816e+004
1.237913e+003, 3.096023e+004
1.238395e+003, 3.128568e+004
1.238877e+003, 3.158499e+004
1.239359e+003, 3.188677e+004
1.239841e+003, 3.219429e+004
1.240323e+003, 3.247311e+004
1.240806e+003, 3.269633e+004
1.241288e+003, 3.290171e+004
1.241770e+003, 3.313626e+004
1.242252e+003, 3.335842e+004
1.242734e+003, 3.352148e+004
1.243216e+003, 3.365361e+004
1.243698e+003, 3.380130e+004
1.244180e+003, 3.394377e+004
1.244662e+003, 3.402740e+004
1.245145e+003, 3.404557e+004
1.245627e+003, 3.404315e+004
1.246109e+003, 3.403225e+004
1.246591e+003, 3.400064e+004
1.247073e+003, 3.392843e+004
1.247555e+003, 3.386071e+004
1.248037e+003, 3.384973e+004
1.248519e+003, 3.380373e+004
1.249002e+003, 3.364528e+004
1.249484e+003, 3.342116e+004
1.249966e+003, 3.321007e+004
1.250448e+003, 3.301258e+004
1.250930e+003, 3.283836e+004
1.251412e+003, 3.269247e+004
1.251894e+003, 3.251380e+004
1.252376e+003, 3.229661e+004
1.252859e+003, 3.205115e+004
1.253341e+003, 3.178150e+004
1.253823e+003, 3.151317e+004
1.254305e+003, 3.126563e+004
1.254787e+003, 3.100943e+004
1.255269e+003, 3.069696e+004
1.255751e+003, 3.035384e+004
1.256233e+003, 3.001493e+004
1.256715e+003, 2.968269e+004
1.257198e+003, 2.935874e+004
1.257680e+003, 2.904194e+004
1.258162e+003, 2.873483e+004
1.258644e+003, 2.843219e+004
1.259126e+003, 2.810678e+004
1.259608e+003, 2.773896e+004
1.260090e+003, 2.738325e+004
1.260572e+003, 2.707733e+004
1.261054e+003, 2.677360e+004
1.261537e+003, 2.645277e+004
1.262019e+003, 2.612408e+004
1.262501e+003, 2.578476e+004
1.262983e+003, 2.544730e+004
1.263465e+003, 2.512876e+004
1.263947e+003, 2.482909e+004
1.264429e+003, 2.453634e+004
1.264911e+003, 2.425621e+004
1.265394e+003, 2.396506e+004
1.265876e+003, 2.365804e+004
1.266358e+003, 2.335880e+004
1.266840e+003, 2.307198e+004
1.267322e+003, 2.280420e+004
1.267804e+003, 2.255970e+004
1.268286e+003, 2.232278e+004
1.268768e+003, 2.207652e+004
1.269250e+003, 2.182279e+004
1.269733e+003, 2.156069e+004
1.270215e+003, 2.129729e+004
1.270697e+003, 2.104531e+004
1.271179e+003, 2.080728e+004
1.271661e+003, 2.058830e+004
1.272143e+003, 2.038597e+004
1.272625e+003, 2.018965e+004
1.273107e+003, 1.999538e+004
1.273589e+003, 1.980575e+004
1.274072e+003, 1.962374e+004
1.274554e+003, 1.944639e+004
1.275036e+003, 1.928134e+004
1.275518e+003, 1.911002e+004
1.276000e+003, 1.890445e+004
1.276482e+003, 1.869871e+004
1.276964e+003, 1.853817e+004
1.277446e+003, 1.841231e+004
1.277929e+003, 1.827678e+004
1.278411e+003, 1.812995e+004
1.278893e+003, 1.799095e+004
1.279375e+003, 1.786525e+004
1.279857e+003, 1.772603e+004
1.280339e+003, 1.756590e+004
1.280821e+003, 1.742102e+004
1.281303e+003, 1.730562e+004
1.281786e+003, 1.721050e+004
1.282268e+003, 1.712622e+004
##END=



