##NAMES=Adelite
##RRUFFID=R140962
##IDEAL CHEMISTRY=CaMgAs^5+^O_4_(OH)
##LOCALITY=Sterling Hill, Ogdensburg, Franklin Mining District, Sussex County, New Jersey, USA
##OWNER=RRUFF
##SOURCE=Marcus Origlieri
##DESCRIPTION=Massive aggregate of smokey orange granular crystals, associated with red zincite and black franklinite
##STATUS=The identification of this mineral has been confirmed by single-crystal X-ray diffraction.
##URL=rruff.info/R140962
8.813672e+001, 9.822517e+002
8.861884e+001, 9.910568e+002
8.910095e+001, 1.002010e+003
8.958307e+001, 1.021207e+003
9.006519e+001, 1.045128e+003
9.054730e+001, 1.066477e+003
9.102942e+001, 1.085630e+003
9.151154e+001, 1.102084e+003
9.199365e+001, 1.114470e+003
9.247577e+001, 1.123680e+003
9.295789e+001, 1.132651e+003
9.344000e+001, 1.144182e+003
9.392212e+001, 1.156218e+003
9.440424e+001, 1.165819e+003
9.488635e+001, 1.173656e+003
9.536847e+001, 1.180716e+003
9.585059e+001, 1.188025e+003
9.633270e+001, 1.195447e+003
9.681482e+001, 1.203600e+003
9.729694e+001, 1.213052e+003
9.777905e+001, 1.223789e+003
9.826117e+001, 1.235138e+003
9.874329e+001, 1.247165e+003
9.922540e+001, 1.259579e+003
9.970752e+001, 1.270655e+003
1.001896e+002, 1.279788e+003
1.006718e+002, 1.288365e+003
1.011539e+002, 1.297956e+003
1.016360e+002, 1.308632e+003
1.021181e+002, 1.320298e+003
1.026002e+002, 1.332954e+003
1.030823e+002, 1.346709e+003
1.035645e+002, 1.360730e+003
1.040466e+002, 1.375037e+003
1.045287e+002, 1.389770e+003
1.050108e+002, 1.405657e+003
1.054929e+002, 1.423456e+003
1.059750e+002, 1.441370e+003
1.064572e+002, 1.458782e+003
1.069393e+002, 1.476465e+003
1.074214e+002, 1.492582e+003
1.079035e+002, 1.506384e+003
1.083856e+002, 1.518756e+003
1.088677e+002, 1.532063e+003
1.093499e+002, 1.546500e+003
1.098320e+002, 1.562019e+003
1.103141e+002, 1.578580e+003
1.107962e+002, 1.598596e+003
1.112783e+002, 1.617323e+003
1.117604e+002, 1.633729e+003
1.122426e+002, 1.648379e+003
1.127247e+002, 1.663913e+003
1.132068e+002, 1.681891e+003
1.136889e+002, 1.700335e+003
1.141710e+002, 1.717688e+003
1.146531e+002, 1.734161e+003
1.151353e+002, 1.748910e+003
1.156174e+002, 1.761146e+003
1.160995e+002, 1.770811e+003
1.165816e+002, 1.780953e+003
1.170637e+002, 1.793011e+003
1.175458e+002, 1.805924e+003
1.180280e+002, 1.818711e+003
1.185101e+002, 1.830877e+003
1.189922e+002, 1.842727e+003
1.194743e+002, 1.854096e+003
1.199564e+002, 1.864924e+003
1.204385e+002, 1.875930e+003
1.209207e+002, 1.886703e+003
1.214028e+002, 1.897957e+003
1.218849e+002, 1.910913e+003
1.223670e+002, 1.929387e+003
1.228491e+002, 1.948588e+003
1.233312e+002, 1.962889e+003
1.238134e+002, 1.970918e+003
1.242955e+002, 1.977105e+003
1.247776e+002, 1.985073e+003
1.252597e+002, 1.994534e+003
1.257418e+002, 2.004512e+003
1.262239e+002, 2.013904e+003
1.267061e+002, 2.023571e+003
1.271882e+002, 2.035047e+003
1.276703e+002, 2.049205e+003
1.281524e+002, 2.064327e+003
1.286345e+002, 2.077702e+003
1.291166e+002, 2.089498e+003
1.295988e+002, 2.101605e+003
1.300809e+002, 2.116187e+003
1.305630e+002, 2.132475e+003
1.310451e+002, 2.147141e+003
1.315272e+002, 2.158712e+003
1.320093e+002, 2.168631e+003
1.324915e+002, 2.180596e+003
1.329736e+002, 2.194721e+003
1.334557e+002, 2.209392e+003
1.339378e+002, 2.222811e+003
1.344199e+002, 2.234999e+003
1.349020e+002, 2.247530e+003
1.353842e+002, 2.261018e+003
1.358663e+002, 2.274926e+003
1.363484e+002, 2.287841e+003
1.368305e+002, 2.299397e+003
1.373126e+002, 2.310708e+003
1.377947e+002, 2.323431e+003
1.382769e+002, 2.338271e+003
1.387590e+002, 2.350902e+003
1.392411e+002, 2.359719e+003
1.397232e+002, 2.364753e+003
1.402053e+002, 2.368974e+003
1.406874e+002, 2.372230e+003
1.411696e+002, 2.375078e+003
1.416517e+002, 2.378467e+003
1.421338e+002, 2.383326e+003
1.426159e+002, 2.386931e+003
1.430980e+002, 2.388201e+003
1.435801e+002, 2.386505e+003
1.440623e+002, 2.386094e+003
1.445444e+002, 2.387507e+003
1.450265e+002, 2.390090e+003
1.455086e+002, 2.392744e+003
1.459907e+002, 2.396160e+003
1.464728e+002, 2.398926e+003
1.469550e+002, 2.400283e+003
1.474371e+002, 2.398517e+003
1.479192e+002, 2.399430e+003
1.484013e+002, 2.405153e+003
1.488834e+002, 2.413312e+003
1.493655e+002, 2.418786e+003
1.498477e+002, 2.420419e+003
1.503298e+002, 2.420279e+003
1.508119e+002, 2.419039e+003
1.512940e+002, 2.416329e+003
1.517761e+002, 2.413021e+003
1.522583e+002, 2.407912e+003
1.527404e+002, 2.402058e+003
1.532225e+002, 2.398464e+003
1.537046e+002, 2.400110e+003
1.541867e+002, 2.402133e+003
1.546688e+002, 2.402246e+003
1.551510e+002, 2.397324e+003
1.556331e+002, 2.394023e+003
1.561152e+002, 2.394377e+003
1.565973e+002, 2.397491e+003
1.570794e+002, 2.399829e+003
1.575615e+002, 2.399817e+003
1.580437e+002, 2.399343e+003
1.585258e+002, 2.399574e+003
1.590079e+002, 2.401210e+003
1.594900e+002, 2.403126e+003
1.599721e+002, 2.404427e+003
1.604542e+002, 2.405452e+003
1.609364e+002, 2.408157e+003
1.614185e+002, 2.414165e+003
1.619006e+002, 2.421703e+003
1.623827e+002, 2.429340e+003
1.628648e+002, 2.437288e+003
1.633469e+002, 2.444683e+003
1.638291e+002, 2.451205e+003
1.643112e+002, 2.456804e+003
1.647933e+002, 2.461644e+003
1.652754e+002, 2.465396e+003
1.657575e+002, 2.468550e+003
1.662396e+002, 2.471616e+003
1.667218e+002, 2.475646e+003
1.672039e+002, 2.478993e+003
1.676860e+002, 2.480725e+003
1.681681e+002, 2.480823e+003
1.686502e+002, 2.479499e+003
1.691323e+002, 2.476317e+003
1.696145e+002, 2.471931e+003
1.700966e+002, 2.467241e+003
1.705787e+002, 2.461829e+003
1.710608e+002, 2.456747e+003
1.715429e+002, 2.452550e+003
1.720250e+002, 2.449210e+003
1.725072e+002, 2.447700e+003
1.729893e+002, 2.450793e+003
1.734714e+002, 2.456105e+003
1.739535e+002, 2.459227e+003
1.744356e+002, 2.455955e+003
1.749177e+002, 2.450454e+003
1.753999e+002, 2.447527e+003
1.758820e+002, 2.447429e+003
1.763641e+002, 2.448878e+003
1.768462e+002, 2.451868e+003
1.773283e+002, 2.455597e+003
1.778104e+002, 2.458030e+003
1.782926e+002, 2.456452e+003
1.787747e+002, 2.453354e+003
1.792568e+002, 2.453130e+003
1.797389e+002, 2.456220e+003
1.802210e+002, 2.460428e+003
1.807031e+002, 2.463391e+003
1.811853e+002, 2.465365e+003
1.816674e+002, 2.467222e+003
1.821495e+002, 2.469500e+003
1.826316e+002, 2.471979e+003
1.831137e+002, 2.474163e+003
1.835958e+002, 2.476120e+003
1.840780e+002, 2.477618e+003
1.845601e+002, 2.478228e+003
1.850422e+002, 2.478071e+003
1.855243e+002, 2.477812e+003
1.860064e+002, 2.477391e+003
1.864885e+002, 2.477132e+003
1.869707e+002, 2.478413e+003
1.874528e+002, 2.481691e+003
1.879349e+002, 2.485569e+003
1.884170e+002, 2.487910e+003
1.888991e+002, 2.488778e+003
1.893812e+002, 2.489229e+003
1.898634e+002, 2.489455e+003
1.903455e+002, 2.489580e+003
1.908276e+002, 2.490614e+003
1.913097e+002, 2.492834e+003
1.917918e+002, 2.495443e+003
1.922739e+002, 2.496882e+003
1.927561e+002, 2.497086e+003
1.932382e+002, 2.497399e+003
1.937203e+002, 2.498641e+003
1.942024e+002, 2.500722e+003
1.946845e+002, 2.502865e+003
1.951666e+002, 2.505155e+003
1.956488e+002, 2.507225e+003
1.961309e+002, 2.507921e+003
1.966130e+002, 2.507018e+003
1.970951e+002, 2.506749e+003
1.975772e+002, 2.509042e+003
1.980593e+002, 2.513956e+003
1.985415e+002, 2.517112e+003
1.990236e+002, 2.517791e+003
1.995057e+002, 2.517103e+003
1.999878e+002, 2.517649e+003
2.004699e+002, 2.519698e+003
2.009520e+002, 2.521670e+003
2.014342e+002, 2.522671e+003
2.019163e+002, 2.522665e+003
2.023984e+002, 2.522110e+003
2.028805e+002, 2.520755e+003
2.033626e+002, 2.519106e+003
2.038447e+002, 2.518488e+003
2.043269e+002, 2.519067e+003
2.048090e+002, 2.520059e+003
2.052911e+002, 2.521142e+003
2.057732e+002, 2.522385e+003
2.062553e+002, 2.523008e+003
2.067374e+002, 2.522198e+003
2.072196e+002, 2.521244e+003
2.077017e+002, 2.524708e+003
2.081838e+002, 2.534677e+003
2.086659e+002, 2.543351e+003
2.091480e+002, 2.545265e+003
2.096301e+002, 2.538347e+003
2.101123e+002, 2.534483e+003
2.105944e+002, 2.535223e+003
2.110765e+002, 2.538949e+003
2.115586e+002, 2.540867e+003
2.120407e+002, 2.540192e+003
2.125228e+002, 2.539500e+003
2.130050e+002, 2.540428e+003
2.134871e+002, 2.543608e+003
2.139692e+002, 2.545991e+003
2.144513e+002, 2.547237e+003
2.149334e+002, 2.547615e+003
2.154155e+002, 2.547907e+003
2.158977e+002, 2.547960e+003
2.163798e+002, 2.548155e+003
2.168619e+002, 2.548770e+003
2.173440e+002, 2.550030e+003
2.178261e+002, 2.550901e+003
2.183082e+002, 2.551329e+003
2.187904e+002, 2.551299e+003
2.192725e+002, 2.550755e+003
2.197546e+002, 2.549578e+003
2.202367e+002, 2.548098e+003
2.207188e+002, 2.546508e+003
2.212009e+002, 2.544842e+003
2.216831e+002, 2.542934e+003
2.221652e+002, 2.540459e+003
2.226473e+002, 2.537883e+003
2.231294e+002, 2.536613e+003
2.236115e+002, 2.536961e+003
2.240936e+002, 2.538197e+003
2.245758e+002, 2.540165e+003
2.250579e+002, 2.543418e+003
2.255400e+002, 2.546225e+003
2.260221e+002, 2.548980e+003
2.265042e+002, 2.551198e+003
2.269863e+002, 2.551236e+003
2.274685e+002, 2.547899e+003
2.279506e+002, 2.544233e+003
2.284327e+002, 2.541626e+003
2.289148e+002, 2.540521e+003
2.293969e+002, 2.539306e+003
2.298790e+002, 2.537796e+003
2.303612e+002, 2.536174e+003
2.308433e+002, 2.534936e+003
2.313254e+002, 2.534104e+003
2.318075e+002, 2.533520e+003
2.322896e+002, 2.533127e+003
2.327717e+002, 2.532982e+003
2.332539e+002, 2.532736e+003
2.337360e+002, 2.532049e+003
2.342181e+002, 2.531333e+003
2.347002e+002, 2.531702e+003
2.351823e+002, 2.533966e+003
2.356644e+002, 2.536010e+003
2.361466e+002, 2.536830e+003
2.366287e+002, 2.535618e+003
2.371108e+002, 2.535413e+003
2.375929e+002, 2.537005e+003
2.380750e+002, 2.539274e+003
2.385571e+002, 2.539725e+003
2.390393e+002, 2.537058e+003
2.395214e+002, 2.534677e+003
2.400035e+002, 2.534021e+003
2.404856e+002, 2.535994e+003
2.409677e+002, 2.537001e+003
2.414498e+002, 2.536613e+003
2.419320e+002, 2.535566e+003
2.424141e+002, 2.535199e+003
2.428962e+002, 2.536109e+003
2.433783e+002, 2.536839e+003
2.438604e+002, 2.536743e+003
2.443425e+002, 2.535336e+003
2.448247e+002, 2.535158e+003
2.453068e+002, 2.537070e+003
2.457889e+002, 2.539705e+003
2.462710e+002, 2.540646e+003
2.467531e+002, 2.538181e+003
2.472352e+002, 2.536955e+003
2.477174e+002, 2.538794e+003
2.481995e+002, 2.544533e+003
2.486816e+002, 2.548853e+003
2.491637e+002, 2.551172e+003
2.496458e+002, 2.552461e+003
2.501279e+002, 2.554061e+003
2.506101e+002, 2.556148e+003
2.510922e+002, 2.558164e+003
2.515743e+002, 2.559842e+003
2.520564e+002, 2.561080e+003
2.525385e+002, 2.562765e+003
2.530206e+002, 2.565105e+003
2.535028e+002, 2.567714e+003
2.539849e+002, 2.570127e+003
2.544670e+002, 2.572530e+003
2.549491e+002, 2.574439e+003
2.554312e+002, 2.575672e+003
2.559133e+002, 2.576191e+003
2.563955e+002, 2.576725e+003
2.568776e+002, 2.577489e+003
2.573597e+002, 2.578022e+003
2.578418e+002, 2.577609e+003
2.583239e+002, 2.575388e+003
2.588061e+002, 2.574219e+003
2.592882e+002, 2.574847e+003
2.597703e+002, 2.577248e+003
2.602524e+002, 2.579646e+003
2.607345e+002, 2.582125e+003
2.612166e+002, 2.584514e+003
2.616988e+002, 2.586679e+003
2.621809e+002, 2.588499e+003
2.626630e+002, 2.590402e+003
2.631451e+002, 2.592680e+003
2.636272e+002, 2.595213e+003
2.641093e+002, 2.596446e+003
2.645915e+002, 2.595704e+003
2.650736e+002, 2.594925e+003
2.655557e+002, 2.595938e+003
2.660378e+002, 2.599520e+003
2.665199e+002, 2.602086e+003
2.670020e+002, 2.602777e+003
2.674842e+002, 2.602073e+003
2.679663e+002, 2.602375e+003
2.684484e+002, 2.603900e+003
2.689305e+002, 2.605891e+003
2.694126e+002, 2.607880e+003
2.698947e+002, 2.609911e+003
2.703769e+002, 2.611736e+003
2.708590e+002, 2.613259e+003
2.713411e+002, 2.614590e+003
2.718232e+002, 2.616027e+003
2.723053e+002, 2.617550e+003
2.727874e+002, 2.619192e+003
2.732696e+002, 2.621065e+003
2.737517e+002, 2.623230e+003
2.742338e+002, 2.625121e+003
2.747159e+002, 2.626641e+003
2.751980e+002, 2.627958e+003
2.756801e+002, 2.629379e+003
2.761623e+002, 2.630901e+003
2.766444e+002, 2.632631e+003
2.771265e+002, 2.634470e+003
2.776086e+002, 2.636408e+003
2.780907e+002, 2.639631e+003
2.785728e+002, 2.644854e+003
2.790550e+002, 2.650330e+003
2.795371e+002, 2.652333e+003
2.800192e+002, 2.650366e+003
2.805013e+002, 2.648968e+003
2.809834e+002, 2.650563e+003
2.814655e+002, 2.655044e+003
2.819477e+002, 2.658556e+003
2.824298e+002, 2.660864e+003
2.829119e+002, 2.662640e+003
2.833940e+002, 2.664588e+003
2.838761e+002, 2.666668e+003
2.843582e+002, 2.669274e+003
2.848404e+002, 2.672915e+003
2.853225e+002, 2.677269e+003
2.858046e+002, 2.680578e+003
2.862867e+002, 2.682780e+003
2.867688e+002, 2.683997e+003
2.872509e+002, 2.683416e+003
2.877331e+002, 2.681282e+003
2.882152e+002, 2.681188e+003
2.886973e+002, 2.685646e+003
2.891794e+002, 2.692659e+003
2.896615e+002, 2.695013e+003
2.901436e+002, 2.692453e+003
2.906258e+002, 2.689049e+003
2.911079e+002, 2.688554e+003
2.915900e+002, 2.690579e+003
2.920721e+002, 2.693011e+003
2.925542e+002, 2.695710e+003
2.930363e+002, 2.698203e+003
2.935185e+002, 2.698856e+003
2.940006e+002, 2.697730e+003
2.944827e+002, 2.697238e+003
2.949648e+002, 2.699706e+003
2.954469e+002, 2.704352e+003
2.959290e+002, 2.708772e+003
2.964112e+002, 2.712666e+003
2.968933e+002, 2.715913e+003
2.973754e+002, 2.717728e+003
2.978575e+002, 2.718352e+003
2.983396e+002, 2.719467e+003
2.988217e+002, 2.722666e+003
2.993039e+002, 2.727025e+003
2.997860e+002, 2.730425e+003
3.002681e+002, 2.732245e+003
3.007502e+002, 2.734172e+003
3.012323e+002, 2.738719e+003
3.017144e+002, 2.745214e+003
3.021966e+002, 2.751094e+003
3.026787e+002, 2.754855e+003
3.031608e+002, 2.757336e+003
3.036429e+002, 2.759743e+003
3.041250e+002, 2.762172e+003
3.046071e+002, 2.764331e+003
3.050893e+002, 2.765367e+003
3.055714e+002, 2.765925e+003
3.060535e+002, 2.767301e+003
3.065356e+002, 2.770458e+003
3.070177e+002, 2.774490e+003
3.074998e+002, 2.778780e+003
3.079820e+002, 2.783350e+003
3.084641e+002, 2.787472e+003
3.089462e+002, 2.790132e+003
3.094283e+002, 2.792201e+003
3.099104e+002, 2.794832e+003
3.103925e+002, 2.798685e+003
3.108747e+002, 2.803087e+003
3.113568e+002, 2.807504e+003
3.118389e+002, 2.812008e+003
3.123210e+002, 2.816985e+003
3.128031e+002, 2.823332e+003
3.132852e+002, 2.830017e+003
3.137674e+002, 2.836013e+003
3.142495e+002, 2.839959e+003
3.147316e+002, 2.844468e+003
3.152137e+002, 2.851063e+003
3.156958e+002, 2.859282e+003
3.161779e+002, 2.867580e+003
3.166601e+002, 2.875674e+003
3.171422e+002, 2.883361e+003
3.176243e+002, 2.890366e+003
3.181064e+002, 2.896227e+003
3.185885e+002, 2.902032e+003
3.190706e+002, 2.907783e+003
3.195528e+002, 2.913707e+003
3.200349e+002, 2.920266e+003
3.205170e+002, 2.927144e+003
3.209991e+002, 2.935023e+003
3.214812e+002, 2.944310e+003
3.219633e+002, 2.955309e+003
3.224455e+002, 2.966810e+003
3.229276e+002, 2.979320e+003
3.234097e+002, 2.992051e+003
3.238918e+002, 3.004040e+003
3.243739e+002, 3.015257e+003
3.248560e+002, 3.025647e+003
3.253382e+002, 3.034542e+003
3.258203e+002, 3.041659e+003
3.263024e+002, 3.050658e+003
3.267845e+002, 3.063379e+003
3.272666e+002, 3.077323e+003
3.277487e+002, 3.090570e+003
3.282309e+002, 3.104272e+003
3.287130e+002, 3.115738e+003
3.291951e+002, 3.124229e+003
3.296772e+002, 3.129967e+003
3.301593e+002, 3.135178e+003
3.306414e+002, 3.140226e+003
3.311236e+002, 3.144309e+003
3.316057e+002, 3.147062e+003
3.320878e+002, 3.148753e+003
3.325699e+002, 3.148502e+003
3.330520e+002, 3.146062e+003
3.335341e+002, 3.141654e+003
3.340163e+002, 3.135679e+003
3.344984e+002, 3.127147e+003
3.349805e+002, 3.118746e+003
3.354626e+002, 3.111478e+003
3.359447e+002, 3.105412e+003
3.364268e+002, 3.100267e+003
3.369090e+002, 3.096337e+003
3.373911e+002, 3.093011e+003
3.378732e+002, 3.089030e+003
3.383553e+002, 3.083788e+003
3.388374e+002, 3.080169e+003
3.393195e+002, 3.079433e+003
3.398017e+002, 3.081501e+003
3.402838e+002, 3.083106e+003
3.407659e+002, 3.083827e+003
3.412480e+002, 3.085272e+003
3.417301e+002, 3.090063e+003
3.422122e+002, 3.098538e+003
3.426944e+002, 3.104778e+003
3.431765e+002, 3.106388e+003
3.436586e+002, 3.105313e+003
3.441407e+002, 3.108208e+003
3.446228e+002, 3.115228e+003
3.451049e+002, 3.123887e+003
3.455871e+002, 3.132333e+003
3.460692e+002, 3.140777e+003
3.465513e+002, 3.150058e+003
3.470334e+002, 3.160607e+003
3.475155e+002, 3.171446e+003
3.479977e+002, 3.180332e+003
3.484798e+002, 3.187585e+003
3.489619e+002, 3.195234e+003
3.494440e+002, 3.205560e+003
3.499261e+002, 3.217023e+003
3.504082e+002, 3.225960e+003
3.508904e+002, 3.231984e+003
3.513725e+002, 3.236619e+003
3.518546e+002, 3.241937e+003
3.523367e+002, 3.247220e+003
3.528188e+002, 3.250659e+003
3.533009e+002, 3.251512e+003
3.537831e+002, 3.250074e+003
3.542652e+002, 3.245999e+003
3.547473e+002, 3.239392e+003
3.552294e+002, 3.232455e+003
3.557115e+002, 3.226448e+003
3.561936e+002, 3.221176e+003
3.566758e+002, 3.216417e+003
3.571579e+002, 3.212140e+003
3.576400e+002, 3.208245e+003
3.581221e+002, 3.204659e+003
3.586042e+002, 3.201420e+003
3.590863e+002, 3.198509e+003
3.595685e+002, 3.196636e+003
3.600506e+002, 3.194682e+003
3.605327e+002, 3.191763e+003
3.610148e+002, 3.187501e+003
3.614969e+002, 3.182931e+003
3.619790e+002, 3.178108e+003
3.624612e+002, 3.173327e+003
3.629433e+002, 3.168995e+003
3.634254e+002, 3.165769e+003
3.639075e+002, 3.162523e+003
3.643896e+002, 3.158878e+003
3.648717e+002, 3.154800e+003
3.653539e+002, 3.150144e+003
3.658360e+002, 3.144648e+003
3.663181e+002, 3.138646e+003
3.668002e+002, 3.132321e+003
3.672823e+002, 3.126158e+003
3.677644e+002, 3.119113e+003
3.682466e+002, 3.110310e+003
3.687287e+002, 3.099960e+003
3.692108e+002, 3.090980e+003
3.696929e+002, 3.083422e+003
3.701750e+002, 3.077110e+003
3.706571e+002, 3.072146e+003
3.711393e+002, 3.069796e+003
3.716214e+002, 3.066575e+003
3.721035e+002, 3.062329e+003
3.725856e+002, 3.057241e+003
3.730677e+002, 3.051669e+003
3.735498e+002, 3.045172e+003
3.740320e+002, 3.039000e+003
3.745141e+002, 3.033694e+003
3.749962e+002, 3.029360e+003
3.754783e+002, 3.025163e+003
3.759604e+002, 3.021113e+003
3.764425e+002, 3.017263e+003
3.769247e+002, 3.013531e+003
3.774068e+002, 3.009821e+003
3.778889e+002, 3.007093e+003
3.783710e+002, 3.006109e+003
3.788531e+002, 3.006206e+003
3.793352e+002, 3.004080e+003
3.798174e+002, 2.999391e+003
3.802995e+002, 2.994897e+003
3.807816e+002, 2.992960e+003
3.812637e+002, 2.993327e+003
3.817458e+002, 2.994139e+003
3.822279e+002, 2.995359e+003
3.827101e+002, 2.996496e+003
3.831922e+002, 2.996558e+003
3.836743e+002, 2.995698e+003
3.841564e+002, 2.994949e+003
3.846385e+002, 2.994365e+003
3.851206e+002, 2.994388e+003
3.856028e+002, 2.996301e+003
3.860849e+002, 3.000305e+003
3.865670e+002, 3.004510e+003
3.870491e+002, 3.007126e+003
3.875312e+002, 3.008690e+003
3.880133e+002, 3.010283e+003
3.884955e+002, 3.012138e+003
3.889776e+002, 3.014309e+003
3.894597e+002, 3.016947e+003
3.899418e+002, 3.019978e+003
3.904239e+002, 3.023011e+003
3.909060e+002, 3.026517e+003
3.913882e+002, 3.029555e+003
3.918703e+002, 3.031031e+003
3.923524e+002, 3.029866e+003
3.928345e+002, 3.028983e+003
3.933166e+002, 3.029683e+003
3.937987e+002, 3.031668e+003
3.942809e+002, 3.034319e+003
3.947630e+002, 3.038621e+003
3.952451e+002, 3.042515e+003
3.957272e+002, 3.044739e+003
3.962093e+002, 3.044773e+003
3.966914e+002, 3.045747e+003
3.971736e+002, 3.049787e+003
3.976557e+002, 3.054285e+003
3.981378e+002, 3.056854e+003
3.986199e+002, 3.053801e+003
3.991020e+002, 3.052630e+003
3.995841e+002, 3.055266e+003
4.000663e+002, 3.061000e+003
4.005484e+002, 3.065108e+003
4.010305e+002, 3.066148e+003
4.015126e+002, 3.067134e+003
4.019947e+002, 3.069801e+003
4.024768e+002, 3.075805e+003
4.029590e+002, 3.079380e+003
4.034411e+002, 3.079229e+003
4.039232e+002, 3.077695e+003
4.044053e+002, 3.079272e+003
4.048874e+002, 3.085263e+003
4.053695e+002, 3.090595e+003
4.058517e+002, 3.093417e+003
4.063338e+002, 3.093947e+003
4.068159e+002, 3.095502e+003
4.072980e+002, 3.098292e+003
4.077801e+002, 3.101465e+003
4.082622e+002, 3.103858e+003
4.087444e+002, 3.105546e+003
4.092265e+002, 3.108412e+003
4.097086e+002, 3.112997e+003
4.101907e+002, 3.118643e+003
4.106728e+002, 3.124191e+003
4.111549e+002, 3.129633e+003
4.116371e+002, 3.135013e+003
4.121192e+002, 3.140545e+003
4.126013e+002, 3.145925e+003
4.130834e+002, 3.150145e+003
4.135655e+002, 3.152909e+003
4.140476e+002, 3.155832e+003
4.145298e+002, 3.160382e+003
4.150119e+002, 3.166247e+003
4.154940e+002, 3.172962e+003
4.159761e+002, 3.182326e+003
4.164582e+002, 3.190906e+003
4.169403e+002, 3.194542e+003
4.174225e+002, 3.194054e+003
4.179046e+002, 3.194270e+003
4.183867e+002, 3.199103e+003
4.188688e+002, 3.205221e+003
4.193509e+002, 3.209853e+003
4.198330e+002, 3.212375e+003
4.203152e+002, 3.213728e+003
4.207973e+002, 3.213959e+003
4.212794e+002, 3.213362e+003
4.217615e+002, 3.212464e+003
4.222436e+002, 3.211471e+003
4.227257e+002, 3.210198e+003
4.232079e+002, 3.208425e+003
4.236900e+002, 3.206062e+003
4.241721e+002, 3.204100e+003
4.246542e+002, 3.202840e+003
4.251363e+002, 3.201855e+003
4.256184e+002, 3.200819e+003
4.261006e+002, 3.199930e+003
4.265827e+002, 3.198715e+003
4.270648e+002, 3.197817e+003
4.275469e+002, 3.196466e+003
4.280290e+002, 3.191878e+003
4.285111e+002, 3.182860e+003
4.289933e+002, 3.172807e+003
4.294754e+002, 3.162983e+003
4.299575e+002, 3.153230e+003
4.304396e+002, 3.144501e+003
4.309217e+002, 3.137118e+003
4.314038e+002, 3.129909e+003
4.318860e+002, 3.121004e+003
4.323681e+002, 3.110297e+003
4.328502e+002, 3.101108e+003
4.333323e+002, 3.094597e+003
4.338144e+002, 3.090069e+003
4.342965e+002, 3.085751e+003
4.347787e+002, 3.081691e+003
4.352608e+002, 3.078046e+003
4.357429e+002, 3.075236e+003
4.362250e+002, 3.072974e+003
4.367071e+002, 3.070024e+003
4.371892e+002, 3.065845e+003
4.376714e+002, 3.062869e+003
4.381535e+002, 3.064871e+003
4.386356e+002, 3.070088e+003
4.391177e+002, 3.074610e+003
4.395998e+002, 3.076340e+003
4.400819e+002, 3.076850e+003
4.405641e+002, 3.076460e+003
4.410462e+002, 3.075410e+003
4.415283e+002, 3.076228e+003
4.420104e+002, 3.081665e+003
4.424925e+002, 3.088739e+003
4.429746e+002, 3.094915e+003
4.434568e+002, 3.099476e+003
4.439389e+002, 3.103427e+003
4.444210e+002, 3.106109e+003
4.449031e+002, 3.108461e+003
4.453852e+002, 3.112314e+003
4.458673e+002, 3.119212e+003
4.463495e+002, 3.126504e+003
4.468316e+002, 3.133664e+003
4.473137e+002, 3.140776e+003
4.477958e+002, 3.147190e+003
4.482779e+002, 3.151583e+003
4.487600e+002, 3.156398e+003
4.492422e+002, 3.163481e+003
4.497243e+002, 3.173719e+003
4.502064e+002, 3.184638e+003
4.506885e+002, 3.196560e+003
4.511706e+002, 3.209007e+003
4.516527e+002, 3.220147e+003
4.521349e+002, 3.229475e+003
4.526170e+002, 3.239457e+003
4.530991e+002, 3.250777e+003
4.535812e+002, 3.263588e+003
4.540633e+002, 3.278919e+003
4.545454e+002, 3.297419e+003
4.550276e+002, 3.315934e+003
4.555097e+002, 3.330509e+003
4.559918e+002, 3.341806e+003
4.564739e+002, 3.353185e+003
4.569560e+002, 3.366200e+003
4.574381e+002, 3.378742e+003
4.579203e+002, 3.386761e+003
4.584024e+002, 3.391037e+003
4.588845e+002, 3.395382e+003
4.593666e+002, 3.402623e+003
4.598488e+002, 3.410945e+003
4.603309e+002, 3.417599e+003
4.608130e+002, 3.422146e+003
4.612951e+002, 3.427624e+003
4.617772e+002, 3.436080e+003
4.622593e+002, 3.446594e+003
4.627415e+002, 3.457949e+003
4.632236e+002, 3.469551e+003
4.637057e+002, 3.482155e+003
4.641878e+002, 3.496305e+003
4.646699e+002, 3.511654e+003
4.651520e+002, 3.527343e+003
4.656342e+002, 3.543650e+003
4.661163e+002, 3.559476e+003
4.665984e+002, 3.574851e+003
4.670805e+002, 3.590606e+003
4.675626e+002, 3.603215e+003
4.680447e+002, 3.614045e+003
4.685269e+002, 3.620902e+003
4.690090e+002, 3.621378e+003
4.694911e+002, 3.613457e+003
4.699732e+002, 3.602821e+003
4.704553e+002, 3.590190e+003
4.709374e+002, 3.575487e+003
4.714196e+002, 3.557581e+003
4.719017e+002, 3.535788e+003
4.723838e+002, 3.513028e+003
4.728659e+002, 3.489875e+003
4.733480e+002, 3.466211e+003
4.738301e+002, 3.446551e+003
4.743123e+002, 3.431261e+003
4.747944e+002, 3.418220e+003
4.752765e+002, 3.405149e+003
4.757586e+002, 3.392141e+003
4.762407e+002, 3.379703e+003
4.767228e+002, 3.367847e+003
4.772050e+002, 3.356779e+003
4.776871e+002, 3.346933e+003
4.781692e+002, 3.338275e+003
4.786513e+002, 3.330781e+003
4.791334e+002, 3.325168e+003
4.796155e+002, 3.320403e+003
4.800977e+002, 3.315191e+003
4.805798e+002, 3.309273e+003
4.810619e+002, 3.304112e+003
4.815440e+002, 3.300478e+003
4.820261e+002, 3.298231e+003
4.825082e+002, 3.297169e+003
4.829904e+002, 3.300181e+003
4.834725e+002, 3.301307e+003
4.839546e+002, 3.297230e+003
4.844367e+002, 3.289253e+003
4.849188e+002, 3.283262e+003
4.854009e+002, 3.280206e+003
4.858831e+002, 3.279128e+003
4.863652e+002, 3.279792e+003
4.868473e+002, 3.282614e+003
4.873294e+002, 3.285445e+003
4.878115e+002, 3.288455e+003
4.882936e+002, 3.291198e+003
4.887758e+002, 3.293118e+003
4.892579e+002, 3.293828e+003
4.897400e+002, 3.294792e+003
4.902221e+002, 3.296154e+003
4.907042e+002, 3.297946e+003
4.911863e+002, 3.300548e+003
4.916685e+002, 3.304109e+003
4.921506e+002, 3.307196e+003
4.926327e+002, 3.309124e+003
4.931148e+002, 3.309979e+003
4.935969e+002, 3.309723e+003
4.940790e+002, 3.308324e+003
4.945612e+002, 3.306747e+003
4.950433e+002, 3.306375e+003
4.955254e+002, 3.306560e+003
4.960075e+002, 3.305770e+003
4.964896e+002, 3.303383e+003
4.969717e+002, 3.300277e+003
4.974539e+002, 3.297570e+003
4.979360e+002, 3.294863e+003
4.984181e+002, 3.291208e+003
4.989002e+002, 3.284416e+003
4.993823e+002, 3.277775e+003
4.998644e+002, 3.273890e+003
5.003466e+002, 3.273119e+003
5.008287e+002, 3.271127e+003
5.013108e+002, 3.264620e+003
5.017929e+002, 3.257415e+003
5.022750e+002, 3.252430e+003
5.027571e+002, 3.253392e+003
5.032393e+002, 3.252050e+003
5.037214e+002, 3.246285e+003
5.042035e+002, 3.238401e+003
5.046856e+002, 3.233356e+003
5.051677e+002, 3.232789e+003
5.056498e+002, 3.232103e+003
5.061320e+002, 3.229686e+003
5.066141e+002, 3.225653e+003
5.070962e+002, 3.223213e+003
5.075783e+002, 3.222781e+003
5.080604e+002, 3.222756e+003
5.085425e+002, 3.221921e+003
5.090247e+002, 3.220360e+003
5.095068e+002, 3.218570e+003
5.099889e+002, 3.216557e+003
5.104710e+002, 3.214617e+003
5.109531e+002, 3.212788e+003
5.114352e+002, 3.211297e+003
5.119174e+002, 3.210958e+003
5.123995e+002, 3.213272e+003
5.128816e+002, 3.216125e+003
5.133637e+002, 3.216904e+003
5.138458e+002, 3.215863e+003
5.143279e+002, 3.214663e+003
5.148101e+002, 3.213845e+003
5.152922e+002, 3.213459e+003
5.157743e+002, 3.213448e+003
5.162564e+002, 3.213632e+003
5.167385e+002, 3.214628e+003
5.172206e+002, 3.218013e+003
5.177028e+002, 3.221748e+003
5.181849e+002, 3.223505e+003
5.186670e+002, 3.220231e+003
5.191491e+002, 3.218103e+003
5.196312e+002, 3.218733e+003
5.201133e+002, 3.221390e+003
5.205955e+002, 3.222879e+003
5.210776e+002, 3.222704e+003
5.215597e+002, 3.222333e+003
5.220418e+002, 3.222405e+003
5.225239e+002, 3.223017e+003
5.230060e+002, 3.223679e+003
5.234882e+002, 3.224428e+003
5.239703e+002, 3.225318e+003
5.244524e+002, 3.226290e+003
5.249345e+002, 3.227378e+003
5.254166e+002, 3.229170e+003
5.258987e+002, 3.232118e+003
5.263809e+002, 3.235111e+003
5.268630e+002, 3.235950e+003
5.273451e+002, 3.235139e+003
5.278272e+002, 3.234829e+003
5.283093e+002, 3.235541e+003
5.287914e+002, 3.237558e+003
5.292736e+002, 3.241989e+003
5.297557e+002, 3.248603e+003
5.302378e+002, 3.254277e+003
5.307199e+002, 3.256653e+003
5.312020e+002, 3.257684e+003
5.316841e+002, 3.259140e+003
5.321663e+002, 3.262295e+003
5.326484e+002, 3.263773e+003
5.331305e+002, 3.260707e+003
5.336126e+002, 3.256107e+003
5.340947e+002, 3.254288e+003
5.345768e+002, 3.259354e+003
5.350590e+002, 3.262684e+003
5.355411e+002, 3.262346e+003
5.360232e+002, 3.259062e+003
5.365053e+002, 3.256892e+003
5.369874e+002, 3.255960e+003
5.374695e+002, 3.256073e+003
5.379517e+002, 3.257609e+003
5.384338e+002, 3.260730e+003
5.389159e+002, 3.262378e+003
5.393980e+002, 3.262267e+003
5.398801e+002, 3.261790e+003
5.403622e+002, 3.262421e+003
5.408444e+002, 3.263997e+003
5.413265e+002, 3.265903e+003
5.418086e+002, 3.268148e+003
5.422907e+002, 3.270324e+003
5.427728e+002, 3.271989e+003
5.432549e+002, 3.273152e+003
5.437371e+002, 3.273845e+003
5.442192e+002, 3.273609e+003
5.447013e+002, 3.273246e+003
5.451834e+002, 3.272986e+003
5.456655e+002, 3.272927e+003
5.461476e+002, 3.274148e+003
5.466298e+002, 3.279498e+003
5.471119e+002, 3.284699e+003
5.475940e+002, 3.286602e+003
5.480761e+002, 3.282204e+003
5.485582e+002, 3.279936e+003
5.490403e+002, 3.281592e+003
5.495225e+002, 3.285149e+003
5.500046e+002, 3.288268e+003
5.504867e+002, 3.290896e+003
5.509688e+002, 3.293193e+003
5.514509e+002, 3.295216e+003
5.519330e+002, 3.296891e+003
5.524152e+002, 3.297758e+003
5.528973e+002, 3.297620e+003
5.533794e+002, 3.297645e+003
5.538615e+002, 3.298339e+003
5.543436e+002, 3.299643e+003
5.548257e+002, 3.301662e+003
5.553079e+002, 3.304415e+003
5.557900e+002, 3.306888e+003
5.562721e+002, 3.307820e+003
5.567542e+002, 3.307878e+003
5.572363e+002, 3.308394e+003
5.577184e+002, 3.309939e+003
5.582006e+002, 3.311219e+003
5.586827e+002, 3.310673e+003
5.591648e+002, 3.309296e+003
5.596469e+002, 3.308736e+003
5.601290e+002, 3.310698e+003
5.606111e+002, 3.312571e+003
5.610933e+002, 3.313188e+003
5.615754e+002, 3.312736e+003
5.620575e+002, 3.312491e+003
5.625396e+002, 3.312565e+003
5.630217e+002, 3.312942e+003
5.635038e+002, 3.313657e+003
5.639860e+002, 3.314782e+003
5.644681e+002, 3.315803e+003
5.649502e+002, 3.316448e+003
5.654323e+002, 3.317385e+003
5.659144e+002, 3.319574e+003
5.663965e+002, 3.323209e+003
5.668787e+002, 3.325783e+003
5.673608e+002, 3.326675e+003
5.678429e+002, 3.326899e+003
5.683250e+002, 3.328278e+003
5.688071e+002, 3.330620e+003
5.692892e+002, 3.332805e+003
5.697714e+002, 3.334622e+003
5.702535e+002, 3.335816e+003
5.707356e+002, 3.335201e+003
5.712177e+002, 3.333214e+003
5.716998e+002, 3.332468e+003
5.721819e+002, 3.335908e+003
5.726641e+002, 3.340200e+003
5.731462e+002, 3.342486e+003
5.736283e+002, 3.341957e+003
5.741104e+002, 3.341925e+003
5.745925e+002, 3.344290e+003
5.750746e+002, 3.347071e+003
5.755568e+002, 3.348471e+003
5.760389e+002, 3.346211e+003
5.765210e+002, 3.345532e+003
5.770031e+002, 3.347465e+003
5.774852e+002, 3.350760e+003
5.779673e+002, 3.352832e+003
5.784495e+002, 3.353443e+003
5.789316e+002, 3.353733e+003
5.794137e+002, 3.353881e+003
5.798958e+002, 3.354063e+003
5.803779e+002, 3.355288e+003
5.808600e+002, 3.357633e+003
5.813422e+002, 3.359604e+003
5.818243e+002, 3.359300e+003
5.823064e+002, 3.358024e+003
5.827885e+002, 3.358996e+003
5.832706e+002, 3.362549e+003
5.837527e+002, 3.366722e+003
5.842349e+002, 3.371104e+003
5.847170e+002, 3.374709e+003
5.851991e+002, 3.376072e+003
5.856812e+002, 3.373211e+003
5.861633e+002, 3.370751e+003
5.866454e+002, 3.370778e+003
5.871276e+002, 3.372461e+003
5.876097e+002, 3.374311e+003
5.880918e+002, 3.376656e+003
5.885739e+002, 3.378442e+003
5.890560e+002, 3.379671e+003
5.895381e+002, 3.380252e+003
5.900203e+002, 3.379200e+003
5.905024e+002, 3.375261e+003
5.909845e+002, 3.372263e+003
5.914666e+002, 3.372444e+003
5.919487e+002, 3.375875e+003
5.924308e+002, 3.379262e+003
5.929130e+002, 3.382831e+003
5.933951e+002, 3.385469e+003
5.938772e+002, 3.385163e+003
5.943593e+002, 3.382947e+003
5.948414e+002, 3.382223e+003
5.953235e+002, 3.383806e+003
5.958057e+002, 3.386360e+003
5.962878e+002, 3.388967e+003
5.967699e+002, 3.391513e+003
5.972520e+002, 3.393750e+003
5.977341e+002, 3.395349e+003
5.982162e+002, 3.396809e+003
5.986984e+002, 3.398414e+003
5.991805e+002, 3.400027e+003
5.996626e+002, 3.401327e+003
6.001447e+002, 3.401802e+003
6.006268e+002, 3.402281e+003
6.011089e+002, 3.402977e+003
6.015911e+002, 3.403866e+003
6.020732e+002, 3.405253e+003
6.025553e+002, 3.407652e+003
6.030374e+002, 3.409728e+003
6.035195e+002, 3.410048e+003
6.040016e+002, 3.408349e+003
6.044838e+002, 3.408798e+003
6.049659e+002, 3.412121e+003
6.054480e+002, 3.416000e+003
6.059301e+002, 3.417388e+003
6.064122e+002, 3.416742e+003
6.068943e+002, 3.415932e+003
6.073765e+002, 3.415524e+003
6.078586e+002, 3.415073e+003
6.083407e+002, 3.413406e+003
6.088228e+002, 3.411265e+003
6.093049e+002, 3.410524e+003
6.097870e+002, 3.413298e+003
6.102692e+002, 3.416541e+003
6.107513e+002, 3.418920e+003
6.112334e+002, 3.420364e+003
6.117155e+002, 3.420844e+003
6.121976e+002, 3.419425e+003
6.126797e+002, 3.417883e+003
6.131619e+002, 3.417062e+003
6.136440e+002, 3.417163e+003
6.141261e+002, 3.417107e+003
6.146082e+002, 3.416841e+003
6.150903e+002, 3.416544e+003
6.155724e+002, 3.416180e+003
6.160546e+002, 3.415719e+003
6.165367e+002, 3.416275e+003
6.170188e+002, 3.418159e+003
6.175009e+002, 3.420617e+003
6.179830e+002, 3.423036e+003
6.184651e+002, 3.425179e+003
6.189473e+002, 3.426112e+003
6.194294e+002, 3.424316e+003
6.199115e+002, 3.422504e+003
6.203936e+002, 3.424122e+003
6.208757e+002, 3.427992e+003
6.213578e+002, 3.430635e+003
6.218400e+002, 3.428879e+003
6.223221e+002, 3.426940e+003
6.228042e+002, 3.427483e+003
6.232863e+002, 3.430671e+003
6.237684e+002, 3.432231e+003
6.242505e+002, 3.429924e+003
6.247327e+002, 3.427703e+003
6.252148e+002, 3.427611e+003
6.256969e+002, 3.430235e+003
6.261790e+002, 3.432800e+003
6.266611e+002, 3.435476e+003
6.271432e+002, 3.437726e+003
6.276254e+002, 3.438682e+003
6.281075e+002, 3.438444e+003
6.285896e+002, 3.438636e+003
6.290717e+002, 3.439593e+003
6.295538e+002, 3.440813e+003
6.300359e+002, 3.441367e+003
6.305181e+002, 3.441615e+003
6.310002e+002, 3.442516e+003
6.314823e+002, 3.445012e+003
6.319644e+002, 3.447707e+003
6.324465e+002, 3.449691e+003
6.329286e+002, 3.451064e+003
6.334108e+002, 3.452147e+003
6.338929e+002, 3.453395e+003
6.343750e+002, 3.454046e+003
6.348571e+002, 3.453478e+003
6.353392e+002, 3.451610e+003
6.358214e+002, 3.450527e+003
6.363035e+002, 3.450662e+003
6.367856e+002, 3.451026e+003
6.372677e+002, 3.450872e+003
6.377498e+002, 3.449996e+003
6.382319e+002, 3.450878e+003
6.387141e+002, 3.454009e+003
6.391962e+002, 3.457208e+003
6.396783e+002, 3.457926e+003
6.401604e+002, 3.456764e+003
6.406425e+002, 3.455759e+003
6.411246e+002, 3.455034e+003
6.416068e+002, 3.455406e+003
6.420889e+002, 3.459126e+003
6.425710e+002, 3.464280e+003
6.430531e+002, 3.467501e+003
6.435352e+002, 3.465529e+003
6.440173e+002, 3.463434e+003
6.444995e+002, 3.463086e+003
6.449816e+002, 3.464175e+003
6.454637e+002, 3.465822e+003
6.459458e+002, 3.468367e+003
6.464279e+002, 3.470861e+003
6.469100e+002, 3.473030e+003
6.473922e+002, 3.474901e+003
6.478743e+002, 3.476654e+003
6.483564e+002, 3.478118e+003
6.488385e+002, 3.479964e+003
6.493206e+002, 3.483221e+003
6.498027e+002, 3.487552e+003
6.502849e+002, 3.489131e+003
6.507670e+002, 3.487793e+003
6.512491e+002, 3.486290e+003
6.517312e+002, 3.487430e+003
6.522133e+002, 3.489953e+003
6.526954e+002, 3.491945e+003
6.531776e+002, 3.493088e+003
6.536597e+002, 3.493561e+003
6.541418e+002, 3.492918e+003
6.546239e+002, 3.491916e+003
6.551060e+002, 3.491433e+003
6.555881e+002, 3.492213e+003
6.560703e+002, 3.492886e+003
6.565524e+002, 3.493073e+003
6.570345e+002, 3.493094e+003
6.575166e+002, 3.493589e+003
6.579987e+002, 3.494930e+003
6.584808e+002, 3.495763e+003
6.589630e+002, 3.495560e+003
6.594451e+002, 3.494722e+003
6.599272e+002, 3.494746e+003
6.604093e+002, 3.495639e+003
6.608914e+002, 3.496507e+003
6.613735e+002, 3.496816e+003
6.618557e+002, 3.496828e+003
6.623378e+002, 3.496813e+003
6.628199e+002, 3.496856e+003
6.633020e+002, 3.497508e+003
6.637841e+002, 3.499617e+003
6.642662e+002, 3.502186e+003
6.647484e+002, 3.504574e+003
6.652305e+002, 3.506752e+003
6.657126e+002, 3.508346e+003
6.661947e+002, 3.508546e+003
6.666768e+002, 3.508619e+003
6.671589e+002, 3.509481e+003
6.676411e+002, 3.511594e+003
6.681232e+002, 3.513474e+003
6.686053e+002, 3.515257e+003
6.690874e+002, 3.516501e+003
6.695695e+002, 3.516374e+003
6.700516e+002, 3.514859e+003
6.705338e+002, 3.513417e+003
6.710159e+002, 3.511953e+003
6.714980e+002, 3.511501e+003
6.719801e+002, 3.514864e+003
6.724622e+002, 3.520616e+003
6.729443e+002, 3.524758e+003
6.734265e+002, 3.524890e+003
6.739086e+002, 3.523620e+003
6.743907e+002, 3.521850e+003
6.748728e+002, 3.520045e+003
6.753549e+002, 3.519603e+003
6.758370e+002, 3.522864e+003
6.763192e+002, 3.525676e+003
6.768013e+002, 3.525972e+003
6.772834e+002, 3.524093e+003
6.777655e+002, 3.524003e+003
6.782476e+002, 3.526112e+003
6.787297e+002, 3.529233e+003
6.792119e+002, 3.533584e+003
6.796940e+002, 3.538970e+003
6.801761e+002, 3.540394e+003
6.806582e+002, 3.537500e+003
6.811403e+002, 3.534155e+003
6.816224e+002, 3.533455e+003
6.821046e+002, 3.534618e+003
6.825867e+002, 3.536370e+003
6.830688e+002, 3.538601e+003
6.835509e+002, 3.540898e+003
6.840330e+002, 3.543073e+003
6.845151e+002, 3.545128e+003
6.849973e+002, 3.547085e+003
6.854794e+002, 3.548873e+003
6.859615e+002, 3.550709e+003
6.864436e+002, 3.552886e+003
6.869257e+002, 3.555037e+003
6.874078e+002, 3.556712e+003
6.878900e+002, 3.557798e+003
6.883721e+002, 3.558887e+003
6.888542e+002, 3.560181e+003
6.893363e+002, 3.561426e+003
6.898184e+002, 3.561795e+003
6.903005e+002, 3.561396e+003
6.907827e+002, 3.561513e+003
6.912648e+002, 3.562990e+003
6.917469e+002, 3.564870e+003
6.922290e+002, 3.565599e+003
6.927111e+002, 3.565503e+003
6.931932e+002, 3.565634e+003
6.936754e+002, 3.566030e+003
6.941575e+002, 3.567195e+003
6.946396e+002, 3.569633e+003
6.951217e+002, 3.573225e+003
6.956038e+002, 3.576870e+003
6.960859e+002, 3.581241e+003
6.965681e+002, 3.584585e+003
6.970502e+002, 3.585890e+003
6.975323e+002, 3.585041e+003
6.980144e+002, 3.585390e+003
6.984965e+002, 3.587378e+003
6.989786e+002, 3.589070e+003
6.994608e+002, 3.588522e+003
6.999429e+002, 3.586379e+003
7.004250e+002, 3.585570e+003
7.009071e+002, 3.586320e+003
7.013892e+002, 3.587635e+003
7.018713e+002, 3.589126e+003
7.023535e+002, 3.590481e+003
7.028356e+002, 3.591171e+003
7.033177e+002, 3.590796e+003
7.037998e+002, 3.590738e+003
7.042819e+002, 3.591811e+003
7.047640e+002, 3.593320e+003
7.052462e+002, 3.594518e+003
7.057283e+002, 3.595111e+003
7.062104e+002, 3.595683e+003
7.066925e+002, 3.595958e+003
7.071746e+002, 3.596465e+003
7.076567e+002, 3.598285e+003
7.081389e+002, 3.601501e+003
7.086210e+002, 3.604512e+003
7.091031e+002, 3.607170e+003
7.095852e+002, 3.609069e+003
7.100673e+002, 3.608796e+003
7.105494e+002, 3.607107e+003
7.110316e+002, 3.606273e+003
7.115137e+002, 3.608235e+003
7.119958e+002, 3.610612e+003
7.124779e+002, 3.611748e+003
7.129600e+002, 3.612031e+003
7.134421e+002, 3.612616e+003
7.139243e+002, 3.613959e+003
7.144064e+002, 3.615523e+003
7.148885e+002, 3.617252e+003
7.153706e+002, 3.619097e+003
7.158527e+002, 3.620582e+003
7.163348e+002, 3.621592e+003
7.168170e+002, 3.622516e+003
7.172991e+002, 3.623288e+003
7.177812e+002, 3.624086e+003
7.182633e+002, 3.626292e+003
7.187454e+002, 3.629863e+003
7.192275e+002, 3.632737e+003
7.197097e+002, 3.632342e+003
7.201918e+002, 3.631086e+003
7.206739e+002, 3.632507e+003
7.211560e+002, 3.636890e+003
7.216381e+002, 3.640106e+003
7.221202e+002, 3.638135e+003
7.226024e+002, 3.635807e+003
7.230845e+002, 3.636832e+003
7.235666e+002, 3.643368e+003
7.240487e+002, 3.647239e+003
7.245308e+002, 3.646961e+003
7.250129e+002, 3.646079e+003
7.254951e+002, 3.647765e+003
7.259772e+002, 3.652208e+003
7.264593e+002, 3.656082e+003
7.269414e+002, 3.659184e+003
7.274235e+002, 3.661500e+003
7.279056e+002, 3.662264e+003
7.283878e+002, 3.662298e+003
7.288699e+002, 3.663544e+003
7.293520e+002, 3.666835e+003
7.298341e+002, 3.670218e+003
7.303162e+002, 3.672718e+003
7.307983e+002, 3.674400e+003
7.312805e+002, 3.675391e+003
7.317626e+002, 3.674753e+003
7.322447e+002, 3.674701e+003
7.327268e+002, 3.675749e+003
7.332089e+002, 3.677345e+003
7.336910e+002, 3.678480e+003
7.341732e+002, 3.678942e+003
7.346553e+002, 3.680050e+003
7.351374e+002, 3.682115e+003
7.356195e+002, 3.684920e+003
7.361016e+002, 3.688302e+003
7.365837e+002, 3.692105e+003
7.370659e+002, 3.695687e+003
7.375480e+002, 3.698979e+003
7.380301e+002, 3.701685e+003
7.385122e+002, 3.703074e+003
7.389943e+002, 3.703598e+003
7.394764e+002, 3.704441e+003
7.399586e+002, 3.706588e+003
7.404407e+002, 3.708460e+003
7.409228e+002, 3.708878e+003
7.414049e+002, 3.708426e+003
7.418870e+002, 3.709980e+003
7.423691e+002, 3.714304e+003
7.428513e+002, 3.718586e+003
7.433334e+002, 3.722015e+003
7.438155e+002, 3.724559e+003
7.442976e+002, 3.725445e+003
7.447797e+002, 3.724827e+003
7.452618e+002, 3.724904e+003
7.457440e+002, 3.728201e+003
7.462261e+002, 3.732266e+003
7.467082e+002, 3.733784e+003
7.471903e+002, 3.732980e+003
7.476724e+002, 3.732900e+003
7.481545e+002, 3.734981e+003
7.486367e+002, 3.738048e+003
7.491188e+002, 3.741778e+003
7.496009e+002, 3.746272e+003
7.500830e+002, 3.750150e+003
7.505651e+002, 3.753678e+003
7.510472e+002, 3.756146e+003
7.515294e+002, 3.756366e+003
7.520115e+002, 3.754457e+003
7.524936e+002, 3.755131e+003
7.529757e+002, 3.758488e+003
7.534578e+002, 3.762656e+003
7.539399e+002, 3.766421e+003
7.544221e+002, 3.769790e+003
7.549042e+002, 3.772717e+003
7.553863e+002, 3.775260e+003
7.558684e+002, 3.777246e+003
7.563505e+002, 3.777411e+003
7.568326e+002, 3.777845e+003
7.573148e+002, 3.780304e+003
7.577969e+002, 3.785849e+003
7.582790e+002, 3.791175e+003
7.587611e+002, 3.796201e+003
7.592432e+002, 3.801204e+003
7.597253e+002, 3.806278e+003
7.602075e+002, 3.811432e+003
7.606896e+002, 3.817238e+003
7.611717e+002, 3.823825e+003
7.616538e+002, 3.830785e+003
7.621359e+002, 3.837763e+003
7.626180e+002, 3.844877e+003
7.631002e+002, 3.852411e+003
7.635823e+002, 3.860737e+003
7.640644e+002, 3.868353e+003
7.645465e+002, 3.872862e+003
7.650286e+002, 3.877134e+003
7.655107e+002, 3.884234e+003
7.659929e+002, 3.896675e+003
7.664750e+002, 3.908989e+003
7.669571e+002, 3.921124e+003
7.674392e+002, 3.933376e+003
7.679213e+002, 3.945759e+003
7.684034e+002, 3.958209e+003
7.688856e+002, 3.973191e+003
7.693677e+002, 3.991389e+003
7.698498e+002, 4.010684e+003
7.703319e+002, 4.027823e+003
7.708140e+002, 4.044137e+003
7.712961e+002, 4.062502e+003
7.717783e+002, 4.083536e+003
7.722604e+002, 4.107162e+003
7.727425e+002, 4.135083e+003
7.732246e+002, 4.164947e+003
7.737067e+002, 4.193586e+003
7.741888e+002, 4.218888e+003
7.746710e+002, 4.245543e+003
7.751531e+002, 4.273729e+003
7.756352e+002, 4.303704e+003
7.761173e+002, 4.336267e+003
7.765994e+002, 4.371344e+003
7.770815e+002, 4.407624e+003
7.775637e+002, 4.445208e+003
7.780458e+002, 4.483505e+003
7.785279e+002, 4.522452e+003
7.790100e+002, 4.561396e+003
7.794921e+002, 4.598990e+003
7.799742e+002, 4.633055e+003
7.804564e+002, 4.666939e+003
7.809385e+002, 4.703915e+003
7.814206e+002, 4.741709e+003
7.819027e+002, 4.775458e+003
7.823848e+002, 4.804114e+003
7.828669e+002, 4.829929e+003
7.833491e+002, 4.854140e+003
7.838312e+002, 4.875155e+003
7.843133e+002, 4.888209e+003
7.847954e+002, 4.893425e+003
7.852775e+002, 4.895415e+003
7.857596e+002, 4.895697e+003
7.862418e+002, 4.893616e+003
7.867239e+002, 4.887761e+003
7.872060e+002, 4.878826e+003
7.876881e+002, 4.868268e+003
7.881702e+002, 4.857475e+003
7.886523e+002, 4.844688e+003
7.891345e+002, 4.827021e+003
7.896166e+002, 4.806848e+003
7.900987e+002, 4.790542e+003
7.905808e+002, 4.779107e+003
7.910629e+002, 4.769835e+003
7.915450e+002, 4.762004e+003
7.920272e+002, 4.756049e+003
7.925093e+002, 4.753591e+003
7.929914e+002, 4.754498e+003
7.934735e+002, 4.757812e+003
7.939556e+002, 4.762129e+003
7.944377e+002, 4.769772e+003
7.949199e+002, 4.784100e+003
7.954020e+002, 4.804159e+003
7.958841e+002, 4.826749e+003
7.963662e+002, 4.849058e+003
7.968483e+002, 4.875577e+003
7.973304e+002, 4.907931e+003
7.978126e+002, 4.945783e+003
7.982947e+002, 4.987381e+003
7.987768e+002, 5.033021e+003
7.992589e+002, 5.081669e+003
7.997410e+002, 5.133154e+003
8.002231e+002, 5.187398e+003
8.007053e+002, 5.244107e+003
8.011874e+002, 5.303115e+003
8.016695e+002, 5.365307e+003
8.021516e+002, 5.434658e+003
8.026337e+002, 5.503500e+003
8.031158e+002, 5.566343e+003
8.035980e+002, 5.622755e+003
8.040801e+002, 5.674287e+003
8.045622e+002, 5.722311e+003
8.050443e+002, 5.763193e+003
8.055264e+002, 5.794868e+003
8.060085e+002, 5.819282e+003
8.064907e+002, 5.842130e+003
8.069728e+002, 5.863088e+003
8.074549e+002, 5.884078e+003
8.079370e+002, 5.904911e+003
8.084191e+002, 5.927279e+003
8.089012e+002, 5.954810e+003
8.093834e+002, 5.986984e+003
8.098655e+002, 6.021948e+003
8.103476e+002, 6.057116e+003
8.108297e+002, 6.096585e+003
8.113118e+002, 6.142507e+003
8.117939e+002, 6.194532e+003
8.122761e+002, 6.251095e+003
8.127582e+002, 6.308714e+003
8.132403e+002, 6.375751e+003
8.137224e+002, 6.455180e+003
8.142045e+002, 6.544604e+003
8.146866e+002, 6.641710e+003
8.151688e+002, 6.745166e+003
8.156509e+002, 6.840264e+003
8.161330e+002, 6.926233e+003
8.166151e+002, 6.994636e+003
8.170972e+002, 7.032006e+003
8.175793e+002, 7.041499e+003
8.180615e+002, 7.032319e+003
8.185436e+002, 6.994333e+003
8.190257e+002, 6.953322e+003
8.195078e+002, 6.906597e+003
8.199899e+002, 6.865602e+003
8.204720e+002, 6.857454e+003
8.209542e+002, 6.880996e+003
8.214363e+002, 6.939726e+003
8.219184e+002, 7.034205e+003
8.224005e+002, 7.165319e+003
8.228826e+002, 7.337729e+003
8.233647e+002, 7.550875e+003
8.238469e+002, 7.792711e+003
8.243290e+002, 8.066609e+003
8.248111e+002, 8.359880e+003
8.252932e+002, 8.666383e+003
8.257753e+002, 8.988553e+003
8.262574e+002, 9.321053e+003
8.267396e+002, 9.709493e+003
8.272217e+002, 1.005965e+004
8.277038e+002, 1.040918e+004
8.281859e+002, 1.069051e+004
8.286681e+002, 1.078785e+004
8.291502e+002, 1.069874e+004
8.296323e+002, 1.042409e+004
8.301144e+002, 9.931537e+003
8.305966e+002, 9.324100e+003
8.310787e+002, 8.691141e+003
8.315608e+002, 8.062237e+003
8.320429e+002, 7.490412e+003
8.325250e+002, 6.995437e+003
8.330071e+002, 6.570773e+003
8.334893e+002, 6.218999e+003
8.339714e+002, 5.931296e+003
8.344535e+002, 5.688832e+003
8.349356e+002, 5.498432e+003
8.354177e+002, 5.330701e+003
8.358998e+002, 5.185991e+003
8.363820e+002, 5.061767e+003
8.368641e+002, 4.955587e+003
8.373462e+002, 4.866790e+003
8.378283e+002, 4.785398e+003
8.383104e+002, 4.710267e+003
8.387925e+002, 4.641867e+003
8.392747e+002, 4.581366e+003
8.397568e+002, 4.527203e+003
8.402389e+002, 4.476830e+003
8.407210e+002, 4.428952e+003
8.412031e+002, 4.385913e+003
8.416852e+002, 4.349092e+003
8.421674e+002, 4.317118e+003
8.426495e+002, 4.289589e+003
8.431316e+002, 4.267118e+003
8.436137e+002, 4.245726e+003
8.440958e+002, 4.224689e+003
8.445779e+002, 4.205864e+003
8.450601e+002, 4.192820e+003
8.455422e+002, 4.183251e+003
8.460243e+002, 4.171480e+003
8.465064e+002, 4.155863e+003
8.469885e+002, 4.141791e+003
8.474706e+002, 4.131924e+003
8.479528e+002, 4.124932e+003
8.484349e+002, 4.120025e+003
8.489170e+002, 4.117919e+003
8.493991e+002, 4.115044e+003
8.498812e+002, 4.111087e+003
8.503633e+002, 4.106764e+003
8.508455e+002, 4.102841e+003
8.513276e+002, 4.099112e+003
8.518097e+002, 4.094099e+003
8.522918e+002, 4.087662e+003
8.527739e+002, 4.081710e+003
8.532560e+002, 4.077487e+003
8.537382e+002, 4.074676e+003
8.542203e+002, 4.073906e+003
8.547024e+002, 4.075669e+003
8.551845e+002, 4.074433e+003
8.556666e+002, 4.065762e+003
8.561487e+002, 4.057536e+003
8.566309e+002, 4.053645e+003
8.571130e+002, 4.054091e+003
8.575951e+002, 4.054138e+003
8.580772e+002, 4.053813e+003
8.585593e+002, 4.052628e+003
8.590414e+002, 4.049043e+003
8.595236e+002, 4.044925e+003
8.600057e+002, 4.043959e+003
8.604878e+002, 4.045646e+003
8.609699e+002, 4.046232e+003
8.614520e+002, 4.042741e+003
8.619341e+002, 4.038943e+003
8.624163e+002, 4.036855e+003
8.628984e+002, 4.036147e+003
8.633805e+002, 4.034416e+003
8.638626e+002, 4.031343e+003
8.643447e+002, 4.028271e+003
8.648268e+002, 4.025687e+003
8.653090e+002, 4.023435e+003
8.657911e+002, 4.021073e+003
8.662732e+002, 4.018681e+003
8.667553e+002, 4.016763e+003
8.672374e+002, 4.015507e+003
8.677195e+002, 4.014734e+003
8.682017e+002, 4.015097e+003
8.686838e+002, 4.015822e+003
8.691659e+002, 4.014628e+003
8.696480e+002, 4.010151e+003
8.701301e+002, 4.005981e+003
8.706122e+002, 4.002769e+003
8.710944e+002, 4.000266e+003
8.715765e+002, 3.998427e+003
8.720586e+002, 3.997080e+003
8.725407e+002, 3.994525e+003
8.730228e+002, 3.989874e+003
8.735049e+002, 3.984949e+003
8.739871e+002, 3.981002e+003
8.744692e+002, 3.978148e+003
8.749513e+002, 3.976494e+003
8.754334e+002, 3.977309e+003
8.759155e+002, 3.977820e+003
8.763976e+002, 3.978088e+003
8.768798e+002, 3.977741e+003
8.773619e+002, 3.975592e+003
8.778440e+002, 3.971380e+003
8.783261e+002, 3.970413e+003
8.788082e+002, 3.973726e+003
8.792903e+002, 3.977741e+003
8.797725e+002, 3.978425e+003
8.802546e+002, 3.977353e+003
8.807367e+002, 3.976832e+003
8.812188e+002, 3.977340e+003
8.817009e+002, 3.977732e+003
8.821830e+002, 3.977479e+003
8.826652e+002, 3.976982e+003
8.831473e+002, 3.976598e+003
8.836294e+002, 3.976443e+003
8.841115e+002, 3.975395e+003
8.845936e+002, 3.973160e+003
8.850757e+002, 3.971692e+003
8.855579e+002, 3.973320e+003
8.860400e+002, 3.976582e+003
8.865221e+002, 3.979051e+003
8.870042e+002, 3.980542e+003
8.874863e+002, 3.980180e+003
8.879684e+002, 3.975194e+003
8.884506e+002, 3.970372e+003
8.889327e+002, 3.968341e+003
8.894148e+002, 3.969077e+003
8.898969e+002, 3.971350e+003
8.903790e+002, 3.975970e+003
8.908611e+002, 3.979512e+003
8.913433e+002, 3.980082e+003
8.918254e+002, 3.978844e+003
8.923075e+002, 3.978496e+003
8.927896e+002, 3.979006e+003
8.932717e+002, 3.980383e+003
8.937538e+002, 3.983291e+003
8.942360e+002, 3.986332e+003
8.947181e+002, 3.988834e+003
8.952002e+002, 3.990753e+003
8.956823e+002, 3.991863e+003
8.961644e+002, 3.991172e+003
8.966465e+002, 3.991733e+003
8.971287e+002, 3.994223e+003
8.976108e+002, 3.997950e+003
8.980929e+002, 4.002685e+003
8.985750e+002, 4.007802e+003
8.990571e+002, 4.009894e+003
8.995392e+002, 4.007264e+003
9.000214e+002, 4.004011e+003
9.005035e+002, 4.003487e+003
9.009856e+002, 4.004193e+003
9.014677e+002, 4.004304e+003
9.019498e+002, 4.002220e+003
9.024319e+002, 4.002036e+003
9.029141e+002, 4.004680e+003
9.033962e+002, 4.007902e+003
9.038783e+002, 4.009847e+003
9.043604e+002, 4.010537e+003
9.048425e+002, 4.009921e+003
9.053246e+002, 4.007896e+003
9.058068e+002, 4.006466e+003
9.062889e+002, 4.007559e+003
9.067710e+002, 4.009774e+003
9.072531e+002, 4.012125e+003
9.077352e+002, 4.014527e+003
9.082173e+002, 4.016148e+003
9.086995e+002, 4.017126e+003
9.091816e+002, 4.016972e+003
9.096637e+002, 4.015161e+003
9.101458e+002, 4.011985e+003
9.106279e+002, 4.009056e+003
9.111100e+002, 4.006431e+003
9.115922e+002, 4.005037e+003
9.120743e+002, 4.006913e+003
9.125564e+002, 4.009118e+003
9.130385e+002, 4.007820e+003
9.135206e+002, 4.004303e+003
9.140027e+002, 4.002452e+003
9.144849e+002, 4.004871e+003
9.149670e+002, 4.007195e+003
9.154491e+002, 4.008547e+003
9.159312e+002, 4.009406e+003
9.164133e+002, 4.010786e+003
9.168954e+002, 4.012673e+003
9.173776e+002, 4.014615e+003
9.178597e+002, 4.016631e+003
9.183418e+002, 4.018259e+003
9.188239e+002, 4.018642e+003
9.193060e+002, 4.018422e+003
9.197881e+002, 4.018474e+003
9.202703e+002, 4.018922e+003
9.207524e+002, 4.019866e+003
9.212345e+002, 4.022123e+003
9.217166e+002, 4.023973e+003
9.221987e+002, 4.023264e+003
9.226808e+002, 4.019789e+003
9.231630e+002, 4.019991e+003
9.236451e+002, 4.024381e+003
9.241272e+002, 4.028839e+003
9.246093e+002, 4.028908e+003
9.250914e+002, 4.027665e+003
9.255735e+002, 4.029025e+003
9.260557e+002, 4.033196e+003
9.265378e+002, 4.036358e+003
9.270199e+002, 4.037121e+003
9.275020e+002, 4.036954e+003
9.279841e+002, 4.036186e+003
9.284662e+002, 4.034905e+003
9.289484e+002, 4.033235e+003
9.294305e+002, 4.031194e+003
9.299126e+002, 4.030491e+003
9.303947e+002, 4.032813e+003
9.308768e+002, 4.035989e+003
9.313589e+002, 4.037649e+003
9.318411e+002, 4.038200e+003
9.323232e+002, 4.038466e+003
9.328053e+002, 4.039047e+003
9.332874e+002, 4.038948e+003
9.337695e+002, 4.037701e+003
9.342516e+002, 4.036095e+003
9.347338e+002, 4.035255e+003
9.352159e+002, 4.035181e+003
9.356980e+002, 4.035663e+003
9.361801e+002, 4.036710e+003
9.366622e+002, 4.038035e+003
9.371443e+002, 4.039445e+003
9.376265e+002, 4.040873e+003
9.381086e+002, 4.042281e+003
9.385907e+002, 4.043754e+003
9.390728e+002, 4.044636e+003
9.395549e+002, 4.044423e+003
9.400370e+002, 4.043989e+003
9.405192e+002, 4.043715e+003
9.410013e+002, 4.043589e+003
9.414834e+002, 4.043871e+003
9.419655e+002, 4.044541e+003
9.424476e+002, 4.045294e+003
9.429297e+002, 4.046161e+003
9.434119e+002, 4.046838e+003
9.438940e+002, 4.047369e+003
9.443761e+002, 4.047543e+003
9.448582e+002, 4.046424e+003
9.453403e+002, 4.041268e+003
9.458224e+002, 4.038435e+003
9.463046e+002, 4.040025e+003
9.467867e+002, 4.044117e+003
9.472688e+002, 4.046654e+003
9.477509e+002, 4.047665e+003
9.482330e+002, 4.046589e+003
9.487151e+002, 4.042170e+003
9.491973e+002, 4.038734e+003
9.496794e+002, 4.041684e+003
9.501615e+002, 4.047272e+003
9.506436e+002, 4.050951e+003
9.511257e+002, 4.050914e+003
9.516078e+002, 4.050618e+003
9.520900e+002, 4.049778e+003
9.525721e+002, 4.049328e+003
9.530542e+002, 4.049740e+003
9.535363e+002, 4.051146e+003
9.540184e+002, 4.055197e+003
9.545005e+002, 4.061772e+003
9.549827e+002, 4.067288e+003
9.554648e+002, 4.067891e+003
9.559469e+002, 4.067520e+003
9.564290e+002, 4.069038e+003
9.569111e+002, 4.072429e+003
9.573932e+002, 4.075366e+003
9.578754e+002, 4.077582e+003
9.583575e+002, 4.079485e+003
9.588396e+002, 4.080907e+003
9.593217e+002, 4.082280e+003
9.598038e+002, 4.084781e+003
9.602859e+002, 4.088148e+003
9.607681e+002, 4.091575e+003
9.612502e+002, 4.095424e+003
9.617323e+002, 4.098158e+003
9.622144e+002, 4.098412e+003
9.626965e+002, 4.097321e+003
9.631786e+002, 4.096333e+003
9.636608e+002, 4.095616e+003
9.641429e+002, 4.094991e+003
9.646250e+002, 4.094561e+003
9.651071e+002, 4.094148e+003
9.655892e+002, 4.093462e+003
9.660714e+002, 4.092763e+003
9.665535e+002, 4.092573e+003
9.670356e+002, 4.092960e+003
9.675177e+002, 4.093539e+003
9.679998e+002, 4.094429e+003
9.684819e+002, 4.095195e+003
9.689641e+002, 4.095609e+003
9.694462e+002, 4.095691e+003
9.699283e+002, 4.095164e+003
9.704104e+002, 4.093693e+003
9.708925e+002, 4.094016e+003
9.713746e+002, 4.098155e+003
9.718568e+002, 4.103245e+003
9.723389e+002, 4.104951e+003
9.728210e+002, 4.104238e+003
9.733031e+002, 4.103229e+003
9.737852e+002, 4.101888e+003
9.742673e+002, 4.101271e+003
9.747495e+002, 4.101185e+003
9.752316e+002, 4.102159e+003
9.757137e+002, 4.105427e+003
9.761958e+002, 4.111190e+003
9.766779e+002, 4.114929e+003
9.771600e+002, 4.116312e+003
9.776422e+002, 4.116123e+003
9.781243e+002, 4.114134e+003
9.786064e+002, 4.111621e+003
9.790885e+002, 4.110151e+003
9.795706e+002, 4.109908e+003
9.800527e+002, 4.108827e+003
9.805349e+002, 4.105015e+003
9.810170e+002, 4.102807e+003
9.814991e+002, 4.104320e+003
9.819812e+002, 4.108218e+003
9.824633e+002, 4.109600e+003
9.829454e+002, 4.108896e+003
9.834276e+002, 4.108955e+003
9.839097e+002, 4.112021e+003
9.843918e+002, 4.114641e+003
9.848739e+002, 4.112996e+003
9.853560e+002, 4.109777e+003
9.858381e+002, 4.109401e+003
9.863203e+002, 4.114093e+003
9.868024e+002, 4.117194e+003
9.872845e+002, 4.118129e+003
9.877666e+002, 4.118426e+003
9.882487e+002, 4.120033e+003
9.887308e+002, 4.122214e+003
9.892130e+002, 4.122790e+003
9.896951e+002, 4.121635e+003
9.901772e+002, 4.120499e+003
9.906593e+002, 4.119483e+003
9.911414e+002, 4.119526e+003
9.916235e+002, 4.121982e+003
9.921057e+002, 4.126085e+003
9.925878e+002, 4.127389e+003
9.930699e+002, 4.125376e+003
9.935520e+002, 4.124090e+003
9.940341e+002, 4.125273e+003
9.945162e+002, 4.127288e+003
9.949984e+002, 4.127289e+003
9.954805e+002, 4.126500e+003
9.959626e+002, 4.127382e+003
9.964447e+002, 4.133365e+003
9.969268e+002, 4.136599e+003
9.974089e+002, 4.134329e+003
9.978911e+002, 4.130880e+003
9.983732e+002, 4.130618e+003
9.988553e+002, 4.133429e+003
9.993374e+002, 4.133325e+003
9.998195e+002, 4.130063e+003
1.000302e+003, 4.127851e+003
1.000784e+003, 4.131195e+003
1.001266e+003, 4.135846e+003
1.001748e+003, 4.138249e+003
1.002230e+003, 4.138415e+003
1.002712e+003, 4.138667e+003
1.003194e+003, 4.138570e+003
1.003676e+003, 4.139730e+003
1.004159e+003, 4.142879e+003
1.004641e+003, 4.146948e+003
1.005123e+003, 4.150040e+003
1.005605e+003, 4.152296e+003
1.006087e+003, 4.154238e+003
1.006569e+003, 4.156031e+003
1.007051e+003, 4.157638e+003
1.007533e+003, 4.160185e+003
1.008016e+003, 4.161811e+003
1.008498e+003, 4.160458e+003
1.008980e+003, 4.155094e+003
1.009462e+003, 4.153266e+003
1.009944e+003, 4.155282e+003
1.010426e+003, 4.158791e+003
1.010908e+003, 4.163098e+003
1.011390e+003, 4.167138e+003
1.011872e+003, 4.169148e+003
1.012355e+003, 4.169454e+003
1.012837e+003, 4.169803e+003
1.013319e+003, 4.170225e+003
1.013801e+003, 4.171313e+003
1.014283e+003, 4.173308e+003
1.014765e+003, 4.175755e+003
1.015247e+003, 4.178132e+003
1.015729e+003, 4.180346e+003
1.016211e+003, 4.181646e+003
1.016694e+003, 4.181839e+003
1.017176e+003, 4.181442e+003
1.017658e+003, 4.180407e+003
1.018140e+003, 4.179379e+003
1.018622e+003, 4.179215e+003
1.019104e+003, 4.180347e+003
1.019586e+003, 4.180005e+003
1.020068e+003, 4.177755e+003
1.020551e+003, 4.175693e+003
1.021033e+003, 4.175024e+003
1.021515e+003, 4.175293e+003
1.021997e+003, 4.175328e+003
1.022479e+003, 4.175404e+003
1.022961e+003, 4.176352e+003
1.023443e+003, 4.180029e+003
1.023925e+003, 4.182667e+003
1.024407e+003, 4.181555e+003
1.024890e+003, 4.179932e+003
1.025372e+003, 4.182602e+003
1.025854e+003, 4.189714e+003
1.026336e+003, 4.193533e+003
1.026818e+003, 4.193027e+003
1.027300e+003, 4.192387e+003
1.027782e+003, 4.196302e+003
1.028264e+003, 4.201193e+003
1.028746e+003, 4.203467e+003
1.029229e+003, 4.202794e+003
1.029711e+003, 4.202325e+003
1.030193e+003, 4.202472e+003
1.030675e+003, 4.202283e+003
1.031157e+003, 4.200769e+003
1.031639e+003, 4.199499e+003
1.032121e+003, 4.203991e+003
1.032603e+003, 4.211883e+003
1.033086e+003, 4.215328e+003
1.033568e+003, 4.209749e+003
1.034050e+003, 4.204145e+003
1.034532e+003, 4.202119e+003
1.035014e+003, 4.202357e+003
1.035496e+003, 4.204098e+003
1.035978e+003, 4.207867e+003
1.036460e+003, 4.209196e+003
1.036943e+003, 4.207935e+003
1.037425e+003, 4.206555e+003
1.037907e+003, 4.206757e+003
1.038389e+003, 4.207837e+003
1.038871e+003, 4.208628e+003
1.039353e+003, 4.209517e+003
1.039835e+003, 4.212288e+003
1.040317e+003, 4.219908e+003
1.040799e+003, 4.224671e+003
1.041281e+003, 4.224618e+003
1.041764e+003, 4.222446e+003
1.042246e+003, 4.222128e+003
1.042728e+003, 4.223312e+003
1.043210e+003, 4.225315e+003
1.043692e+003, 4.228264e+003
1.044174e+003, 4.230075e+003
1.044656e+003, 4.228182e+003
1.045138e+003, 4.226038e+003
1.045621e+003, 4.226023e+003
1.046103e+003, 4.227971e+003
1.046585e+003, 4.229492e+003
1.047067e+003, 4.230583e+003
1.047549e+003, 4.231259e+003
1.048031e+003, 4.231619e+003
1.048513e+003, 4.231447e+003
1.048995e+003, 4.229716e+003
1.049478e+003, 4.227476e+003
1.049960e+003, 4.226516e+003
1.050442e+003, 4.228446e+003
1.050924e+003, 4.230044e+003
1.051406e+003, 4.231493e+003
1.051888e+003, 4.232255e+003
1.052370e+003, 4.231181e+003
1.052852e+003, 4.229100e+003
1.053334e+003, 4.228870e+003
1.053817e+003, 4.230516e+003
1.054299e+003, 4.232873e+003
1.054781e+003, 4.236852e+003
1.055263e+003, 4.239733e+003
1.055745e+003, 4.239528e+003
1.056227e+003, 4.237569e+003
1.056709e+003, 4.236801e+003
1.057191e+003, 4.237251e+003
1.057673e+003, 4.238142e+003
1.058156e+003, 4.239390e+003
1.058638e+003, 4.240591e+003
1.059120e+003, 4.241052e+003
1.059602e+003, 4.241385e+003
1.060084e+003, 4.242104e+003
1.060566e+003, 4.243187e+003
1.061048e+003, 4.245789e+003
1.061530e+003, 4.251113e+003
1.062013e+003, 4.255119e+003
1.062495e+003, 4.255656e+003
1.062977e+003, 4.253758e+003
1.063459e+003, 4.250617e+003
1.063941e+003, 4.247192e+003
1.064423e+003, 4.246192e+003
1.064905e+003, 4.250721e+003
1.065387e+003, 4.255009e+003
1.065870e+003, 4.257888e+003
1.066352e+003, 4.259234e+003
1.066834e+003, 4.257977e+003
1.067316e+003, 4.254088e+003
1.067798e+003, 4.254032e+003
1.068280e+003, 4.258036e+003
1.068762e+003, 4.261331e+003
1.069244e+003, 4.259721e+003
1.069726e+003, 4.256641e+003
1.070208e+003, 4.254245e+003
1.070691e+003, 4.252731e+003
1.071173e+003, 4.252390e+003
1.071655e+003, 4.253373e+003
1.072137e+003, 4.255024e+003
1.072619e+003, 4.257387e+003
1.073101e+003, 4.259898e+003
1.073583e+003, 4.262009e+003
1.074065e+003, 4.263655e+003
1.074548e+003, 4.264579e+003
1.075030e+003, 4.264593e+003
1.075512e+003, 4.265007e+003
1.075994e+003, 4.266509e+003
1.076476e+003, 4.268023e+003
1.076958e+003, 4.269143e+003
1.077440e+003, 4.269948e+003
1.077922e+003, 4.271053e+003
1.078405e+003, 4.272215e+003
1.078887e+003, 4.271992e+003
1.079369e+003, 4.268365e+003
1.079851e+003, 4.265887e+003
1.080333e+003, 4.268317e+003
1.080815e+003, 4.272549e+003
1.081297e+003, 4.275136e+003
1.081779e+003, 4.275857e+003
1.082261e+003, 4.276010e+003
1.082744e+003, 4.275510e+003
1.083226e+003, 4.275449e+003
1.083708e+003, 4.277068e+003
1.084190e+003, 4.279137e+003
1.084672e+003, 4.280310e+003
1.085154e+003, 4.280809e+003
1.085636e+003, 4.281430e+003
1.086118e+003, 4.281562e+003
1.086601e+003, 4.283536e+003
1.087083e+003, 4.288239e+003
1.087565e+003, 4.293390e+003
1.088047e+003, 4.296320e+003
1.088529e+003, 4.297454e+003
1.089011e+003, 4.297436e+003
1.089493e+003, 4.296346e+003
1.089975e+003, 4.295294e+003
1.090458e+003, 4.293804e+003
1.090940e+003, 4.293636e+003
1.091422e+003, 4.296015e+003
1.091904e+003, 4.299766e+003
1.092386e+003, 4.301186e+003
1.092868e+003, 4.300536e+003
1.093350e+003, 4.299150e+003
1.093832e+003, 4.296704e+003
1.094314e+003, 4.295899e+003
1.094797e+003, 4.301351e+003
1.095279e+003, 4.307379e+003
1.095761e+003, 4.307869e+003
1.096243e+003, 4.302229e+003
1.096725e+003, 4.301448e+003
1.097207e+003, 4.306063e+003
1.097689e+003, 4.309780e+003
1.098171e+003, 4.307616e+003
1.098653e+003, 4.304318e+003
1.099136e+003, 4.306152e+003
1.099618e+003, 4.310723e+003
1.100100e+003, 4.313254e+003
1.100582e+003, 4.310450e+003
1.101064e+003, 4.309978e+003
1.101546e+003, 4.312550e+003
1.102028e+003, 4.316022e+003
1.102510e+003, 4.318648e+003
1.102993e+003, 4.320628e+003
1.103475e+003, 4.322782e+003
1.103957e+003, 4.324907e+003
1.104439e+003, 4.325608e+003
1.104921e+003, 4.323349e+003
1.105403e+003, 4.320673e+003
1.105885e+003, 4.317543e+003
1.106367e+003, 4.315158e+003
1.106849e+003, 4.316339e+003
1.107332e+003, 4.320398e+003
1.107814e+003, 4.323264e+003
1.108296e+003, 4.324238e+003
1.108778e+003, 4.325930e+003
1.109260e+003, 4.331356e+003
1.109742e+003, 4.336844e+003
1.110224e+003, 4.340263e+003
1.110706e+003, 4.341715e+003
1.111188e+003, 4.341564e+003
1.111671e+003, 4.339723e+003
1.112153e+003, 4.338086e+003
1.112635e+003, 4.336790e+003
1.113117e+003, 4.336959e+003
1.113599e+003, 4.341389e+003
1.114081e+003, 4.346956e+003
1.114563e+003, 4.349683e+003
1.115045e+003, 4.348481e+003
1.115528e+003, 4.348153e+003
1.116010e+003, 4.348947e+003
1.116492e+003, 4.349565e+003
1.116974e+003, 4.349096e+003
1.117456e+003, 4.348228e+003
1.117938e+003, 4.348672e+003
1.118420e+003, 4.349538e+003
1.118902e+003, 4.348865e+003
1.119385e+003, 4.343823e+003
1.119867e+003, 4.340994e+003
1.120349e+003, 4.341763e+003
1.120831e+003, 4.342748e+003
1.121313e+003, 4.340399e+003
1.121795e+003, 4.335912e+003
1.122277e+003, 4.332054e+003
1.122759e+003, 4.329123e+003
1.123241e+003, 4.328206e+003
1.123724e+003, 4.331552e+003
1.124206e+003, 4.334794e+003
1.124688e+003, 4.336922e+003
1.125170e+003, 4.337985e+003
1.125652e+003, 4.337595e+003
1.126134e+003, 4.336015e+003
1.126616e+003, 4.335224e+003
1.127098e+003, 4.335458e+003
1.127580e+003, 4.336278e+003
1.128063e+003, 4.338538e+003
1.128545e+003, 4.340231e+003
1.129027e+003, 4.339546e+003
1.129509e+003, 4.337365e+003
1.129991e+003, 4.336649e+003
1.130473e+003, 4.337470e+003
1.130955e+003, 4.338356e+003
1.131437e+003, 4.338971e+003
1.131920e+003, 4.339583e+003
1.132402e+003, 4.339999e+003
1.132884e+003, 4.340862e+003
1.133366e+003, 4.343308e+003
1.133848e+003, 4.347546e+003
1.134330e+003, 4.349546e+003
1.134812e+003, 4.348772e+003
1.135294e+003, 4.348490e+003
1.135776e+003, 4.349975e+003
1.136259e+003, 4.352741e+003
1.136741e+003, 4.357290e+003
1.137223e+003, 4.362221e+003
1.137705e+003, 4.365290e+003
1.138187e+003, 4.364312e+003
1.138669e+003, 4.365287e+003
1.139151e+003, 4.368917e+003
1.139633e+003, 4.372724e+003
1.140115e+003, 4.375175e+003
1.140598e+003, 4.376567e+003
1.141080e+003, 4.377268e+003
1.141562e+003, 4.377473e+003
1.142044e+003, 4.377733e+003
1.142526e+003, 4.379238e+003
1.143008e+003, 4.379249e+003
1.143490e+003, 4.376665e+003
1.143972e+003, 4.374042e+003
1.144455e+003, 4.374453e+003
1.144937e+003, 4.376911e+003
1.145419e+003, 4.378017e+003
1.145901e+003, 4.377800e+003
1.146383e+003, 4.377548e+003
1.146865e+003, 4.378176e+003
1.147347e+003, 4.378477e+003
1.147829e+003, 4.377578e+003
1.148312e+003, 4.376664e+003
1.148794e+003, 4.377435e+003
1.149276e+003, 4.379844e+003
1.149758e+003, 4.384203e+003
1.150240e+003, 4.390570e+003
1.150722e+003, 4.395783e+003
1.151204e+003, 4.396857e+003
1.151686e+003, 4.397114e+003
1.152168e+003, 4.398447e+003
1.152651e+003, 4.400363e+003
1.153133e+003, 4.401204e+003
1.153615e+003, 4.401013e+003
1.154097e+003, 4.401311e+003
1.154579e+003, 4.402514e+003
1.155061e+003, 4.403751e+003
1.155543e+003, 4.404471e+003
1.156025e+003, 4.404783e+003
1.156507e+003, 4.404167e+003
1.156990e+003, 4.402905e+003
1.157472e+003, 4.404606e+003
1.157954e+003, 4.409561e+003
1.158436e+003, 4.413244e+003
1.158918e+003, 4.413778e+003
1.159400e+003, 4.413395e+003
1.159882e+003, 4.413789e+003
1.160364e+003, 4.414874e+003
1.160847e+003, 4.416664e+003
1.161329e+003, 4.419247e+003
1.161811e+003, 4.422214e+003
1.162293e+003, 4.425893e+003
1.162775e+003, 4.427556e+003
1.163257e+003, 4.424155e+003
1.163739e+003, 4.419972e+003
1.164221e+003, 4.420555e+003
1.164703e+003, 4.424022e+003
1.165186e+003, 4.427278e+003
1.165668e+003, 4.429464e+003
1.166150e+003, 4.432308e+003
1.166632e+003, 4.436417e+003
1.167114e+003, 4.438772e+003
1.167596e+003, 4.435230e+003
1.168078e+003, 4.429733e+003
1.168560e+003, 4.429242e+003
1.169042e+003, 4.432156e+003
1.169525e+003, 4.434155e+003
1.170007e+003, 4.433773e+003
1.170489e+003, 4.432845e+003
1.170971e+003, 4.431065e+003
1.171453e+003, 4.429861e+003
1.171935e+003, 4.431415e+003
1.172417e+003, 4.434182e+003
1.172899e+003, 4.434563e+003
1.173382e+003, 4.433109e+003
1.173864e+003, 4.433073e+003
1.174346e+003, 4.437766e+003
1.174828e+003, 4.440634e+003
1.175310e+003, 4.440250e+003
1.175792e+003, 4.438750e+003
1.176274e+003, 4.438833e+003
1.176756e+003, 4.439919e+003
1.177239e+003, 4.440448e+003
1.177721e+003, 4.440351e+003
1.178203e+003, 4.441013e+003
1.178685e+003, 4.443400e+003
1.179167e+003, 4.446124e+003
1.179649e+003, 4.449266e+003
1.180131e+003, 4.451992e+003
1.180613e+003, 4.452154e+003
1.181095e+003, 4.450750e+003
1.181578e+003, 4.450875e+003
1.182060e+003, 4.453062e+003
1.182542e+003, 4.455346e+003
1.183024e+003, 4.457100e+003
1.183506e+003, 4.458608e+003
1.183988e+003, 4.460170e+003
1.184470e+003, 4.461467e+003
1.184952e+003, 4.461321e+003
1.185434e+003, 4.460182e+003
1.185917e+003, 4.459654e+003
1.186399e+003, 4.460268e+003
1.186881e+003, 4.460760e+003
1.187363e+003, 4.458951e+003
1.187845e+003, 4.458729e+003
1.188327e+003, 4.462496e+003
1.188809e+003, 4.468968e+003
1.189291e+003, 4.473768e+003
1.189774e+003, 4.476995e+003
1.190256e+003, 4.479375e+003
1.190738e+003, 4.481225e+003
1.191220e+003, 4.481872e+003
1.191702e+003, 4.479111e+003
1.192184e+003, 4.476866e+003
1.192666e+003, 4.478044e+003
1.193148e+003, 4.481937e+003
1.193630e+003, 4.483531e+003
1.194113e+003, 4.483265e+003
1.194595e+003, 4.483755e+003
1.195077e+003, 4.486956e+003
1.195559e+003, 4.489538e+003
1.196041e+003, 4.489526e+003
1.196523e+003, 4.488474e+003
1.197005e+003, 4.487353e+003
1.197487e+003, 4.486229e+003
1.197969e+003, 4.486203e+003
1.198452e+003, 4.487106e+003
1.198934e+003, 4.487529e+003
1.199416e+003, 4.485811e+003
1.199898e+003, 4.484647e+003
1.200380e+003, 4.486046e+003
1.200862e+003, 4.488124e+003
1.201344e+003, 4.488890e+003
1.201826e+003, 4.488355e+003
1.202309e+003, 4.488665e+003
1.202791e+003, 4.489797e+003
1.203273e+003, 4.491300e+003
1.203755e+003, 4.493211e+003
1.204237e+003, 4.495077e+003
1.204719e+003, 4.497016e+003
1.205201e+003, 4.498483e+003
1.205683e+003, 4.498524e+003
1.206166e+003, 4.497154e+003
1.206648e+003, 4.496199e+003
1.207130e+003, 4.495795e+003
1.207612e+003, 4.497079e+003
1.208094e+003, 4.502192e+003
1.208576e+003, 4.507618e+003
1.209058e+003, 4.512571e+003
1.209540e+003, 4.515970e+003
1.210022e+003, 4.515439e+003
1.210505e+003, 4.511168e+003
1.210987e+003, 4.508397e+003
1.211469e+003, 4.507517e+003
1.211951e+003, 4.508415e+003
1.212433e+003, 4.514095e+003
1.212915e+003, 4.518296e+003
1.213397e+003, 4.515468e+003
1.213879e+003, 4.509998e+003
1.214361e+003, 4.509495e+003
1.214844e+003, 4.513617e+003
1.215326e+003, 4.517083e+003
1.215808e+003, 4.519294e+003
1.216290e+003, 4.520249e+003
1.216772e+003, 4.518151e+003
1.217254e+003, 4.516692e+003
1.217736e+003, 4.518189e+003
1.218218e+003, 4.521478e+003
1.218701e+003, 4.524742e+003
1.219183e+003, 4.527837e+003
1.219665e+003, 4.529300e+003
1.220147e+003, 4.528798e+003
1.220629e+003, 4.528196e+003
1.221111e+003, 4.527372e+003
1.221593e+003, 4.528298e+003
1.222075e+003, 4.533436e+003
1.222557e+003, 4.540239e+003
1.223040e+003, 4.541734e+003
1.223522e+003, 4.538617e+003
1.224004e+003, 4.536079e+003
1.224486e+003, 4.535066e+003
1.224968e+003, 4.534845e+003
1.225450e+003, 4.535955e+003
1.225932e+003, 4.536688e+003
1.226414e+003, 4.535711e+003
1.226896e+003, 4.534058e+003
1.227379e+003, 4.535345e+003
1.227861e+003, 4.538948e+003
1.228343e+003, 4.541298e+003
1.228825e+003, 4.541429e+003
1.229307e+003, 4.541505e+003
1.229789e+003, 4.543213e+003
1.230271e+003, 4.544497e+003
1.230753e+003, 4.543883e+003
1.231236e+003, 4.542276e+003
1.231718e+003, 4.543266e+003
1.232200e+003, 4.546055e+003
1.232682e+003, 4.547219e+003
1.233164e+003, 4.545440e+003
1.233646e+003, 4.544229e+003
1.234128e+003, 4.545694e+003
1.234610e+003, 4.547852e+003
1.235093e+003, 4.550495e+003
1.235575e+003, 4.552735e+003
1.236057e+003, 4.549981e+003
1.236539e+003, 4.544254e+003
1.237021e+003, 4.542515e+003
1.237503e+003, 4.547654e+003
1.237985e+003, 4.553384e+003
1.238467e+003, 4.558687e+003
1.238949e+003, 4.562334e+003
1.239432e+003, 4.563329e+003
1.239914e+003, 4.562528e+003
1.240396e+003, 4.562487e+003
1.240878e+003, 4.562828e+003
1.241360e+003, 4.562283e+003
1.241842e+003, 4.559583e+003
1.242324e+003, 4.558939e+003
1.242806e+003, 4.562485e+003
1.243288e+003, 4.566188e+003
1.243771e+003, 4.568355e+003
1.244253e+003, 4.569115e+003
1.244735e+003, 4.567724e+003
1.245217e+003, 4.565406e+003
1.245699e+003, 4.565278e+003
1.246181e+003, 4.569464e+003
1.246663e+003, 4.572141e+003
1.247145e+003, 4.571707e+003
1.247628e+003, 4.571929e+003
1.248110e+003, 4.575198e+003
1.248592e+003, 4.580088e+003
1.249074e+003, 4.585056e+003
1.249556e+003, 4.588891e+003
1.250038e+003, 4.588899e+003
1.250520e+003, 4.581333e+003
1.251002e+003, 4.578146e+003
1.251484e+003, 4.580974e+003
1.251967e+003, 4.584396e+003
1.252449e+003, 4.584876e+003
1.252931e+003, 4.584508e+003
1.253413e+003, 4.587491e+003
1.253895e+003, 4.591793e+003
1.254377e+003, 4.593386e+003
1.254859e+003, 4.588908e+003
1.255341e+003, 4.589815e+003
1.255823e+003, 4.597395e+003
1.256306e+003, 4.604158e+003
1.256788e+003, 4.605505e+003
1.257270e+003, 4.603908e+003
1.257752e+003, 4.600471e+003
1.258234e+003, 4.596898e+003
1.258716e+003, 4.596202e+003
1.259198e+003, 4.599228e+003
1.259680e+003, 4.602970e+003
1.260163e+003, 4.607802e+003
1.260645e+003, 4.610424e+003
1.261127e+003, 4.607586e+003
1.261609e+003, 4.603623e+003
1.262091e+003, 4.602956e+003
1.262573e+003, 4.603329e+003
1.263055e+003, 4.601046e+003
1.263537e+003, 4.595110e+003
1.264020e+003, 4.593773e+003
1.264502e+003, 4.596946e+003
1.264984e+003, 4.601736e+003
1.265466e+003, 4.607671e+003
1.265948e+003, 4.612993e+003
1.266430e+003, 4.617442e+003
1.266912e+003, 4.619768e+003
1.267394e+003, 4.618086e+003
1.267876e+003, 4.612311e+003
1.268359e+003, 4.609401e+003
1.268841e+003, 4.609176e+003
1.269323e+003, 4.610039e+003
1.269805e+003, 4.612356e+003
1.270287e+003, 4.613995e+003
1.270769e+003, 4.613218e+003
1.271251e+003, 4.612093e+003
1.271733e+003, 4.611881e+003
1.272215e+003, 4.612734e+003
1.272698e+003, 4.617330e+003
1.273180e+003, 4.624412e+003
1.273662e+003, 4.627845e+003
1.274144e+003, 4.621188e+003
1.274626e+003, 4.615803e+003
1.275108e+003, 4.613789e+003
1.275590e+003, 4.614026e+003
1.276072e+003, 4.616624e+003
1.276555e+003, 4.620610e+003
1.277037e+003, 4.622796e+003
1.277519e+003, 4.623440e+003
1.278001e+003, 4.623364e+003
1.278483e+003, 4.620655e+003
1.278965e+003, 4.621228e+003
1.279447e+003, 4.627068e+003
1.279929e+003, 4.631836e+003
1.280411e+003, 4.628328e+003
1.280894e+003, 4.621830e+003
1.281376e+003, 4.622747e+003
1.281858e+003, 4.628396e+003
1.282340e+003, 4.632664e+003
1.282822e+003, 4.633785e+003
1.283304e+003, 4.634350e+003
1.283786e+003, 4.634188e+003
1.284268e+003, 4.634471e+003
1.284750e+003, 4.636368e+003
1.285233e+003, 4.638873e+003
1.285715e+003, 4.641017e+003
1.286197e+003, 4.642840e+003
1.286679e+003, 4.644408e+003
1.287161e+003, 4.645731e+003
1.287643e+003, 4.646661e+003
1.288125e+003, 4.647146e+003
1.288607e+003, 4.647588e+003
1.289090e+003, 4.648067e+003
1.289572e+003, 4.648661e+003
1.290054e+003, 4.649433e+003
1.290536e+003, 4.650279e+003
1.291018e+003, 4.651109e+003
1.291500e+003, 4.651909e+003
1.291982e+003, 4.652672e+003
1.292464e+003, 4.653347e+003
1.292947e+003, 4.653534e+003
1.293429e+003, 4.653375e+003
1.293911e+003, 4.652314e+003
1.294393e+003, 4.648967e+003
1.294875e+003, 4.645948e+003
1.295357e+003, 4.645498e+003
1.295839e+003, 4.647039e+003
1.296321e+003, 4.647952e+003
1.296803e+003, 4.648507e+003
1.297286e+003, 4.649250e+003
1.297768e+003, 4.650611e+003
1.298250e+003, 4.651803e+003
1.298732e+003, 4.652031e+003
1.299214e+003, 4.653651e+003
1.299696e+003, 4.659271e+003
1.300178e+003, 4.666327e+003
1.300660e+003, 4.671886e+003
##END=



