##NAMES=Alluaudite
##RRUFFID=R160082
##IDEAL CHEMISTRY=NaMn^2+^Fe^3+^_2_(PO_4_)_3_
##LOCALITY=Custer, South Dakota, USA
##OWNER=UAMM
##SOURCE=Rock Currier
##DESCRIPTION=Dark green massive, associated with muscovite
##STATUS=The identification of this mineral has been confirmed only by single crystal X-ray diffraction.
##URL=rruff.info/R160082
8.813672e+001, 7.479841e+001
8.861884e+001, 7.595989e+001
8.910095e+001, 7.698436e+001
8.958307e+001, 7.755225e+001
9.006519e+001, 7.841420e+001
9.054730e+001, 8.067258e+001
9.102942e+001, 8.523628e+001
9.151154e+001, 8.960426e+001
9.199365e+001, 9.050981e+001
9.247577e+001, 8.848936e+001
9.295789e+001, 8.629060e+001
9.344000e+001, 8.581722e+001
9.392212e+001, 8.658519e+001
9.440424e+001, 8.747053e+001
9.488635e+001, 8.858453e+001
9.536847e+001, 8.961983e+001
9.585059e+001, 8.963712e+001
9.633270e+001, 8.857436e+001
9.681482e+001, 8.738903e+001
9.729694e+001, 8.678214e+001
9.777905e+001, 8.674007e+001
9.826117e+001, 8.748840e+001
9.874329e+001, 8.944552e+001
9.922540e+001, 9.234055e+001
9.970752e+001, 9.419563e+001
1.001896e+002, 9.482194e+001
1.006718e+002, 9.480132e+001
1.011539e+002, 9.468505e+001
1.016360e+002, 9.431030e+001
1.021181e+002, 9.441234e+001
1.026002e+002, 9.526905e+001
1.030823e+002, 9.696113e+001
1.035645e+002, 9.879720e+001
1.040466e+002, 1.006072e+002
1.045287e+002, 1.026685e+002
1.050108e+002, 1.055419e+002
1.054929e+002, 1.092038e+002
1.059750e+002, 1.136517e+002
1.064572e+002, 1.190851e+002
1.069393e+002, 1.272837e+002
1.074214e+002, 1.332121e+002
1.079035e+002, 1.359283e+002
1.083856e+002, 1.363079e+002
1.088677e+002, 1.372923e+002
1.093499e+002, 1.391955e+002
1.098320e+002, 1.414864e+002
1.103141e+002, 1.439336e+002
1.107962e+002, 1.469294e+002
1.112783e+002, 1.496857e+002
1.117604e+002, 1.525876e+002
1.122426e+002, 1.554773e+002
1.127247e+002, 1.570002e+002
1.132068e+002, 1.561040e+002
1.136889e+002, 1.542351e+002
1.141710e+002, 1.523935e+002
1.146531e+002, 1.513920e+002
1.151353e+002, 1.498727e+002
1.156174e+002, 1.470098e+002
1.160995e+002, 1.428133e+002
1.165816e+002, 1.390732e+002
1.170637e+002, 1.369303e+002
1.175458e+002, 1.354451e+002
1.180280e+002, 1.335708e+002
1.185101e+002, 1.302674e+002
1.189922e+002, 1.269193e+002
1.194743e+002, 1.243150e+002
1.199564e+002, 1.225064e+002
1.204385e+002, 1.212985e+002
1.209207e+002, 1.202734e+002
1.214028e+002, 1.197874e+002
1.218849e+002, 1.204606e+002
1.223670e+002, 1.241462e+002
1.228491e+002, 1.284751e+002
1.233312e+002, 1.308740e+002
1.238134e+002, 1.308347e+002
1.242955e+002, 1.297223e+002
1.247776e+002, 1.283237e+002
1.252597e+002, 1.267749e+002
1.257418e+002, 1.255272e+002
1.262239e+002, 1.249314e+002
1.267061e+002, 1.248216e+002
1.271882e+002, 1.248888e+002
1.276703e+002, 1.250753e+002
1.281524e+002, 1.254471e+002
1.286345e+002, 1.263395e+002
1.291166e+002, 1.276797e+002
1.295988e+002, 1.287329e+002
1.300809e+002, 1.288824e+002
1.305630e+002, 1.282523e+002
1.310451e+002, 1.273850e+002
1.315272e+002, 1.263792e+002
1.320093e+002, 1.252010e+002
1.324915e+002, 1.236110e+002
1.329736e+002, 1.215555e+002
1.334557e+002, 1.195847e+002
1.339378e+002, 1.182145e+002
1.344199e+002, 1.174351e+002
1.349020e+002, 1.169303e+002
1.353842e+002, 1.166700e+002
1.358663e+002, 1.166310e+002
1.363484e+002, 1.166071e+002
1.368305e+002, 1.165174e+002
1.373126e+002, 1.166732e+002
1.377947e+002, 1.175370e+002
1.382769e+002, 1.192728e+002
1.387590e+002, 1.209265e+002
1.392411e+002, 1.224071e+002
1.397232e+002, 1.237330e+002
1.402053e+002, 1.239077e+002
1.406874e+002, 1.226336e+002
1.411696e+002, 1.206014e+002
1.416517e+002, 1.186653e+002
1.421338e+002, 1.167077e+002
1.426159e+002, 1.151040e+002
1.430980e+002, 1.140217e+002
1.435801e+002, 1.135946e+002
1.440623e+002, 1.130652e+002
1.445444e+002, 1.122230e+002
1.450265e+002, 1.114038e+002
1.455086e+002, 1.112253e+002
1.459907e+002, 1.121183e+002
1.464728e+002, 1.130852e+002
1.469550e+002, 1.138569e+002
1.474371e+002, 1.145059e+002
1.479192e+002, 1.147730e+002
1.484013e+002, 1.144042e+002
1.488834e+002, 1.136824e+002
1.493655e+002, 1.132160e+002
1.498477e+002, 1.128449e+002
1.503298e+002, 1.128710e+002
1.508119e+002, 1.134588e+002
1.512940e+002, 1.154574e+002
1.517761e+002, 1.167666e+002
1.522583e+002, 1.167954e+002
1.527404e+002, 1.160119e+002
1.532225e+002, 1.157394e+002
1.537046e+002, 1.164389e+002
1.541867e+002, 1.174182e+002
1.546688e+002, 1.183800e+002
1.551510e+002, 1.198273e+002
1.556331e+002, 1.206155e+002
1.561152e+002, 1.201628e+002
1.565973e+002, 1.187843e+002
1.570794e+002, 1.177258e+002
1.575615e+002, 1.172633e+002
1.580437e+002, 1.171875e+002
1.585258e+002, 1.173670e+002
1.590079e+002, 1.178216e+002
1.594900e+002, 1.184784e+002
1.599721e+002, 1.194052e+002
1.604542e+002, 1.205601e+002
1.609364e+002, 1.216992e+002
1.614185e+002, 1.226137e+002
1.619006e+002, 1.235344e+002
1.623827e+002, 1.246465e+002
1.628648e+002, 1.263583e+002
1.633469e+002, 1.279607e+002
1.638291e+002, 1.289993e+002
1.643112e+002, 1.295287e+002
1.647933e+002, 1.302172e+002
1.652754e+002, 1.315548e+002
1.657575e+002, 1.331614e+002
1.662396e+002, 1.346378e+002
1.667218e+002, 1.356647e+002
1.672039e+002, 1.366501e+002
1.676860e+002, 1.379694e+002
1.681681e+002, 1.395992e+002
1.686502e+002, 1.410396e+002
1.691323e+002, 1.417287e+002
1.696145e+002, 1.420714e+002
1.700966e+002, 1.426152e+002
1.705787e+002, 1.443653e+002
1.710608e+002, 1.459384e+002
1.715429e+002, 1.458489e+002
1.720250e+002, 1.440011e+002
1.725072e+002, 1.419724e+002
1.729893e+002, 1.408624e+002
1.734714e+002, 1.404058e+002
1.739535e+002, 1.401119e+002
1.744356e+002, 1.398116e+002
1.749177e+002, 1.395390e+002
1.753999e+002, 1.392458e+002
1.758820e+002, 1.389022e+002
1.763641e+002, 1.388194e+002
1.768462e+002, 1.394963e+002
1.773283e+002, 1.406827e+002
1.778104e+002, 1.417393e+002
1.782926e+002, 1.423209e+002
1.787747e+002, 1.425800e+002
1.792568e+002, 1.427426e+002
1.797389e+002, 1.428131e+002
1.802210e+002, 1.427989e+002
1.807031e+002, 1.427198e+002
1.811853e+002, 1.425664e+002
1.816674e+002, 1.423024e+002
1.821495e+002, 1.419558e+002
1.826316e+002, 1.414839e+002
1.831137e+002, 1.407168e+002
1.835958e+002, 1.395755e+002
1.840780e+002, 1.384110e+002
1.845601e+002, 1.377339e+002
1.850422e+002, 1.374901e+002
1.855243e+002, 1.372237e+002
1.860064e+002, 1.365955e+002
1.864885e+002, 1.357370e+002
1.869707e+002, 1.351720e+002
1.874528e+002, 1.349792e+002
1.879349e+002, 1.349366e+002
1.884170e+002, 1.346678e+002
1.888991e+002, 1.341893e+002
1.893812e+002, 1.337846e+002
1.898634e+002, 1.336394e+002
1.903455e+002, 1.337153e+002
1.908276e+002, 1.338023e+002
1.913097e+002, 1.339247e+002
1.917918e+002, 1.339696e+002
1.922739e+002, 1.336972e+002
1.927561e+002, 1.330912e+002
1.932382e+002, 1.324267e+002
1.937203e+002, 1.319146e+002
1.942024e+002, 1.315297e+002
1.946845e+002, 1.308712e+002
1.951666e+002, 1.298690e+002
1.956488e+002, 1.286542e+002
1.961309e+002, 1.274828e+002
1.966130e+002, 1.263493e+002
1.970951e+002, 1.251838e+002
1.975772e+002, 1.238109e+002
1.980593e+002, 1.222239e+002
1.985415e+002, 1.210733e+002
1.990236e+002, 1.204591e+002
1.995057e+002, 1.202360e+002
1.999878e+002, 1.201239e+002
2.004699e+002, 1.201285e+002
2.009520e+002, 1.202155e+002
2.014342e+002, 1.204585e+002
2.019163e+002, 1.208981e+002
2.023984e+002, 1.209799e+002
2.028805e+002, 1.205656e+002
2.033626e+002, 1.198630e+002
2.038447e+002, 1.193519e+002
2.043269e+002, 1.190238e+002
2.048090e+002, 1.189164e+002
2.052911e+002, 1.192128e+002
2.057732e+002, 1.200530e+002
2.062553e+002, 1.203162e+002
2.067374e+002, 1.197688e+002
2.072196e+002, 1.187118e+002
2.077017e+002, 1.179907e+002
2.081838e+002, 1.177163e+002
2.086659e+002, 1.174710e+002
2.091480e+002, 1.170200e+002
2.096301e+002, 1.163179e+002
2.101123e+002, 1.155980e+002
2.105944e+002, 1.148615e+002
2.110765e+002, 1.141169e+002
2.115586e+002, 1.133587e+002
2.120407e+002, 1.125231e+002
2.125228e+002, 1.118162e+002
2.130050e+002, 1.114072e+002
2.134871e+002, 1.114106e+002
2.139692e+002, 1.112748e+002
2.144513e+002, 1.109000e+002
2.149334e+002, 1.103930e+002
2.154155e+002, 1.100785e+002
2.158977e+002, 1.100270e+002
2.163798e+002, 1.100255e+002
2.168619e+002, 1.099296e+002
2.173440e+002, 1.096403e+002
2.178261e+002, 1.095907e+002
2.183082e+002, 1.099380e+002
2.187904e+002, 1.104949e+002
2.192725e+002, 1.106246e+002
2.197546e+002, 1.100455e+002
2.202367e+002, 1.095400e+002
2.207188e+002, 1.095566e+002
2.212009e+002, 1.103421e+002
2.216831e+002, 1.110049e+002
2.221652e+002, 1.115610e+002
2.226473e+002, 1.119710e+002
2.231294e+002, 1.120335e+002
2.236115e+002, 1.114560e+002
2.240936e+002, 1.110206e+002
2.245758e+002, 1.111780e+002
2.250579e+002, 1.123254e+002
2.255400e+002, 1.130826e+002
2.260221e+002, 1.133629e+002
2.265042e+002, 1.132569e+002
2.269863e+002, 1.129778e+002
2.274685e+002, 1.124182e+002
2.279506e+002, 1.118469e+002
2.284327e+002, 1.113807e+002
2.289148e+002, 1.110312e+002
2.293969e+002, 1.107476e+002
2.298790e+002, 1.105300e+002
2.303612e+002, 1.103757e+002
2.308433e+002, 1.102985e+002
2.313254e+002, 1.103937e+002
2.318075e+002, 1.104163e+002
2.322896e+002, 1.102374e+002
2.327717e+002, 1.097284e+002
2.332539e+002, 1.093315e+002
2.337360e+002, 1.090874e+002
2.342181e+002, 1.089450e+002
2.347002e+002, 1.087799e+002
2.351823e+002, 1.085314e+002
2.356644e+002, 1.083520e+002
2.361466e+002, 1.083263e+002
2.366287e+002, 1.085578e+002
2.371108e+002, 1.086521e+002
2.375929e+002, 1.085431e+002
2.380750e+002, 1.083230e+002
2.385571e+002, 1.081652e+002
2.390393e+002, 1.080119e+002
2.395214e+002, 1.080164e+002
2.400035e+002, 1.082904e+002
2.404856e+002, 1.090207e+002
2.409677e+002, 1.094543e+002
2.414498e+002, 1.094786e+002
2.419320e+002, 1.092685e+002
2.424141e+002, 1.091070e+002
2.428962e+002, 1.089075e+002
2.433783e+002, 1.089049e+002
2.438604e+002, 1.092320e+002
2.443425e+002, 1.100268e+002
2.448247e+002, 1.106361e+002
2.453068e+002, 1.109516e+002
2.457889e+002, 1.111501e+002
2.462710e+002, 1.115128e+002
2.467531e+002, 1.120696e+002
2.472352e+002, 1.127419e+002
2.477174e+002, 1.135621e+002
2.481995e+002, 1.145968e+002
2.486816e+002, 1.153718e+002
2.491637e+002, 1.156951e+002
2.496458e+002, 1.159034e+002
2.501279e+002, 1.164880e+002
2.506101e+002, 1.176418e+002
2.510922e+002, 1.188181e+002
2.515743e+002, 1.198662e+002
2.520564e+002, 1.207799e+002
2.525385e+002, 1.216445e+002
2.530206e+002, 1.224286e+002
2.535028e+002, 1.231994e+002
2.539849e+002, 1.240463e+002
2.544670e+002, 1.251003e+002
2.549491e+002, 1.259779e+002
2.554312e+002, 1.265796e+002
2.559133e+002, 1.268923e+002
2.563955e+002, 1.270794e+002
2.568776e+002, 1.270915e+002
2.573597e+002, 1.270329e+002
2.578418e+002, 1.270270e+002
2.583239e+002, 1.271360e+002
2.588061e+002, 1.271495e+002
2.592882e+002, 1.270344e+002
2.597703e+002, 1.267888e+002
2.602524e+002, 1.263789e+002
2.607345e+002, 1.257032e+002
2.612166e+002, 1.250012e+002
2.616988e+002, 1.244817e+002
2.621809e+002, 1.242009e+002
2.626630e+002, 1.239810e+002
2.631451e+002, 1.238488e+002
2.636272e+002, 1.237751e+002
2.641093e+002, 1.234697e+002
2.645915e+002, 1.228204e+002
2.650736e+002, 1.221356e+002
2.655557e+002, 1.216383e+002
2.660378e+002, 1.213551e+002
2.665199e+002, 1.212141e+002
2.670020e+002, 1.212712e+002
2.674842e+002, 1.214662e+002
2.679663e+002, 1.214488e+002
2.684484e+002, 1.211131e+002
2.689305e+002, 1.208074e+002
2.694126e+002, 1.207870e+002
2.698947e+002, 1.211074e+002
2.703769e+002, 1.214771e+002
2.708590e+002, 1.218842e+002
2.713411e+002, 1.223163e+002
2.718232e+002, 1.227058e+002
2.723053e+002, 1.230237e+002
2.727874e+002, 1.233833e+002
2.732696e+002, 1.238272e+002
2.737517e+002, 1.243383e+002
2.742338e+002, 1.251267e+002
2.747159e+002, 1.263859e+002
2.751980e+002, 1.277586e+002
2.756801e+002, 1.282994e+002
2.761623e+002, 1.278641e+002
2.766444e+002, 1.272473e+002
2.771265e+002, 1.268672e+002
2.776086e+002, 1.267472e+002
2.780907e+002, 1.264767e+002
2.785728e+002, 1.260164e+002
2.790550e+002, 1.254472e+002
2.795371e+002, 1.249846e+002
2.800192e+002, 1.246740e+002
2.805013e+002, 1.240953e+002
2.809834e+002, 1.229264e+002
2.814655e+002, 1.211870e+002
2.819477e+002, 1.197560e+002
2.824298e+002, 1.187450e+002
2.829119e+002, 1.177814e+002
2.833940e+002, 1.162380e+002
2.838761e+002, 1.140961e+002
2.843582e+002, 1.121203e+002
2.848404e+002, 1.106767e+002
2.853225e+002, 1.096678e+002
2.858046e+002, 1.084518e+002
2.862867e+002, 1.069858e+002
2.867688e+002, 1.055671e+002
2.872509e+002, 1.046174e+002
2.877331e+002, 1.041017e+002
2.882152e+002, 1.035238e+002
2.886973e+002, 1.027136e+002
2.891794e+002, 1.017310e+002
2.896615e+002, 1.007403e+002
2.901436e+002, 9.972507e+001
2.906258e+002, 9.881455e+001
2.911079e+002, 9.821262e+001
2.915900e+002, 9.785198e+001
2.920721e+002, 9.733324e+001
2.925542e+002, 9.646105e+001
2.930363e+002, 9.546938e+001
2.935185e+002, 9.487744e+001
2.940006e+002, 9.467776e+001
2.944827e+002, 9.458866e+001
2.949648e+002, 9.443066e+001
2.954469e+002, 9.420842e+001
2.959290e+002, 9.393226e+001
2.964112e+002, 9.358230e+001
2.968933e+002, 9.320945e+001
2.973754e+002, 9.288696e+001
2.978575e+002, 9.261314e+001
2.983396e+002, 9.237252e+001
2.988217e+002, 9.222868e+001
2.993039e+002, 9.210176e+001
2.997860e+002, 9.180811e+001
3.002681e+002, 9.128072e+001
3.007502e+002, 9.071260e+001
3.012323e+002, 9.034590e+001
3.017144e+002, 9.013362e+001
3.021966e+002, 8.993499e+001
3.026787e+002, 8.970052e+001
3.031608e+002, 8.942057e+001
3.036429e+002, 8.902879e+001
3.041250e+002, 8.849917e+001
3.046071e+002, 8.804086e+001
3.050893e+002, 8.788268e+001
3.055714e+002, 8.793958e+001
3.060535e+002, 8.803819e+001
3.065356e+002, 8.832000e+001
3.070177e+002, 8.847900e+001
3.074998e+002, 8.803026e+001
3.079820e+002, 8.695811e+001
3.084641e+002, 8.608200e+001
3.089462e+002, 8.616466e+001
3.094283e+002, 8.675525e+001
3.099104e+002, 8.724192e+001
3.103925e+002, 8.743625e+001
3.108747e+002, 8.741727e+001
3.113568e+002, 8.712997e+001
3.118389e+002, 8.661412e+001
3.123210e+002, 8.616367e+001
3.128031e+002, 8.596135e+001
3.132852e+002, 8.588828e+001
3.137674e+002, 8.582936e+001
3.142495e+002, 8.574426e+001
3.147316e+002, 8.568033e+001
3.152137e+002, 8.562545e+001
3.156958e+002, 8.560210e+001
3.161779e+002, 8.568668e+001
3.166601e+002, 8.601831e+001
3.171422e+002, 8.639823e+001
3.176243e+002, 8.670785e+001
3.181064e+002, 8.694807e+001
3.185885e+002, 8.705843e+001
3.190706e+002, 8.678393e+001
3.195528e+002, 8.637771e+001
3.200349e+002, 8.633065e+001
3.205170e+002, 8.721151e+001
3.209991e+002, 8.812740e+001
3.214812e+002, 8.865930e+001
3.219633e+002, 8.865466e+001
3.224455e+002, 8.869472e+001
3.229276e+002, 8.891038e+001
3.234097e+002, 8.922856e+001
3.238918e+002, 8.955964e+001
3.243739e+002, 8.990324e+001
3.248560e+002, 9.024651e+001
3.253382e+002, 9.057644e+001
3.258203e+002, 9.088949e+001
3.263024e+002, 9.124310e+001
3.267845e+002, 9.162157e+001
3.272666e+002, 9.205611e+001
3.277487e+002, 9.257512e+001
3.282309e+002, 9.333701e+001
3.287130e+002, 9.398963e+001
3.291951e+002, 9.444109e+001
3.296772e+002, 9.471821e+001
3.301593e+002, 9.509420e+001
3.306414e+002, 9.564593e+001
3.311236e+002, 9.621756e+001
3.316057e+002, 9.671700e+001
3.320878e+002, 9.701921e+001
3.325699e+002, 9.747836e+001
3.330520e+002, 9.816084e+001
3.335341e+002, 9.899200e+001
3.340163e+002, 9.978500e+001
3.344984e+002, 1.006099e+002
3.349805e+002, 1.012628e+002
3.354626e+002, 1.015907e+002
3.359447e+002, 1.014260e+002
3.364268e+002, 1.016295e+002
3.369090e+002, 1.023714e+002
3.373911e+002, 1.033115e+002
3.378732e+002, 1.038561e+002
3.383553e+002, 1.038728e+002
3.388374e+002, 1.039674e+002
3.393195e+002, 1.044090e+002
3.398017e+002, 1.051729e+002
3.402838e+002, 1.055829e+002
3.407659e+002, 1.055579e+002
3.412480e+002, 1.053906e+002
3.417301e+002, 1.054174e+002
3.422122e+002, 1.056598e+002
3.426944e+002, 1.057649e+002
3.431765e+002, 1.056102e+002
3.436586e+002, 1.052821e+002
3.441407e+002, 1.050971e+002
3.446228e+002, 1.050695e+002
3.451049e+002, 1.050216e+002
3.455871e+002, 1.047436e+002
3.460692e+002, 1.042851e+002
3.465513e+002, 1.040251e+002
3.470334e+002, 1.040383e+002
3.475155e+002, 1.042110e+002
3.479977e+002, 1.043842e+002
3.484798e+002, 1.045585e+002
3.489619e+002, 1.047270e+002
3.494440e+002, 1.048628e+002
3.499261e+002, 1.049928e+002
3.504082e+002, 1.051759e+002
3.508904e+002, 1.054154e+002
3.513725e+002, 1.057085e+002
3.518546e+002, 1.060949e+002
3.523367e+002, 1.065391e+002
3.528188e+002, 1.069515e+002
3.533009e+002, 1.073799e+002
3.537831e+002, 1.077104e+002
3.542652e+002, 1.076931e+002
3.547473e+002, 1.073487e+002
3.552294e+002, 1.071166e+002
3.557115e+002, 1.075312e+002
3.561936e+002, 1.081846e+002
3.566758e+002, 1.085138e+002
3.571579e+002, 1.080788e+002
3.576400e+002, 1.076303e+002
3.581221e+002, 1.077503e+002
3.586042e+002, 1.083219e+002
3.590863e+002, 1.089263e+002
3.595685e+002, 1.095742e+002
3.600506e+002, 1.100408e+002
3.605327e+002, 1.100810e+002
3.610148e+002, 1.094507e+002
3.614969e+002, 1.089463e+002
3.619790e+002, 1.090154e+002
3.624612e+002, 1.094105e+002
3.629433e+002, 1.097131e+002
3.634254e+002, 1.098090e+002
3.639075e+002, 1.097770e+002
3.643896e+002, 1.096823e+002
3.648717e+002, 1.095517e+002
3.653539e+002, 1.091670e+002
3.658360e+002, 1.081941e+002
3.663181e+002, 1.070868e+002
3.668002e+002, 1.062380e+002
3.672823e+002, 1.059397e+002
3.677644e+002, 1.056275e+002
3.682466e+002, 1.052301e+002
3.687287e+002, 1.047470e+002
3.692108e+002, 1.042203e+002
3.696929e+002, 1.036572e+002
3.701750e+002, 1.030388e+002
3.706571e+002, 1.023585e+002
3.711393e+002, 1.015620e+002
3.716214e+002, 1.007864e+002
3.721035e+002, 1.000060e+002
3.725856e+002, 9.924982e+001
3.730677e+002, 9.859091e+001
3.735498e+002, 9.802030e+001
3.740320e+002, 9.755945e+001
3.745141e+002, 9.728216e+001
3.749962e+002, 9.724048e+001
3.754783e+002, 9.691506e+001
3.759604e+002, 9.623683e+001
3.764425e+002, 9.539546e+001
3.769247e+002, 9.455349e+001
3.774068e+002, 9.368168e+001
3.778889e+002, 9.304762e+001
3.783710e+002, 9.279164e+001
3.788531e+002, 9.281554e+001
3.793352e+002, 9.271518e+001
3.798174e+002, 9.248613e+001
3.802995e+002, 9.216869e+001
3.807816e+002, 9.168958e+001
3.812637e+002, 9.109167e+001
3.817458e+002, 9.081094e+001
3.822279e+002, 9.098118e+001
3.827101e+002, 9.133035e+001
3.831922e+002, 9.141378e+001
3.836743e+002, 9.126374e+001
3.841564e+002, 9.109793e+001
3.846385e+002, 9.104311e+001
3.851206e+002, 9.105223e+001
3.856028e+002, 9.096243e+001
3.860849e+002, 9.074487e+001
3.865670e+002, 9.069035e+001
3.870491e+002, 9.129801e+001
3.875312e+002, 9.225134e+001
3.880133e+002, 9.291988e+001
3.884955e+002, 9.286600e+001
3.889776e+002, 9.260281e+001
3.894597e+002, 9.259801e+001
3.899418e+002, 9.281388e+001
3.904239e+002, 9.302503e+001
3.909060e+002, 9.322039e+001
3.913882e+002, 9.328588e+001
3.918703e+002, 9.306605e+001
3.923524e+002, 9.234074e+001
3.928345e+002, 9.172639e+001
3.933166e+002, 9.162315e+001
3.937987e+002, 9.183540e+001
3.942809e+002, 9.197141e+001
3.947630e+002, 9.195183e+001
3.952451e+002, 9.178696e+001
3.957272e+002, 9.141639e+001
3.962093e+002, 9.078799e+001
3.966914e+002, 9.028088e+001
3.971736e+002, 9.017928e+001
3.976557e+002, 9.013152e+001
3.981378e+002, 8.981267e+001
3.986199e+002, 8.866830e+001
3.991020e+002, 8.784728e+001
3.995841e+002, 8.765481e+001
4.000663e+002, 8.797906e+001
4.005484e+002, 8.807278e+001
4.010305e+002, 8.782854e+001
4.015126e+002, 8.747053e+001
4.019947e+002, 8.711107e+001
4.024768e+002, 8.681223e+001
4.029590e+002, 8.639334e+001
4.034411e+002, 8.591969e+001
4.039232e+002, 8.528133e+001
4.044053e+002, 8.421061e+001
4.048874e+002, 8.253257e+001
4.053695e+002, 8.094949e+001
4.058517e+002, 7.970504e+001
4.063338e+002, 7.878321e+001
4.068159e+002, 7.776132e+001
4.072980e+002, 7.661089e+001
4.077801e+002, 7.545597e+001
4.082622e+002, 7.440821e+001
4.087444e+002, 7.346241e+001
4.092265e+002, 7.262954e+001
4.097086e+002, 7.191893e+001
4.101907e+002, 7.130742e+001
4.106728e+002, 7.075962e+001
4.111549e+002, 7.026952e+001
4.116371e+002, 6.980465e+001
4.121192e+002, 6.931391e+001
4.126013e+002, 6.884074e+001
4.130834e+002, 6.851982e+001
4.135655e+002, 6.838195e+001
4.140476e+002, 6.824944e+001
4.145298e+002, 6.791302e+001
4.150119e+002, 6.745693e+001
4.154940e+002, 6.704240e+001
4.159761e+002, 6.675609e+001
4.164582e+002, 6.652624e+001
4.169403e+002, 6.634573e+001
4.174225e+002, 6.619512e+001
4.179046e+002, 6.595264e+001
4.183867e+002, 6.539534e+001
4.188688e+002, 6.480702e+001
4.193509e+002, 6.445524e+001
4.198330e+002, 6.450307e+001
4.203152e+002, 6.454345e+001
4.207973e+002, 6.439838e+001
4.212794e+002, 6.414401e+001
4.217615e+002, 6.391788e+001
4.222436e+002, 6.376324e+001
4.227257e+002, 6.363657e+001
4.232079e+002, 6.351271e+001
4.236900e+002, 6.338461e+001
4.241721e+002, 6.331975e+001
4.246542e+002, 6.340329e+001
4.251363e+002, 6.350220e+001
4.256184e+002, 6.352573e+001
4.261006e+002, 6.352745e+001
4.265827e+002, 6.335191e+001
4.270648e+002, 6.283070e+001
4.275469e+002, 6.212785e+001
4.280290e+002, 6.184545e+001
4.285111e+002, 6.210525e+001
4.289933e+002, 6.254845e+001
4.294754e+002, 6.312487e+001
4.299575e+002, 6.391944e+001
4.304396e+002, 6.415549e+001
4.309217e+002, 6.370760e+001
4.314038e+002, 6.297481e+001
4.318860e+002, 6.243838e+001
4.323681e+002, 6.210356e+001
4.328502e+002, 6.183073e+001
4.333323e+002, 6.160276e+001
4.338144e+002, 6.140042e+001
4.342965e+002, 6.113355e+001
4.347787e+002, 6.080540e+001
4.352608e+002, 6.056668e+001
4.357429e+002, 6.059995e+001
4.362250e+002, 6.080131e+001
4.367071e+002, 6.089632e+001
4.371892e+002, 6.083323e+001
4.376714e+002, 6.074986e+001
4.381535e+002, 6.072898e+001
4.386356e+002, 6.079943e+001
4.391177e+002, 6.102660e+001
4.395998e+002, 6.156475e+001
4.400819e+002, 6.218320e+001
4.405641e+002, 6.269520e+001
4.410462e+002, 6.310463e+001
4.415283e+002, 6.348751e+001
4.420104e+002, 6.378740e+001
4.424925e+002, 6.412823e+001
4.429746e+002, 6.461967e+001
4.434568e+002, 6.536732e+001
4.439389e+002, 6.611948e+001
4.444210e+002, 6.683069e+001
4.449031e+002, 6.749023e+001
4.453852e+002, 6.808054e+001
4.458673e+002, 6.850231e+001
4.463495e+002, 6.893860e+001
4.468316e+002, 6.945759e+001
4.473137e+002, 7.007688e+001
4.477958e+002, 7.067595e+001
4.482779e+002, 7.125947e+001
4.487600e+002, 7.181436e+001
4.492422e+002, 7.231728e+001
4.497243e+002, 7.270273e+001
4.502064e+002, 7.319621e+001
4.506885e+002, 7.389706e+001
4.511706e+002, 7.468923e+001
4.516527e+002, 7.519721e+001
4.521349e+002, 7.532844e+001
4.526170e+002, 7.551830e+001
4.530991e+002, 7.603423e+001
4.535812e+002, 7.685952e+001
4.540633e+002, 7.735569e+001
4.545454e+002, 7.749313e+001
4.550276e+002, 7.747515e+001
4.555097e+002, 7.746399e+001
4.559918e+002, 7.746861e+001
4.564739e+002, 7.755666e+001
4.569560e+002, 7.778174e+001
4.574381e+002, 7.804233e+001
4.579203e+002, 7.818945e+001
4.584024e+002, 7.823257e+001
4.588845e+002, 7.821709e+001
4.593666e+002, 7.807167e+001
4.598488e+002, 7.792843e+001
4.603309e+002, 7.796853e+001
4.608130e+002, 7.821622e+001
4.612951e+002, 7.852371e+001
4.617772e+002, 7.875890e+001
4.622593e+002, 7.900257e+001
4.627415e+002, 7.934621e+001
4.632236e+002, 7.992210e+001
4.637057e+002, 8.049977e+001
4.641878e+002, 8.089705e+001
4.646699e+002, 8.119753e+001
4.651520e+002, 8.170966e+001
4.656342e+002, 8.270997e+001
4.661163e+002, 8.376305e+001
4.665984e+002, 8.464661e+001
4.670805e+002, 8.517879e+001
4.675626e+002, 8.602253e+001
4.680447e+002, 8.747704e+001
4.685269e+002, 8.906527e+001
4.690090e+002, 9.030070e+001
4.694911e+002, 9.093555e+001
4.699732e+002, 9.166777e+001
4.704553e+002, 9.258581e+001
4.709374e+002, 9.367828e+001
4.714196e+002, 9.495910e+001
4.719017e+002, 9.647176e+001
4.723838e+002, 9.801441e+001
4.728659e+002, 9.950642e+001
4.733480e+002, 1.009524e+002
4.738301e+002, 1.023058e+002
4.743123e+002, 1.036016e+002
4.747944e+002, 1.046924e+002
4.752765e+002, 1.052644e+002
4.757586e+002, 1.054190e+002
4.762407e+002, 1.057217e+002
4.767228e+002, 1.065146e+002
4.772050e+002, 1.073530e+002
4.776871e+002, 1.073916e+002
4.781692e+002, 1.067841e+002
4.786513e+002, 1.062702e+002
4.791334e+002, 1.065696e+002
4.796155e+002, 1.070721e+002
4.800977e+002, 1.070930e+002
4.805798e+002, 1.065128e+002
4.810619e+002, 1.057899e+002
4.815440e+002, 1.049804e+002
4.820261e+002, 1.042684e+002
4.825082e+002, 1.038612e+002
4.829904e+002, 1.043135e+002
4.834725e+002, 1.045646e+002
4.839546e+002, 1.042894e+002
4.844367e+002, 1.035401e+002
4.849188e+002, 1.025755e+002
4.854009e+002, 1.011271e+002
4.858831e+002, 9.973647e+001
4.863652e+002, 9.865771e+001
4.868473e+002, 9.808150e+001
4.873294e+002, 9.714102e+001
4.878115e+002, 9.565060e+001
4.882936e+002, 9.396538e+001
4.887758e+002, 9.243513e+001
4.892579e+002, 9.110506e+001
4.897400e+002, 8.977076e+001
4.902221e+002, 8.842567e+001
4.907042e+002, 8.703507e+001
4.911863e+002, 8.545452e+001
4.916685e+002, 8.363955e+001
4.921506e+002, 8.201135e+001
4.926327e+002, 8.098332e+001
4.931148e+002, 8.037946e+001
4.935969e+002, 7.937722e+001
4.940790e+002, 7.791394e+001
4.945612e+002, 7.646040e+001
4.950433e+002, 7.553581e+001
4.955254e+002, 7.495621e+001
4.960075e+002, 7.429126e+001
4.964896e+002, 7.339478e+001
4.969717e+002, 7.242427e+001
4.974539e+002, 7.142931e+001
4.979360e+002, 7.047633e+001
4.984181e+002, 6.978050e+001
4.989002e+002, 6.977699e+001
4.993823e+002, 6.979267e+001
4.998644e+002, 6.935629e+001
5.003466e+002, 6.839690e+001
5.008287e+002, 6.747419e+001
5.013108e+002, 6.672123e+001
5.017929e+002, 6.609054e+001
5.022750e+002, 6.554812e+001
5.027571e+002, 6.513288e+001
5.032393e+002, 6.474303e+001
5.037214e+002, 6.437595e+001
5.042035e+002, 6.403121e+001
5.046856e+002, 6.369432e+001
5.051677e+002, 6.332064e+001
5.056498e+002, 6.304835e+001
5.061320e+002, 6.297007e+001
5.066141e+002, 6.307174e+001
5.070962e+002, 6.295550e+001
5.075783e+002, 6.257156e+001
5.080604e+002, 6.213965e+001
5.085425e+002, 6.186747e+001
5.090247e+002, 6.173721e+001
5.095068e+002, 6.148049e+001
5.099889e+002, 6.102498e+001
5.104710e+002, 6.056438e+001
5.109531e+002, 6.049404e+001
5.114352e+002, 6.068355e+001
5.119174e+002, 6.064746e+001
5.123995e+002, 5.982104e+001
5.128816e+002, 5.890163e+001
5.133637e+002, 5.891780e+001
5.138458e+002, 5.969080e+001
5.143279e+002, 6.014503e+001
5.148101e+002, 5.932964e+001
5.152922e+002, 5.812815e+001
5.157743e+002, 5.725919e+001
5.162564e+002, 5.691636e+001
5.167385e+002, 5.660739e+001
5.172206e+002, 5.613001e+001
5.177028e+002, 5.561248e+001
5.181849e+002, 5.520330e+001
5.186670e+002, 5.514874e+001
5.191491e+002, 5.494278e+001
5.196312e+002, 5.440009e+001
5.201133e+002, 5.363116e+001
5.205955e+002, 5.310353e+001
5.210776e+002, 5.299371e+001
5.215597e+002, 5.283985e+001
5.220418e+002, 5.241930e+001
5.225239e+002, 5.169582e+001
5.230060e+002, 5.107881e+001
5.234882e+002, 5.056380e+001
5.239703e+002, 5.015765e+001
5.244524e+002, 4.989071e+001
5.249345e+002, 4.975718e+001
5.254166e+002, 4.967322e+001
5.258987e+002, 4.966003e+001
5.263809e+002, 4.961378e+001
5.268630e+002, 4.923689e+001
5.273451e+002, 4.863728e+001
5.278272e+002, 4.826658e+001
5.283093e+002, 4.864750e+001
5.287914e+002, 4.919665e+001
5.292736e+002, 4.922283e+001
5.297557e+002, 4.874537e+001
5.302378e+002, 4.824224e+001
5.307199e+002, 4.792797e+001
5.312020e+002, 4.773310e+001
5.316841e+002, 4.761463e+001
5.321663e+002, 4.759874e+001
5.326484e+002, 4.757685e+001
5.331305e+002, 4.747298e+001
5.336126e+002, 4.736059e+001
5.340947e+002, 4.734564e+001
5.345768e+002, 4.760426e+001
5.350590e+002, 4.775074e+001
5.355411e+002, 4.764894e+001
5.360232e+002, 4.736384e+001
5.365053e+002, 4.731535e+001
5.369874e+002, 4.761349e+001
5.374695e+002, 4.790543e+001
5.379517e+002, 4.798185e+001
5.384338e+002, 4.782832e+001
5.389159e+002, 4.778684e+001
5.393980e+002, 4.787029e+001
5.398801e+002, 4.801331e+001
5.403622e+002, 4.813749e+001
5.408444e+002, 4.825409e+001
5.413265e+002, 4.843649e+001
5.418086e+002, 4.873738e+001
5.422907e+002, 4.903890e+001
5.427728e+002, 4.909044e+001
5.432549e+002, 4.900386e+001
5.437371e+002, 4.909874e+001
5.442192e+002, 4.975472e+001
5.447013e+002, 5.049156e+001
5.451834e+002, 5.098536e+001
5.456655e+002, 5.123228e+001
5.461476e+002, 5.130117e+001
5.466298e+002, 5.094300e+001
5.471119e+002, 5.060783e+001
5.475940e+002, 5.062395e+001
5.480761e+002, 5.128571e+001
5.485582e+002, 5.178399e+001
5.490403e+002, 5.194258e+001
5.495225e+002, 5.196694e+001
5.500046e+002, 5.209883e+001
5.504867e+002, 5.239368e+001
5.509688e+002, 5.268078e+001
5.514509e+002, 5.291550e+001
5.519330e+002, 5.312694e+001
5.524152e+002, 5.343223e+001
5.528973e+002, 5.385007e+001
5.533794e+002, 5.425377e+001
5.538615e+002, 5.452655e+001
5.543436e+002, 5.471385e+001
5.548257e+002, 5.510944e+001
5.553079e+002, 5.572174e+001
5.557900e+002, 5.633372e+001
5.562721e+002, 5.678490e+001
5.567542e+002, 5.708428e+001
5.572363e+002, 5.722994e+001
5.577184e+002, 5.719770e+001
5.582006e+002, 5.708282e+001
5.586827e+002, 5.683114e+001
5.591648e+002, 5.657011e+001
5.596469e+002, 5.651021e+001
5.601290e+002, 5.703268e+001
5.606111e+002, 5.747420e+001
5.610933e+002, 5.747055e+001
5.615754e+002, 5.710078e+001
5.620575e+002, 5.691176e+001
5.625396e+002, 5.720740e+001
5.630217e+002, 5.748524e+001
5.635038e+002, 5.753733e+001
5.639860e+002, 5.729985e+001
5.644681e+002, 5.712500e+001
5.649502e+002, 5.699929e+001
5.654323e+002, 5.695615e+001
5.659144e+002, 5.707843e+001
5.663965e+002, 5.739132e+001
5.668787e+002, 5.753345e+001
5.673608e+002, 5.737608e+001
5.678429e+002, 5.718188e+001
5.683250e+002, 5.748397e+001
5.688071e+002, 5.819929e+001
5.692892e+002, 5.887044e+001
5.697714e+002, 5.921837e+001
5.702535e+002, 5.945581e+001
5.707356e+002, 5.986849e+001
5.712177e+002, 6.043803e+001
5.716998e+002, 6.101881e+001
5.721819e+002, 6.154578e+001
5.726641e+002, 6.204935e+001
5.731462e+002, 6.250373e+001
5.736283e+002, 6.286351e+001
5.741104e+002, 6.343173e+001
5.745925e+002, 6.448663e+001
5.750746e+002, 6.569341e+001
5.755568e+002, 6.676283e+001
5.760389e+002, 6.729587e+001
5.765210e+002, 6.819224e+001
5.770031e+002, 6.962082e+001
5.774852e+002, 7.138459e+001
5.779673e+002, 7.309167e+001
5.784495e+002, 7.473901e+001
5.789316e+002, 7.638599e+001
5.794137e+002, 7.802375e+001
5.798958e+002, 7.967007e+001
5.803779e+002, 8.155091e+001
5.808600e+002, 8.366759e+001
5.813422e+002, 8.581371e+001
5.818243e+002, 8.773930e+001
5.823064e+002, 8.961459e+001
5.827885e+002, 9.181564e+001
5.832706e+002, 9.439246e+001
5.837527e+002, 9.708462e+001
5.842349e+002, 9.969930e+001
5.847170e+002, 1.023258e+002
5.851991e+002, 1.050735e+002
5.856812e+002, 1.080665e+002
5.861633e+002, 1.110718e+002
5.866454e+002, 1.140185e+002
5.871276e+002, 1.169205e+002
5.876097e+002, 1.197589e+002
5.880918e+002, 1.223185e+002
5.885739e+002, 1.250867e+002
5.890560e+002, 1.283202e+002
5.895381e+002, 1.319108e+002
5.900203e+002, 1.350987e+002
5.905024e+002, 1.379107e+002
5.909845e+002, 1.402796e+002
5.914666e+002, 1.421871e+002
5.919487e+002, 1.436482e+002
5.924308e+002, 1.444486e+002
5.929130e+002, 1.445641e+002
5.933951e+002, 1.441601e+002
5.938772e+002, 1.434140e+002
5.943593e+002, 1.422892e+002
5.948414e+002, 1.406106e+002
5.953235e+002, 1.383013e+002
5.958057e+002, 1.356544e+002
5.962878e+002, 1.328927e+002
5.967699e+002, 1.300088e+002
5.972520e+002, 1.270346e+002
5.977341e+002, 1.239301e+002
5.982162e+002, 1.207526e+002
5.986984e+002, 1.173109e+002
5.991805e+002, 1.138014e+002
5.996626e+002, 1.107179e+002
6.001447e+002, 1.083847e+002
6.006268e+002, 1.062947e+002
6.011089e+002, 1.043174e+002
6.015911e+002, 1.024506e+002
6.020732e+002, 1.005549e+002
6.025553e+002, 9.852990e+001
6.030374e+002, 9.666198e+001
6.035195e+002, 9.524125e+001
6.040016e+002, 9.431538e+001
6.044838e+002, 9.324204e+001
6.049659e+002, 9.194019e+001
6.054480e+002, 9.068034e+001
6.059301e+002, 8.978831e+001
6.064122e+002, 8.923914e+001
6.068943e+002, 8.893867e+001
6.073765e+002, 8.895135e+001
6.078586e+002, 8.904300e+001
6.083407e+002, 8.899833e+001
6.088228e+002, 8.883060e+001
6.093049e+002, 8.857403e+001
6.097870e+002, 8.811050e+001
6.102692e+002, 8.767767e+001
6.107513e+002, 8.737189e+001
6.112334e+002, 8.720049e+001
6.117155e+002, 8.718971e+001
6.121976e+002, 8.741727e+001
6.126797e+002, 8.774613e+001
6.131619e+002, 8.810571e+001
6.136440e+002, 8.848284e+001
6.141261e+002, 8.898891e+001
6.146082e+002, 8.971586e+001
6.150903e+002, 9.043823e+001
6.155724e+002, 9.087852e+001
6.160546e+002, 9.101453e+001
6.165367e+002, 9.146987e+001
6.170188e+002, 9.237769e+001
6.175009e+002, 9.345925e+001
6.179830e+002, 9.430067e+001
6.184651e+002, 9.496914e+001
6.189473e+002, 9.570329e+001
6.194294e+002, 9.666537e+001
6.199115e+002, 9.763610e+001
6.203936e+002, 9.838194e+001
6.208757e+002, 9.896267e+001
6.213578e+002, 9.956759e+001
6.218400e+002, 1.002607e+002
6.223221e+002, 1.010203e+002
6.228042e+002, 1.019053e+002
6.232863e+002, 1.029232e+002
6.237684e+002, 1.037105e+002
6.242505e+002, 1.041887e+002
6.247327e+002, 1.044760e+002
6.252148e+002, 1.046110e+002
6.256969e+002, 1.045746e+002
6.261790e+002, 1.044659e+002
6.266611e+002, 1.042891e+002
6.271432e+002, 1.040362e+002
6.276254e+002, 1.037580e+002
6.281075e+002, 1.034390e+002
6.285896e+002, 1.028112e+002
6.290717e+002, 1.018151e+002
6.295538e+002, 1.005579e+002
6.300359e+002, 9.909956e+001
6.305181e+002, 9.749940e+001
6.310002e+002, 9.587183e+001
6.314823e+002, 9.426054e+001
6.319644e+002, 9.264273e+001
6.324465e+002, 9.100726e+001
6.329286e+002, 8.934571e+001
6.334108e+002, 8.766707e+001
6.338929e+002, 8.587120e+001
6.343750e+002, 8.413793e+001
6.348571e+002, 8.253150e+001
6.353392e+002, 8.105050e+001
6.358214e+002, 7.962198e+001
6.363035e+002, 7.817769e+001
6.367856e+002, 7.686913e+001
6.372677e+002, 7.583458e+001
6.377498e+002, 7.513854e+001
6.382319e+002, 7.421472e+001
6.387141e+002, 7.298380e+001
6.391962e+002, 7.180309e+001
6.396783e+002, 7.111834e+001
6.401604e+002, 7.080167e+001
6.406425e+002, 7.037518e+001
6.411246e+002, 6.973667e+001
6.416068e+002, 6.900021e+001
6.420889e+002, 6.820632e+001
6.425710e+002, 6.740478e+001
6.430531e+002, 6.669860e+001
6.435352e+002, 6.623226e+001
6.440173e+002, 6.574909e+001
6.444995e+002, 6.507981e+001
6.449816e+002, 6.430534e+001
6.454637e+002, 6.363790e+001
6.459458e+002, 6.323309e+001
6.464279e+002, 6.281338e+001
6.469100e+002, 6.226633e+001
6.473922e+002, 6.161376e+001
6.478743e+002, 6.128019e+001
6.483564e+002, 6.142692e+001
6.488385e+002, 6.140002e+001
6.493206e+002, 6.064233e+001
6.498027e+002, 5.926681e+001
6.502849e+002, 5.844502e+001
6.507670e+002, 5.820619e+001
6.512491e+002, 5.809699e+001
6.517312e+002, 5.773498e+001
6.522133e+002, 5.723006e+001
6.526954e+002, 5.675033e+001
6.531776e+002, 5.633036e+001
6.536597e+002, 5.592641e+001
6.541418e+002, 5.556592e+001
6.546239e+002, 5.517612e+001
6.551060e+002, 5.467108e+001
6.555881e+002, 5.370710e+001
6.560703e+002, 5.302248e+001
6.565524e+002, 5.291036e+001
6.570345e+002, 5.309365e+001
6.575166e+002, 5.309801e+001
6.579987e+002, 5.287119e+001
6.584808e+002, 5.258827e+001
6.589630e+002, 5.224192e+001
6.594451e+002, 5.188836e+001
6.599272e+002, 5.176310e+001
6.604093e+002, 5.186688e+001
6.608914e+002, 5.193710e+001
6.613735e+002, 5.178034e+001
6.618557e+002, 5.151556e+001
6.623378e+002, 5.141859e+001
6.628199e+002, 5.145946e+001
6.633020e+002, 5.136225e+001
6.637841e+002, 5.070353e+001
6.642662e+002, 5.000325e+001
6.647484e+002, 4.972730e+001
6.652305e+002, 5.000264e+001
6.657126e+002, 5.021949e+001
6.661947e+002, 5.021562e+001
6.666768e+002, 5.010703e+001
6.671589e+002, 4.996342e+001
6.676411e+002, 4.967399e+001
6.681232e+002, 4.961866e+001
6.686053e+002, 4.991861e+001
6.690874e+002, 5.028522e+001
6.695695e+002, 5.032694e+001
6.700516e+002, 5.004694e+001
6.705338e+002, 4.974622e+001
6.710159e+002, 4.945003e+001
6.714980e+002, 4.923423e+001
6.719801e+002, 4.929080e+001
6.724622e+002, 4.952819e+001
6.729443e+002, 4.969282e+001
6.734265e+002, 4.959430e+001
6.739086e+002, 4.946942e+001
6.743907e+002, 4.951872e+001
6.748728e+002, 4.967815e+001
6.753549e+002, 4.975009e+001
6.758370e+002, 4.949447e+001
6.763192e+002, 4.932704e+001
6.768013e+002, 4.949846e+001
6.772834e+002, 4.996295e+001
6.777655e+002, 5.009376e+001
6.782476e+002, 4.972715e+001
6.787297e+002, 4.936481e+001
6.792119e+002, 4.931217e+001
6.796940e+002, 4.954458e+001
6.801761e+002, 4.953514e+001
6.806582e+002, 4.926188e+001
6.811403e+002, 4.897833e+001
6.816224e+002, 4.887080e+001
6.821046e+002, 4.891038e+001
6.825867e+002, 4.903089e+001
6.830688e+002, 4.921662e+001
6.835509e+002, 4.955469e+001
6.840330e+002, 5.052887e+001
6.845151e+002, 5.147667e+001
6.849973e+002, 5.169556e+001
6.854794e+002, 5.045823e+001
6.859615e+002, 4.946549e+001
6.864436e+002, 4.911255e+001
6.869257e+002, 4.907314e+001
6.874078e+002, 4.897350e+001
6.878900e+002, 4.874436e+001
6.883721e+002, 4.866208e+001
6.888542e+002, 4.883254e+001
6.893363e+002, 4.908939e+001
6.898184e+002, 4.900600e+001
6.903005e+002, 4.862054e+001
6.907827e+002, 4.841791e+001
6.912648e+002, 4.870522e+001
6.917469e+002, 4.915101e+001
6.922290e+002, 4.928740e+001
6.927111e+002, 4.917667e+001
6.931932e+002, 4.901101e+001
6.936754e+002, 4.873329e+001
6.941575e+002, 4.856532e+001
6.946396e+002, 4.869833e+001
6.951217e+002, 4.910684e+001
6.956038e+002, 4.944109e+001
6.960859e+002, 4.966918e+001
6.965681e+002, 4.978145e+001
6.970502e+002, 4.975643e+001
6.975323e+002, 4.958968e+001
6.980144e+002, 4.936009e+001
6.984965e+002, 4.901845e+001
6.989786e+002, 4.879170e+001
6.994608e+002, 4.894267e+001
6.999429e+002, 4.937292e+001
7.004250e+002, 4.963308e+001
7.009071e+002, 4.969588e+001
7.013892e+002, 4.966044e+001
7.018713e+002, 4.953581e+001
7.023535e+002, 4.939776e+001
7.028356e+002, 4.936845e+001
7.033177e+002, 4.953693e+001
7.037998e+002, 4.960373e+001
7.042819e+002, 4.932010e+001
7.047640e+002, 4.894066e+001
7.052462e+002, 4.874299e+001
7.057283e+002, 4.884007e+001
7.062104e+002, 4.895068e+001
7.066925e+002, 4.905848e+001
7.071746e+002, 4.917921e+001
7.076567e+002, 4.936969e+001
7.081389e+002, 4.963951e+001
7.086210e+002, 4.978725e+001
7.091031e+002, 4.972935e+001
7.095852e+002, 4.959771e+001
7.100673e+002, 4.962688e+001
7.105494e+002, 4.976799e+001
7.110316e+002, 4.987342e+001
7.115137e+002, 4.984695e+001
7.119958e+002, 4.978735e+001
7.124779e+002, 4.976026e+001
7.129600e+002, 4.975307e+001
7.134421e+002, 4.972750e+001
7.139243e+002, 4.959033e+001
7.144064e+002, 4.952485e+001
7.148885e+002, 4.962257e+001
7.153706e+002, 4.985501e+001
7.158527e+002, 4.998352e+001
7.163348e+002, 4.997541e+001
7.168170e+002, 4.996115e+001
7.172991e+002, 5.001413e+001
7.177812e+002, 5.011457e+001
7.182633e+002, 5.015300e+001
7.187454e+002, 5.013083e+001
7.192275e+002, 5.009697e+001
7.197097e+002, 5.006715e+001
7.201918e+002, 5.005535e+001
7.206739e+002, 5.007062e+001
7.211560e+002, 5.011386e+001
7.216381e+002, 5.021063e+001
7.221202e+002, 5.045143e+001
7.226024e+002, 5.069329e+001
7.230845e+002, 5.081467e+001
7.235666e+002, 5.071774e+001
7.240487e+002, 5.081750e+001
7.245308e+002, 5.133467e+001
7.250129e+002, 5.175768e+001
7.254951e+002, 5.153131e+001
7.259772e+002, 5.059747e+001
7.264593e+002, 5.009605e+001
7.269414e+002, 5.014978e+001
7.274235e+002, 5.044495e+001
7.279056e+002, 5.068485e+001
7.283878e+002, 5.088664e+001
7.288699e+002, 5.109859e+001
7.293520e+002, 5.135927e+001
7.298341e+002, 5.155525e+001
7.303162e+002, 5.160832e+001
7.307983e+002, 5.155244e+001
7.312805e+002, 5.143174e+001
7.317626e+002, 5.102266e+001
7.322447e+002, 5.086396e+001
7.327268e+002, 5.117170e+001
7.332089e+002, 5.165903e+001
7.336910e+002, 5.182226e+001
7.341732e+002, 5.156718e+001
7.346553e+002, 5.141938e+001
7.351374e+002, 5.151068e+001
7.356195e+002, 5.173339e+001
7.361016e+002, 5.190791e+001
7.365837e+002, 5.203632e+001
7.370659e+002, 5.212348e+001
7.375480e+002, 5.209868e+001
7.380301e+002, 5.210954e+001
7.385122e+002, 5.238613e+001
7.389943e+002, 5.280684e+001
7.394764e+002, 5.305664e+001
7.399586e+002, 5.280698e+001
7.404407e+002, 5.260112e+001
7.409228e+002, 5.269777e+001
7.414049e+002, 5.300591e+001
7.418870e+002, 5.310890e+001
7.423691e+002, 5.293590e+001
7.428513e+002, 5.273714e+001
7.433334e+002, 5.256897e+001
7.438155e+002, 5.245673e+001
7.442976e+002, 5.256377e+001
7.447797e+002, 5.287729e+001
7.452618e+002, 5.315022e+001
7.457440e+002, 5.317420e+001
7.462261e+002, 5.310971e+001
7.467082e+002, 5.318573e+001
7.471903e+002, 5.338231e+001
7.476724e+002, 5.346873e+001
7.481545e+002, 5.317307e+001
7.486367e+002, 5.288429e+001
7.491188e+002, 5.283052e+001
7.496009e+002, 5.304789e+001
7.500830e+002, 5.323063e+001
7.505651e+002, 5.337695e+001
7.510472e+002, 5.349620e+001
7.515294e+002, 5.359932e+001
7.520115e+002, 5.368557e+001
7.524936e+002, 5.370020e+001
7.529757e+002, 5.363988e+001
7.534578e+002, 5.356462e+001
7.539399e+002, 5.348917e+001
7.544221e+002, 5.344799e+001
7.549042e+002, 5.351756e+001
7.553863e+002, 5.371556e+001
7.558684e+002, 5.389777e+001
7.563505e+002, 5.391528e+001
7.568326e+002, 5.393953e+001
7.573148e+002, 5.414470e+001
7.577969e+002, 5.474112e+001
7.582790e+002, 5.496527e+001
7.587611e+002, 5.461142e+001
7.592432e+002, 5.416439e+001
7.597253e+002, 5.406077e+001
7.602075e+002, 5.430742e+001
7.606896e+002, 5.455185e+001
7.611717e+002, 5.477612e+001
7.616538e+002, 5.496236e+001
7.621359e+002, 5.508519e+001
7.626180e+002, 5.516196e+001
7.631002e+002, 5.523124e+001
7.635823e+002, 5.531880e+001
7.640644e+002, 5.533670e+001
7.645465e+002, 5.512495e+001
7.650286e+002, 5.487260e+001
7.655107e+002, 5.478514e+001
7.659929e+002, 5.502425e+001
7.664750e+002, 5.523346e+001
7.669571e+002, 5.542623e+001
7.674392e+002, 5.557530e+001
7.679213e+002, 5.563387e+001
7.684034e+002, 5.559871e+001
7.688856e+002, 5.555067e+001
7.693677e+002, 5.548735e+001
7.698498e+002, 5.546442e+001
7.703319e+002, 5.560149e+001
7.708140e+002, 5.582683e+001
7.712961e+002, 5.598470e+001
7.717783e+002, 5.598102e+001
7.722604e+002, 5.598465e+001
7.727425e+002, 5.615272e+001
7.732246e+002, 5.636295e+001
7.737067e+002, 5.642630e+001
7.741888e+002, 5.612684e+001
7.746710e+002, 5.596999e+001
7.751531e+002, 5.600127e+001
7.756352e+002, 5.619418e+001
7.761173e+002, 5.660897e+001
7.765994e+002, 5.725688e+001
7.770815e+002, 5.755971e+001
7.775637e+002, 5.727195e+001
7.780458e+002, 5.680549e+001
7.785279e+002, 5.674324e+001
7.790100e+002, 5.696134e+001
7.794921e+002, 5.718157e+001
7.799742e+002, 5.730198e+001
7.804564e+002, 5.738509e+001
7.809385e+002, 5.745075e+001
7.814206e+002, 5.749987e+001
7.819027e+002, 5.753236e+001
7.823848e+002, 5.752451e+001
7.828669e+002, 5.754214e+001
7.833491e+002, 5.760420e+001
7.838312e+002, 5.769246e+001
7.843133e+002, 5.773452e+001
7.847954e+002, 5.773346e+001
7.852775e+002, 5.784596e+001
7.857596e+002, 5.818682e+001
7.862418e+002, 5.857551e+001
7.867239e+002, 5.880061e+001
7.872060e+002, 5.887218e+001
7.876881e+002, 5.881982e+001
7.881702e+002, 5.847569e+001
7.886523e+002, 5.820275e+001
7.891345e+002, 5.818890e+001
7.896166e+002, 5.836111e+001
7.900987e+002, 5.849189e+001
7.905808e+002, 5.857425e+001
7.910629e+002, 5.861169e+001
7.915450e+002, 5.858124e+001
7.920272e+002, 5.852226e+001
7.925093e+002, 5.853603e+001
7.929914e+002, 5.862201e+001
7.934735e+002, 5.878474e+001
7.939556e+002, 5.910512e+001
7.944377e+002, 5.942103e+001
7.949199e+002, 5.953384e+001
7.954020e+002, 5.948677e+001
7.958841e+002, 5.939026e+001
7.963662e+002, 5.906656e+001
7.968483e+002, 5.893805e+001
7.973304e+002, 5.935163e+001
7.978126e+002, 6.008302e+001
7.982947e+002, 6.039516e+001
7.987768e+002, 6.011318e+001
7.992589e+002, 5.990928e+001
7.997410e+002, 6.000514e+001
8.002231e+002, 6.027727e+001
8.007053e+002, 6.044659e+001
8.011874e+002, 6.051241e+001
8.016695e+002, 6.046777e+001
8.021516e+002, 6.014631e+001
8.026337e+002, 5.985786e+001
8.031158e+002, 5.995734e+001
8.035980e+002, 6.031546e+001
8.040801e+002, 6.058086e+001
8.045622e+002, 6.073316e+001
8.050443e+002, 6.065646e+001
8.055264e+002, 6.012364e+001
8.060085e+002, 5.937588e+001
8.064907e+002, 5.929870e+001
8.069728e+002, 6.006036e+001
8.074549e+002, 6.060067e+001
8.079370e+002, 6.048397e+001
8.084191e+002, 6.003009e+001
8.089012e+002, 5.983820e+001
8.093834e+002, 5.987611e+001
8.098655e+002, 6.002828e+001
8.103476e+002, 6.036983e+001
8.108297e+002, 6.068374e+001
8.113118e+002, 6.081106e+001
8.117939e+002, 6.080199e+001
8.122761e+002, 6.080325e+001
8.127582e+002, 6.083395e+001
8.132403e+002, 6.088485e+001
8.137224e+002, 6.097480e+001
8.142045e+002, 6.107487e+001
8.146866e+002, 6.107087e+001
8.151688e+002, 6.096086e+001
8.156509e+002, 6.091777e+001
8.161330e+002, 6.102836e+001
8.166151e+002, 6.120934e+001
8.170972e+002, 6.135357e+001
8.175793e+002, 6.146880e+001
8.180615e+002, 6.157954e+001
8.185436e+002, 6.170701e+001
8.190257e+002, 6.181823e+001
8.195078e+002, 6.192311e+001
8.199899e+002, 6.199769e+001
8.204720e+002, 6.196797e+001
8.209542e+002, 6.174954e+001
8.214363e+002, 6.163762e+001
8.219184e+002, 6.172556e+001
8.224005e+002, 6.192418e+001
8.228826e+002, 6.199908e+001
8.233647e+002, 6.198571e+001
8.238469e+002, 6.209891e+001
8.243290e+002, 6.254128e+001
8.248111e+002, 6.296706e+001
8.252932e+002, 6.303605e+001
8.257753e+002, 6.286496e+001
8.262574e+002, 6.268491e+001
8.267396e+002, 6.257536e+001
8.272217e+002, 6.244146e+001
8.277038e+002, 6.221497e+001
8.281859e+002, 6.198071e+001
8.286681e+002, 6.191048e+001
8.291502e+002, 6.202791e+001
8.296323e+002, 6.213749e+001
8.301144e+002, 6.217547e+001
8.305966e+002, 6.222761e+001
8.310787e+002, 6.250018e+001
8.315608e+002, 6.288772e+001
8.320429e+002, 6.314613e+001
8.325250e+002, 6.317375e+001
8.330071e+002, 6.307678e+001
8.334893e+002, 6.282098e+001
8.339714e+002, 6.250136e+001
8.344535e+002, 6.226532e+001
8.349356e+002, 6.214882e+001
8.354177e+002, 6.205219e+001
8.358998e+002, 6.195161e+001
8.363820e+002, 6.189121e+001
8.368641e+002, 6.196499e+001
8.373462e+002, 6.215559e+001
8.378283e+002, 6.232395e+001
8.383104e+002, 6.245132e+001
8.387925e+002, 6.250668e+001
8.392747e+002, 6.236398e+001
8.397568e+002, 6.216493e+001
8.402389e+002, 6.210758e+001
8.407210e+002, 6.230577e+001
8.412031e+002, 6.253566e+001
8.416852e+002, 6.285594e+001
8.421674e+002, 6.311311e+001
8.426495e+002, 6.314018e+001
8.431316e+002, 6.289882e+001
8.436137e+002, 6.265504e+001
8.440958e+002, 6.243025e+001
8.445779e+002, 6.218945e+001
8.450601e+002, 6.180104e+001
8.455422e+002, 6.138519e+001
8.460243e+002, 6.119350e+001
8.465064e+002, 6.128437e+001
8.469885e+002, 6.151418e+001
8.474706e+002, 6.193378e+001
8.479528e+002, 6.237271e+001
8.484349e+002, 6.270415e+001
8.489170e+002, 6.297979e+001
8.493991e+002, 6.291687e+001
8.498812e+002, 6.235120e+001
8.503633e+002, 6.176827e+001
8.508455e+002, 6.161693e+001
8.513276e+002, 6.183048e+001
8.518097e+002, 6.197966e+001
8.522918e+002, 6.204433e+001
8.527739e+002, 6.202763e+001
8.532560e+002, 6.181779e+001
8.537382e+002, 6.160489e+001
8.542203e+002, 6.161580e+001
8.547024e+002, 6.190298e+001
8.551845e+002, 6.206701e+001
8.556666e+002, 6.193309e+001
8.561487e+002, 6.175911e+001
8.566309e+002, 6.166211e+001
8.571130e+002, 6.164237e+001
8.575951e+002, 6.160008e+001
8.580772e+002, 6.153564e+001
8.585593e+002, 6.143875e+001
8.590414e+002, 6.126712e+001
8.595236e+002, 6.107388e+001
8.600057e+002, 6.096021e+001
8.604878e+002, 6.091441e+001
8.609699e+002, 6.084430e+001
8.614520e+002, 6.064079e+001
8.619341e+002, 6.046644e+001
8.624163e+002, 6.039724e+001
8.628984e+002, 6.042413e+001
8.633805e+002, 6.053089e+001
8.638626e+002, 6.077882e+001
8.643447e+002, 6.089208e+001
8.648268e+002, 6.069711e+001
8.653090e+002, 6.034728e+001
8.657911e+002, 6.024440e+001
8.662732e+002, 6.033735e+001
8.667553e+002, 6.041986e+001
8.672374e+002, 6.035242e+001
8.677195e+002, 6.027493e+001
8.682017e+002, 6.030771e+001
8.686838e+002, 6.039720e+001
8.691659e+002, 6.038355e+001
8.696480e+002, 6.021867e+001
8.701301e+002, 6.001330e+001
8.706122e+002, 5.975030e+001
8.710944e+002, 5.949738e+001
8.715765e+002, 5.944786e+001
8.720586e+002, 5.956946e+001
8.725407e+002, 5.962571e+001
8.730228e+002, 5.958057e+001
8.735049e+002, 5.937524e+001
8.739871e+002, 5.868341e+001
8.744692e+002, 5.787606e+001
8.749513e+002, 5.751099e+001
8.754334e+002, 5.823718e+001
8.759155e+002, 5.873707e+001
8.763976e+002, 5.885246e+001
8.768798e+002, 5.874972e+001
8.773619e+002, 5.859042e+001
8.778440e+002, 5.837050e+001
8.783261e+002, 5.816831e+001
8.788082e+002, 5.798981e+001
8.792903e+002, 5.783678e+001
8.797725e+002, 5.770850e+001
8.802546e+002, 5.760410e+001
8.807367e+002, 5.752338e+001
8.812188e+002, 5.746647e+001
8.817009e+002, 5.742770e+001
8.821830e+002, 5.746350e+001
8.826652e+002, 5.746626e+001
8.831473e+002, 5.733811e+001
8.836294e+002, 5.703392e+001
8.841115e+002, 5.692815e+001
8.845936e+002, 5.706797e+001
8.850757e+002, 5.717490e+001
8.855579e+002, 5.696413e+001
8.860400e+002, 5.659112e+001
8.865221e+002, 5.637270e+001
8.870042e+002, 5.631570e+001
8.874863e+002, 5.628274e+001
8.879684e+002, 5.620684e+001
8.884506e+002, 5.613005e+001
8.889327e+002, 5.607266e+001
8.894148e+002, 5.603535e+001
8.898969e+002, 5.602805e+001
8.903790e+002, 5.607950e+001
8.908611e+002, 5.606635e+001
8.913433e+002, 5.588981e+001
8.918254e+002, 5.564352e+001
8.923075e+002, 5.559658e+001
8.927896e+002, 5.570758e+001
8.932717e+002, 5.579882e+001
8.937538e+002, 5.584556e+001
8.942360e+002, 5.577937e+001
8.947181e+002, 5.545181e+001
8.952002e+002, 5.498500e+001
8.956823e+002, 5.470382e+001
8.961644e+002, 5.465676e+001
8.966465e+002, 5.474697e+001
8.971287e+002, 5.503180e+001
8.976108e+002, 5.534404e+001
8.980929e+002, 5.531603e+001
8.985750e+002, 5.502324e+001
8.990571e+002, 5.482891e+001
8.995392e+002, 5.485670e+001
9.000214e+002, 5.491288e+001
9.005035e+002, 5.486050e+001
9.009856e+002, 5.474047e+001
9.014677e+002, 5.459464e+001
9.019498e+002, 5.437648e+001
9.024319e+002, 5.424065e+001
9.029141e+002, 5.420601e+001
9.033962e+002, 5.422581e+001
9.038783e+002, 5.427602e+001
9.043604e+002, 5.435015e+001
9.048425e+002, 5.436153e+001
9.053246e+002, 5.429999e+001
9.058068e+002, 5.428792e+001
9.062889e+002, 5.448363e+001
9.067710e+002, 5.473546e+001
9.072531e+002, 5.490727e+001
9.077352e+002, 5.498011e+001
9.082173e+002, 5.502813e+001
9.086995e+002, 5.501067e+001
9.091816e+002, 5.504461e+001
9.096637e+002, 5.520525e+001
9.101458e+002, 5.546472e+001
9.106279e+002, 5.561717e+001
9.111100e+002, 5.566804e+001
9.115922e+002, 5.572523e+001
9.120743e+002, 5.588449e+001
9.125564e+002, 5.605413e+001
9.130385e+002, 5.606253e+001
9.135206e+002, 5.599728e+001
9.140027e+002, 5.612467e+001
9.144849e+002, 5.683085e+001
9.149670e+002, 5.731472e+001
9.154491e+002, 5.723877e+001
9.159312e+002, 5.699533e+001
9.164133e+002, 5.762791e+001
9.168954e+002, 5.910947e+001
9.173776e+002, 5.984285e+001
9.178597e+002, 5.920251e+001
9.183418e+002, 5.844838e+001
9.188239e+002, 5.929732e+001
9.193060e+002, 6.079332e+001
9.197881e+002, 6.154057e+001
9.202703e+002, 6.067732e+001
9.207524e+002, 6.013543e+001
9.212345e+002, 6.031518e+001
9.217166e+002, 6.078030e+001
9.221987e+002, 6.122099e+001
9.226808e+002, 6.163806e+001
9.231630e+002, 6.198943e+001
9.236451e+002, 6.226971e+001
9.241272e+002, 6.255043e+001
9.246093e+002, 6.281139e+001
9.250914e+002, 6.315638e+001
9.255735e+002, 6.379873e+001
9.260557e+002, 6.473519e+001
9.265378e+002, 6.547928e+001
9.270199e+002, 6.564838e+001
9.275020e+002, 6.587273e+001
9.279841e+002, 6.641982e+001
9.284662e+002, 6.721448e+001
9.289484e+002, 6.783115e+001
9.294305e+002, 6.827360e+001
9.299126e+002, 6.857596e+001
9.303947e+002, 6.863050e+001
9.308768e+002, 6.868126e+001
9.313589e+002, 6.901752e+001
9.318411e+002, 6.957036e+001
9.323232e+002, 7.018138e+001
9.328053e+002, 7.094771e+001
9.332874e+002, 7.156190e+001
9.337695e+002, 7.186040e+001
9.342516e+002, 7.208960e+001
9.347338e+002, 7.265134e+001
9.352159e+002, 7.354858e+001
9.356980e+002, 7.438007e+001
9.361801e+002, 7.508986e+001
9.366622e+002, 7.568813e+001
9.371443e+002, 7.599282e+001
9.376265e+002, 7.628920e+001
9.381086e+002, 7.701373e+001
9.385907e+002, 7.844833e+001
9.390728e+002, 7.943703e+001
9.395549e+002, 7.949413e+001
9.400370e+002, 7.942641e+001
9.405192e+002, 7.963345e+001
9.410013e+002, 8.011311e+001
9.414834e+002, 8.092968e+001
9.419655e+002, 8.208121e+001
9.424476e+002, 8.314269e+001
9.429297e+002, 8.375283e+001
9.434119e+002, 8.420107e+001
9.438940e+002, 8.476530e+001
9.443761e+002, 8.541969e+001
9.448582e+002, 8.600805e+001
9.453403e+002, 8.637972e+001
9.458224e+002, 8.684732e+001
9.463046e+002, 8.750716e+001
9.467867e+002, 8.827188e+001
9.472688e+002, 8.883798e+001
9.477509e+002, 8.926086e+001
9.482330e+002, 9.002702e+001
9.487151e+002, 9.138954e+001
9.491973e+002, 9.281770e+001
9.496794e+002, 9.380204e+001
9.501615e+002, 9.458644e+001
9.506436e+002, 9.546178e+001
9.511257e+002, 9.644720e+001
9.516078e+002, 9.759881e+001
9.520900e+002, 9.892410e+001
9.525721e+002, 1.004011e+002
9.530542e+002, 1.020595e+002
9.535363e+002, 1.038679e+002
9.540184e+002, 1.056178e+002
9.545005e+002, 1.072916e+002
9.549827e+002, 1.090233e+002
9.554648e+002, 1.107539e+002
9.559469e+002, 1.126982e+002
9.564290e+002, 1.150695e+002
9.569111e+002, 1.178655e+002
9.573932e+002, 1.206989e+002
9.578754e+002, 1.235857e+002
9.583575e+002, 1.264606e+002
9.588396e+002, 1.292546e+002
9.593217e+002, 1.320420e+002
9.598038e+002, 1.348763e+002
9.602859e+002, 1.377939e+002
9.607681e+002, 1.409116e+002
9.612502e+002, 1.444540e+002
9.617323e+002, 1.479195e+002
9.622144e+002, 1.509691e+002
9.626965e+002, 1.538028e+002
9.631786e+002, 1.567031e+002
9.636608e+002, 1.597950e+002
9.641429e+002, 1.625370e+002
9.646250e+002, 1.648187e+002
9.651071e+002, 1.669816e+002
9.655892e+002, 1.695326e+002
9.660714e+002, 1.721527e+002
9.665535e+002, 1.743442e+002
9.670356e+002, 1.760406e+002
9.675177e+002, 1.771155e+002
9.679998e+002, 1.773015e+002
9.684819e+002, 1.770226e+002
9.689641e+002, 1.764577e+002
9.694462e+002, 1.756319e+002
9.699283e+002, 1.746026e+002
9.704104e+002, 1.733734e+002
9.708925e+002, 1.719189e+002
9.713746e+002, 1.702840e+002
9.718568e+002, 1.683188e+002
9.723389e+002, 1.654865e+002
9.728210e+002, 1.621567e+002
9.733031e+002, 1.590940e+002
9.737852e+002, 1.566790e+002
9.742673e+002, 1.544225e+002
9.747495e+002, 1.522619e+002
9.752316e+002, 1.501591e+002
9.757137e+002, 1.481257e+002
9.761958e+002, 1.461571e+002
9.766779e+002, 1.438792e+002
9.771600e+002, 1.412219e+002
9.776422e+002, 1.386510e+002
9.781243e+002, 1.364833e+002
9.786064e+002, 1.346117e+002
9.790885e+002, 1.329786e+002
9.795706e+002, 1.315842e+002
9.800527e+002, 1.301466e+002
9.805349e+002, 1.285806e+002
9.810170e+002, 1.270307e+002
9.814991e+002, 1.255020e+002
9.819812e+002, 1.240331e+002
9.824633e+002, 1.228392e+002
9.829454e+002, 1.218647e+002
9.834276e+002, 1.207830e+002
9.839097e+002, 1.194587e+002
9.843918e+002, 1.179552e+002
9.848739e+002, 1.161495e+002
9.853560e+002, 1.142350e+002
9.858381e+002, 1.125246e+002
9.863203e+002, 1.111292e+002
9.868024e+002, 1.097121e+002
9.872845e+002, 1.082275e+002
9.877666e+002, 1.068077e+002
9.882487e+002, 1.055861e+002
9.887308e+002, 1.045420e+002
9.892130e+002, 1.036290e+002
9.896951e+002, 1.028454e+002
9.901772e+002, 1.020320e+002
9.906593e+002, 1.009312e+002
9.911414e+002, 9.994286e+001
9.916235e+002, 9.928020e+001
9.921057e+002, 9.891744e+001
9.925878e+002, 9.874108e+001
9.930699e+002, 9.875928e+001
9.935520e+002, 9.890101e+001
9.940341e+002, 9.916380e+001
9.945162e+002, 9.949693e+001
9.949984e+002, 9.984672e+001
9.954805e+002, 1.002097e+002
9.959626e+002, 1.005807e+002
9.964447e+002, 1.009552e+002
9.969268e+002, 1.013495e+002
9.974089e+002, 1.017287e+002
9.978911e+002, 1.021659e+002
9.983732e+002, 1.027371e+002
9.988553e+002, 1.034363e+002
9.993374e+002, 1.041859e+002
9.998195e+002, 1.049806e+002
1.000302e+003, 1.058356e+002
1.000784e+003, 1.068760e+002
1.001266e+003, 1.078981e+002
1.001748e+003, 1.086061e+002
1.002230e+003, 1.090660e+002
1.002712e+003, 1.100025e+002
1.003194e+003, 1.117022e+002
1.003676e+003, 1.133030e+002
1.004159e+003, 1.145959e+002
1.004641e+003, 1.156533e+002
1.005123e+003, 1.165850e+002
1.005605e+003, 1.174264e+002
1.006087e+003, 1.183227e+002
1.006569e+003, 1.194194e+002
1.007051e+003, 1.203291e+002
1.007533e+003, 1.208489e+002
1.008016e+003, 1.211150e+002
1.008498e+003, 1.212589e+002
1.008980e+003, 1.212607e+002
1.009462e+003, 1.213063e+002
1.009944e+003, 1.214248e+002
1.010426e+003, 1.213813e+002
1.010908e+003, 1.209320e+002
1.011390e+003, 1.202656e+002
1.011872e+003, 1.196136e+002
1.012355e+003, 1.189665e+002
1.012837e+003, 1.182484e+002
1.013319e+003, 1.173687e+002
1.013801e+003, 1.164807e+002
1.014283e+003, 1.156099e+002
1.014765e+003, 1.147506e+002
1.015247e+003, 1.138361e+002
1.015729e+003, 1.128847e+002
1.016211e+003, 1.120911e+002
1.016694e+003, 1.114905e+002
1.017176e+003, 1.110714e+002
1.017658e+003, 1.109982e+002
1.018140e+003, 1.109884e+002
1.018622e+003, 1.107311e+002
1.019104e+003, 1.101296e+002
1.019586e+003, 1.098568e+002
1.020068e+003, 1.100464e+002
1.020551e+003, 1.101238e+002
1.021033e+003, 1.096727e+002
1.021515e+003, 1.089680e+002
1.021997e+003, 1.086204e+002
1.022479e+003, 1.085433e+002
1.022961e+003, 1.084876e+002
1.023443e+003, 1.085119e+002
1.023925e+003, 1.083337e+002
1.024407e+003, 1.077180e+002
1.024890e+003, 1.069646e+002
1.025372e+003, 1.064259e+002
1.025854e+003, 1.061091e+002
1.026336e+003, 1.058591e+002
1.026818e+003, 1.056534e+002
1.027300e+003, 1.055956e+002
1.027782e+003, 1.057529e+002
1.028264e+003, 1.061168e+002
1.028746e+003, 1.066173e+002
1.029229e+003, 1.072604e+002
1.029711e+003, 1.084298e+002
1.030193e+003, 1.103347e+002
1.030675e+003, 1.122999e+002
1.031157e+003, 1.140575e+002
1.031639e+003, 1.157897e+002
1.032121e+003, 1.179681e+002
1.032603e+003, 1.205294e+002
1.033086e+003, 1.231587e+002
1.033568e+003, 1.256696e+002
1.034050e+003, 1.285198e+002
1.034532e+003, 1.321463e+002
1.035014e+003, 1.360158e+002
1.035496e+003, 1.395991e+002
1.035978e+003, 1.427665e+002
1.036460e+003, 1.465160e+002
1.036943e+003, 1.508335e+002
1.037425e+003, 1.550484e+002
1.037907e+003, 1.585956e+002
1.038389e+003, 1.617802e+002
1.038871e+003, 1.650343e+002
1.039353e+003, 1.682196e+002
1.039835e+003, 1.706335e+002
1.040317e+003, 1.722684e+002
1.040799e+003, 1.729094e+002
1.041281e+003, 1.724835e+002
1.041764e+003, 1.711000e+002
1.042246e+003, 1.689297e+002
1.042728e+003, 1.659443e+002
1.043210e+003, 1.620429e+002
1.043692e+003, 1.570979e+002
1.044174e+003, 1.517336e+002
1.044656e+003, 1.460517e+002
1.045138e+003, 1.402164e+002
1.045621e+003, 1.343361e+002
1.046103e+003, 1.284506e+002
1.046585e+003, 1.225704e+002
1.047067e+003, 1.166823e+002
1.047549e+003, 1.113772e+002
1.048031e+003, 1.072363e+002
1.048513e+003, 1.034722e+002
1.048995e+003, 9.908627e+001
1.049478e+003, 9.452061e+001
1.049960e+003, 9.052718e+001
1.050442e+003, 8.757706e+001
1.050924e+003, 8.482910e+001
1.051406e+003, 8.221652e+001
1.051888e+003, 7.984545e+001
1.052370e+003, 7.788586e+001
1.052852e+003, 7.620935e+001
1.053334e+003, 7.430404e+001
1.053817e+003, 7.219217e+001
1.054299e+003, 7.028793e+001
1.054781e+003, 6.883437e+001
1.055263e+003, 6.763158e+001
1.055745e+003, 6.663436e+001
1.056227e+003, 6.578903e+001
1.056709e+003, 6.503358e+001
1.057191e+003, 6.437778e+001
1.057673e+003, 6.358548e+001
1.058156e+003, 6.256520e+001
1.058638e+003, 6.156825e+001
1.059120e+003, 6.086402e+001
1.059602e+003, 6.030386e+001
1.060084e+003, 5.971900e+001
1.060566e+003, 5.906600e+001
1.061048e+003, 5.851850e+001
1.061530e+003, 5.808316e+001
1.062013e+003, 5.774881e+001
1.062495e+003, 5.758611e+001
1.062977e+003, 5.746325e+001
1.063459e+003, 5.698866e+001
1.063941e+003, 5.627245e+001
1.064423e+003, 5.561560e+001
1.064905e+003, 5.508466e+001
1.065387e+003, 5.470628e+001
1.065870e+003, 5.458359e+001
1.066352e+003, 5.455153e+001
1.066834e+003, 5.448429e+001
1.067316e+003, 5.438272e+001
1.067798e+003, 5.421959e+001
1.068280e+003, 5.399311e+001
1.068762e+003, 5.372852e+001
1.069244e+003, 5.345312e+001
1.069726e+003, 5.313384e+001
1.070208e+003, 5.264519e+001
1.070691e+003, 5.207865e+001
1.071173e+003, 5.186639e+001
1.071655e+003, 5.218070e+001
1.072137e+003, 5.227918e+001
1.072619e+003, 5.195791e+001
1.073101e+003, 5.157774e+001
1.073583e+003, 5.173893e+001
1.074065e+003, 5.212473e+001
1.074548e+003, 5.220708e+001
1.075030e+003, 5.187034e+001
1.075512e+003, 5.148496e+001
1.075994e+003, 5.098004e+001
1.076476e+003, 5.067172e+001
1.076958e+003, 5.074309e+001
1.077440e+003, 5.109229e+001
1.077922e+003, 5.139131e+001
1.078405e+003, 5.163374e+001
1.078887e+003, 5.178618e+001
1.079369e+003, 5.182802e+001
1.079851e+003, 5.179422e+001
1.080333e+003, 5.163483e+001
1.080815e+003, 5.145337e+001
1.081297e+003, 5.136155e+001
1.081779e+003, 5.136791e+001
1.082261e+003, 5.143569e+001
1.082744e+003, 5.157333e+001
1.083226e+003, 5.167019e+001
1.083708e+003, 5.159166e+001
1.084190e+003, 5.147401e+001
1.084672e+003, 5.144276e+001
1.085154e+003, 5.149346e+001
1.085636e+003, 5.161372e+001
1.086118e+003, 5.192179e+001
1.086601e+003, 5.200546e+001
1.087083e+003, 5.171660e+001
1.087565e+003, 5.142944e+001
1.088047e+003, 5.177147e+001
1.088529e+003, 5.242525e+001
1.089011e+003, 5.269583e+001
1.089493e+003, 5.250673e+001
1.089975e+003, 5.229830e+001
1.090458e+003, 5.217503e+001
1.090940e+003, 5.215504e+001
1.091422e+003, 5.223212e+001
1.091904e+003, 5.241766e+001
1.092386e+003, 5.282059e+001
1.092868e+003, 5.339206e+001
1.093350e+003, 5.380815e+001
1.093832e+003, 5.395392e+001
1.094314e+003, 5.399410e+001
1.094797e+003, 5.400776e+001
1.095279e+003, 5.399114e+001
1.095761e+003, 5.389870e+001
1.096243e+003, 5.371248e+001
1.096725e+003, 5.380246e+001
1.097207e+003, 5.419010e+001
1.097689e+003, 5.461821e+001
1.098171e+003, 5.500669e+001
1.098653e+003, 5.529981e+001
1.099136e+003, 5.534383e+001
1.099618e+003, 5.526848e+001
1.100100e+003, 5.533327e+001
1.100582e+003, 5.566652e+001
1.101064e+003, 5.601207e+001
1.101546e+003, 5.639497e+001
1.102028e+003, 5.670730e+001
1.102510e+003, 5.676873e+001
1.102993e+003, 5.671856e+001
1.103475e+003, 5.685796e+001
1.103957e+003, 5.718091e+001
1.104439e+003, 5.756678e+001
1.104921e+003, 5.823040e+001
1.105403e+003, 5.857386e+001
1.105885e+003, 5.830231e+001
1.106367e+003, 5.780741e+001
1.106849e+003, 5.780442e+001
1.107332e+003, 5.820824e+001
1.107814e+003, 5.857334e+001
1.108296e+003, 5.883403e+001
1.108778e+003, 5.907729e+001
1.109260e+003, 5.938595e+001
1.109742e+003, 5.967258e+001
1.110224e+003, 5.984233e+001
1.110706e+003, 5.993647e+001
1.111188e+003, 6.021674e+001
1.111671e+003, 6.068950e+001
1.112153e+003, 6.112900e+001
1.112635e+003, 6.147702e+001
1.113117e+003, 6.173927e+001
1.113599e+003, 6.174510e+001
1.114081e+003, 6.176834e+001
1.114563e+003, 6.219048e+001
1.115045e+003, 6.317376e+001
1.115528e+003, 6.386347e+001
1.116010e+003, 6.419601e+001
1.116492e+003, 6.452817e+001
1.116974e+003, 6.506112e+001
1.117456e+003, 6.571768e+001
1.117938e+003, 6.641917e+001
1.118420e+003, 6.714162e+001
1.118902e+003, 6.783305e+001
1.119385e+003, 6.857320e+001
1.119867e+003, 6.909377e+001
1.120349e+003, 6.924443e+001
1.120831e+003, 6.945023e+001
1.121313e+003, 7.015905e+001
1.121795e+003, 7.121361e+001
1.122277e+003, 7.224672e+001
1.122759e+003, 7.322416e+001
1.123241e+003, 7.404028e+001
1.123724e+003, 7.443902e+001
1.124206e+003, 7.492667e+001
1.124688e+003, 7.564350e+001
1.125170e+003, 7.652184e+001
1.125652e+003, 7.749682e+001
1.126134e+003, 7.854812e+001
1.126616e+003, 7.953161e+001
1.127098e+003, 8.043151e+001
1.127580e+003, 8.118798e+001
1.128063e+003, 8.168774e+001
1.128545e+003, 8.210316e+001
1.129027e+003, 8.254156e+001
1.129509e+003, 8.298085e+001
1.129991e+003, 8.335771e+001
1.130473e+003, 8.367760e+001
1.130955e+003, 8.366915e+001
1.131437e+003, 8.318306e+001
1.131920e+003, 8.266879e+001
1.132402e+003, 8.280585e+001
1.132884e+003, 8.294962e+001
1.133366e+003, 8.234196e+001
1.133848e+003, 8.088077e+001
1.134330e+003, 7.978682e+001
1.134812e+003, 7.917191e+001
1.135294e+003, 7.827949e+001
1.135776e+003, 7.665221e+001
1.136259e+003, 7.480848e+001
1.136741e+003, 7.325596e+001
1.137223e+003, 7.201607e+001
1.137705e+003, 7.113699e+001
1.138187e+003, 7.098312e+001
1.138669e+003, 7.034727e+001
1.139151e+003, 6.904008e+001
1.139633e+003, 6.771065e+001
1.140115e+003, 6.685835e+001
1.140598e+003, 6.625570e+001
1.141080e+003, 6.539602e+001
1.141562e+003, 6.437440e+001
1.142044e+003, 6.343118e+001
1.142526e+003, 6.276676e+001
1.143008e+003, 6.201330e+001
1.143490e+003, 6.099478e+001
1.143972e+003, 6.010558e+001
1.144455e+003, 5.994090e+001
1.144937e+003, 6.021217e+001
1.145419e+003, 5.978255e+001
1.145901e+003, 5.873840e+001
1.146383e+003, 5.800904e+001
1.146865e+003, 5.843990e+001
1.147347e+003, 5.879955e+001
1.147829e+003, 5.877489e+001
1.148312e+003, 5.842904e+001
1.148794e+003, 5.765673e+001
1.149276e+003, 5.657970e+001
1.149758e+003, 5.617527e+001
1.150240e+003, 5.656569e+001
1.150722e+003, 5.693092e+001
1.151204e+003, 5.665718e+001
1.151686e+003, 5.629743e+001
1.152168e+003, 5.614826e+001
1.152651e+003, 5.615285e+001
1.153133e+003, 5.618576e+001
1.153615e+003, 5.624079e+001
1.154097e+003, 5.614445e+001
1.154579e+003, 5.583580e+001
1.155061e+003, 5.549154e+001
1.155543e+003, 5.520419e+001
1.156025e+003, 5.498168e+001
1.156507e+003, 5.485794e+001
1.156990e+003, 5.481741e+001
1.157472e+003, 5.474189e+001
1.157954e+003, 5.462816e+001
1.158436e+003, 5.454566e+001
1.158918e+003, 5.456788e+001
1.159400e+003, 5.450856e+001
1.159882e+003, 5.407797e+001
1.160364e+003, 5.351828e+001
1.160847e+003, 5.312864e+001
1.161329e+003, 5.296972e+001
1.161811e+003, 5.271911e+001
1.162293e+003, 5.236016e+001
1.162775e+003, 5.202559e+001
1.163257e+003, 5.178741e+001
1.163739e+003, 5.160469e+001
1.164221e+003, 5.147627e+001
1.164703e+003, 5.134638e+001
1.165186e+003, 5.109888e+001
1.165668e+003, 5.050415e+001
1.166150e+003, 5.036751e+001
1.166632e+003, 5.084310e+001
1.167114e+003, 5.121059e+001
1.167596e+003, 5.075757e+001
1.168078e+003, 4.997967e+001
1.168560e+003, 4.967262e+001
1.169042e+003, 4.971508e+001
1.169525e+003, 4.978485e+001
1.170007e+003, 4.991716e+001
1.170489e+003, 4.984003e+001
1.170971e+003, 4.945458e+001
1.171453e+003, 4.907443e+001
1.171935e+003, 4.906848e+001
1.172417e+003, 4.924854e+001
1.172899e+003, 4.925250e+001
1.173382e+003, 4.909206e+001
1.173864e+003, 4.890367e+001
1.174346e+003, 4.861989e+001
1.174828e+003, 4.849865e+001
1.175310e+003, 4.865771e+001
1.175792e+003, 4.883488e+001
1.176274e+003, 4.864281e+001
1.176756e+003, 4.822239e+001
1.177239e+003, 4.788053e+001
1.177721e+003, 4.764620e+001
1.178203e+003, 4.746265e+001
1.178685e+003, 4.741297e+001
1.179167e+003, 4.727361e+001
1.179649e+003, 4.697982e+001
1.180131e+003, 4.658281e+001
1.180613e+003, 4.611771e+001
1.181095e+003, 4.562978e+001
1.181578e+003, 4.525969e+001
1.182060e+003, 4.502834e+001
1.182542e+003, 4.484657e+001
1.183024e+003, 4.482562e+001
1.183506e+003, 4.465393e+001
1.183988e+003, 4.417864e+001
1.184470e+003, 4.352344e+001
1.184952e+003, 4.296167e+001
1.185434e+003, 4.249277e+001
1.185917e+003, 4.214233e+001
1.186399e+003, 4.196172e+001
1.186881e+003, 4.166352e+001
1.187363e+003, 4.097699e+001
1.187845e+003, 4.027175e+001
1.188327e+003, 3.967554e+001
1.188809e+003, 3.921760e+001
1.189291e+003, 3.914590e+001
1.189774e+003, 3.934200e+001
1.190256e+003, 3.921518e+001
1.190738e+003, 3.844740e+001
1.191220e+003, 3.770588e+001
1.191702e+003, 3.729817e+001
1.192184e+003, 3.704645e+001
1.192666e+003, 3.686205e+001
1.193148e+003, 3.673308e+001
1.193630e+003, 3.658456e+001
1.194113e+003, 3.641798e+001
1.194595e+003, 3.624556e+001
1.195077e+003, 3.610799e+001
1.195559e+003, 3.590215e+001
1.196041e+003, 3.540230e+001
1.196523e+003, 3.497363e+001
1.197005e+003, 3.497701e+001
1.197487e+003, 3.537064e+001
1.197969e+003, 3.531702e+001
1.198452e+003, 3.489637e+001
1.198934e+003, 3.472083e+001
1.199416e+003, 3.543412e+001
1.199898e+003, 3.605268e+001
1.200380e+003, 3.603156e+001
1.200862e+003, 3.573520e+001
1.201344e+003, 3.547068e+001
1.201826e+003, 3.523643e+001
1.202309e+003, 3.517285e+001
1.202791e+003, 3.527272e+001
1.203273e+003, 3.544920e+001
1.203755e+003, 3.574779e+001
1.204237e+003, 3.600179e+001
1.204719e+003, 3.613723e+001
1.205201e+003, 3.616741e+001
1.205683e+003, 3.604616e+001
1.206166e+003, 3.578074e+001
1.206648e+003, 3.579509e+001
1.207130e+003, 3.608467e+001
1.207612e+003, 3.629566e+001
1.208094e+003, 3.598349e+001
1.208576e+003, 3.576611e+001
1.209058e+003, 3.616001e+001
1.209540e+003, 3.675359e+001
1.210022e+003, 3.694945e+001
1.210505e+003, 3.676427e+001
1.210987e+003, 3.665216e+001
1.211469e+003, 3.664457e+001
1.211951e+003, 3.665743e+001
1.212433e+003, 3.663979e+001
1.212915e+003, 3.662159e+001
1.213397e+003, 3.665249e+001
1.213879e+003, 3.667681e+001
1.214361e+003, 3.656484e+001
1.214844e+003, 3.633120e+001
1.215326e+003, 3.619717e+001
1.215808e+003, 3.618852e+001
1.216290e+003, 3.624604e+001
1.216772e+003, 3.646092e+001
1.217254e+003, 3.658649e+001
1.217736e+003, 3.640492e+001
1.218218e+003, 3.608675e+001
1.218701e+003, 3.600882e+001
1.219183e+003, 3.614487e+001
1.219665e+003, 3.616724e+001
1.220147e+003, 3.602018e+001
1.220629e+003, 3.589352e+001
1.221111e+003, 3.594588e+001
1.221593e+003, 3.601698e+001
1.222075e+003, 3.605268e+001
1.222557e+003, 3.602877e+001
1.223040e+003, 3.584037e+001
1.223522e+003, 3.551418e+001
1.224004e+003, 3.526419e+001
1.224486e+003, 3.513034e+001
1.224968e+003, 3.504869e+001
1.225450e+003, 3.502164e+001
1.225932e+003, 3.499660e+001
1.226414e+003, 3.498276e+001
1.226896e+003, 3.493419e+001
1.227379e+003, 3.462647e+001
1.227861e+003, 3.413381e+001
1.228343e+003, 3.386463e+001
1.228825e+003, 3.393621e+001
1.229307e+003, 3.405035e+001
1.229789e+003, 3.410448e+001
1.230271e+003, 3.408226e+001
1.230753e+003, 3.394626e+001
1.231236e+003, 3.375048e+001
1.231718e+003, 3.377427e+001
1.232200e+003, 3.391513e+001
1.232682e+003, 3.368369e+001
1.233164e+003, 3.285077e+001
1.233646e+003, 3.216669e+001
1.234128e+003, 3.201831e+001
1.234610e+003, 3.211858e+001
1.235093e+003, 3.244406e+001
1.235575e+003, 3.284635e+001
1.236057e+003, 3.272878e+001
1.236539e+003, 3.226653e+001
1.237021e+003, 3.208379e+001
1.237503e+003, 3.247031e+001
1.237985e+003, 3.270187e+001
1.238467e+003, 3.243882e+001
1.238949e+003, 3.202700e+001
1.239432e+003, 3.153359e+001
1.239914e+003, 3.104868e+001
1.240396e+003, 3.085772e+001
1.240878e+003, 3.090762e+001
1.241360e+003, 3.109466e+001
1.241842e+003, 3.149949e+001
1.242324e+003, 3.167757e+001
1.242806e+003, 3.142925e+001
1.243288e+003, 3.111157e+001
1.243771e+003, 3.083901e+001
1.244253e+003, 3.066739e+001
1.244735e+003, 3.092145e+001
1.245217e+003, 3.135844e+001
1.245699e+003, 3.136738e+001
1.246181e+003, 3.057065e+001
1.246663e+003, 2.992488e+001
1.247145e+003, 2.951564e+001
1.247628e+003, 2.930393e+001
1.248110e+003, 2.930984e+001
1.248592e+003, 2.945656e+001
1.249074e+003, 2.965497e+001
1.249556e+003, 2.985153e+001
1.250038e+003, 2.992477e+001
1.250520e+003, 2.970195e+001
1.251002e+003, 2.979175e+001
1.251484e+003, 3.038182e+001
1.251967e+003, 3.075702e+001
1.252449e+003, 3.035367e+001
1.252931e+003, 2.965081e+001
1.253413e+003, 2.937401e+001
1.253895e+003, 2.936505e+001
1.254377e+003, 2.934461e+001
1.254859e+003, 2.918706e+001
1.255341e+003, 2.928972e+001
1.255823e+003, 2.974339e+001
1.256306e+003, 3.001792e+001
1.256788e+003, 2.966901e+001
1.257270e+003, 2.913284e+001
1.257752e+003, 2.891946e+001
1.258234e+003, 2.888850e+001
1.258716e+003, 2.880967e+001
1.259198e+003, 2.861616e+001
1.259680e+003, 2.857299e+001
1.260163e+003, 2.869454e+001
1.260645e+003, 2.883489e+001
1.261127e+003, 2.892945e+001
1.261609e+003, 2.898676e+001
1.262091e+003, 2.907860e+001
1.262573e+003, 2.909854e+001
1.263055e+003, 2.885135e+001
1.263537e+003, 2.825898e+001
1.264020e+003, 2.805746e+001
1.264502e+003, 2.824023e+001
1.264984e+003, 2.843447e+001
1.265466e+003, 2.842957e+001
1.265948e+003, 2.835802e+001
1.266430e+003, 2.820729e+001
1.266912e+003, 2.810745e+001
1.267394e+003, 2.825925e+001
1.267876e+003, 2.866812e+001
1.268359e+003, 2.867649e+001
1.268841e+003, 2.833032e+001
1.269323e+003, 2.804388e+001
1.269805e+003, 2.809620e+001
1.270287e+003, 2.818433e+001
1.270769e+003, 2.823208e+001
1.271251e+003, 2.820625e+001
1.271733e+003, 2.801665e+001
1.272215e+003, 2.770591e+001
1.272698e+003, 2.767108e+001
1.273180e+003, 2.786062e+001
1.273662e+003, 2.803745e+001
1.274144e+003, 2.819959e+001
1.274626e+003, 2.815965e+001
1.275108e+003, 2.772037e+001
1.275590e+003, 2.732555e+001
1.276072e+003, 2.741078e+001
1.276555e+003, 2.780474e+001
1.277037e+003, 2.797316e+001
1.277519e+003, 2.794558e+001
1.278001e+003, 2.780912e+001
1.278483e+003, 2.741229e+001
1.278965e+003, 2.721458e+001
1.279447e+003, 2.728879e+001
1.279929e+003, 2.744188e+001
1.280411e+003, 2.750338e+001
1.280894e+003, 2.755758e+001
1.281376e+003, 2.788635e+001
1.281858e+003, 2.831224e+001
1.282340e+003, 2.842463e+001
1.282822e+003, 2.784967e+001
1.283304e+003, 2.758956e+001
1.283786e+003, 2.770359e+001
1.284268e+003, 2.784109e+001
1.284750e+003, 2.771564e+001
1.285233e+003, 2.752615e+001
1.285715e+003, 2.752018e+001
1.286197e+003, 2.760928e+001
1.286679e+003, 2.761824e+001
1.287161e+003, 2.746219e+001
1.287643e+003, 2.762126e+001
1.288125e+003, 2.811323e+001
1.288607e+003, 2.845111e+001
1.289090e+003, 2.823735e+001
1.289572e+003, 2.786356e+001
1.290054e+003, 2.744220e+001
1.290536e+003, 2.712807e+001
1.291018e+003, 2.712519e+001
1.291500e+003, 2.744878e+001
1.291982e+003, 2.764028e+001
1.292464e+003, 2.770483e+001
1.292947e+003, 2.770083e+001
1.293429e+003, 2.757489e+001
1.293911e+003, 2.750175e+001
1.294393e+003, 2.761389e+001
1.294875e+003, 2.776145e+001
1.295357e+003, 2.785550e+001
1.295839e+003, 2.789030e+001
1.296321e+003, 2.780099e+001
1.296803e+003, 2.762521e+001
1.297286e+003, 2.749598e+001
1.297768e+003, 2.743830e+001
1.298250e+003, 2.750195e+001
1.298732e+003, 2.777414e+001
1.299214e+003, 2.799434e+001
1.299696e+003, 2.793067e+001
1.300178e+003, 2.771680e+001
1.300660e+003, 2.761383e+001
##END=



