##NAMES=Axinite-(Mn)
##RRUFFID=R160079
##IDEAL CHEMISTRY=Ca_4_Mn^2+^_2_Al_4_[B_2_Si_8_O_30_](OH)_2_
##LOCALITY=Huachuca Mountains, Cochise County, Arizona, USA
##OWNER=RRUFF
##SOURCE=Carl Richardson
##DESCRIPTION=Orange-yellow aggregates of flattened crystals on quartz. This sample was donated to UAMM as tinzenite (#13189). X-ray diffraction data show that it is axinite-(Mn).
##STATUS=The identification of this mineral has been confirmed only by single crystal X-ray diffraction.
##URL=rruff.info/R160079
8.806445e+001, 3.503265e+002
8.854657e+001, 3.471479e+002
8.902869e+001, 3.460605e+002
8.951080e+001, 3.481036e+002
8.999292e+001, 3.517666e+002
9.047504e+001, 3.556697e+002
9.095715e+001, 3.595375e+002
9.143927e+001, 3.633254e+002
9.192139e+001, 3.669053e+002
9.240350e+001, 3.702451e+002
9.288562e+001, 3.737790e+002
9.336774e+001, 3.756025e+002
9.384985e+001, 3.731672e+002
9.433197e+001, 3.654774e+002
9.481409e+001, 3.570471e+002
9.529620e+001, 3.477134e+002
9.577832e+001, 3.392314e+002
9.626044e+001, 3.318281e+002
9.674255e+001, 3.254229e+002
9.722467e+001, 3.198607e+002
9.770679e+001, 3.150187e+002
9.818890e+001, 3.110194e+002
9.867102e+001, 3.080182e+002
9.915314e+001, 3.054940e+002
9.963525e+001, 3.029179e+002
1.001174e+002, 3.000170e+002
1.005995e+002, 2.970431e+002
1.010816e+002, 2.949639e+002
1.015637e+002, 2.945952e+002
1.020458e+002, 2.942577e+002
1.025280e+002, 2.937452e+002
1.030101e+002, 2.930524e+002
1.034922e+002, 2.922158e+002
1.039743e+002, 2.912480e+002
1.044564e+002, 2.901315e+002
1.049385e+002, 2.891019e+002
1.054207e+002, 2.881875e+002
1.059028e+002, 2.872693e+002
1.063849e+002, 2.863639e+002
1.068670e+002, 2.854398e+002
1.073491e+002, 2.843060e+002
1.078312e+002, 2.827670e+002
1.083134e+002, 2.808124e+002
1.087955e+002, 2.786195e+002
1.092776e+002, 2.764016e+002
1.097597e+002, 2.738975e+002
1.102418e+002, 2.706524e+002
1.107239e+002, 2.664467e+002
1.112061e+002, 2.618168e+002
1.116882e+002, 2.570092e+002
1.121703e+002, 2.520838e+002
1.126524e+002, 2.476305e+002
1.131345e+002, 2.441453e+002
1.136166e+002, 2.415650e+002
1.140988e+002, 2.389467e+002
1.145809e+002, 2.360177e+002
1.150630e+002, 2.331595e+002
1.155451e+002, 2.305709e+002
1.160272e+002, 2.282623e+002
1.165093e+002, 2.261952e+002
1.169915e+002, 2.243076e+002
1.174736e+002, 2.225659e+002
1.179557e+002, 2.211289e+002
1.184378e+002, 2.199916e+002
1.189199e+002, 2.191036e+002
1.194020e+002, 2.184545e+002
1.198842e+002, 2.180342e+002
1.203663e+002, 2.178114e+002
1.208484e+002, 2.177166e+002
1.213305e+002, 2.179168e+002
1.218126e+002, 2.180632e+002
1.222947e+002, 2.183467e+002
1.227769e+002, 2.185236e+002
1.232590e+002, 2.181945e+002
1.237411e+002, 2.170939e+002
1.242232e+002, 2.154563e+002
1.247053e+002, 2.143656e+002
1.251874e+002, 2.139202e+002
1.256696e+002, 2.137524e+002
1.261517e+002, 2.138064e+002
1.266338e+002, 2.140542e+002
1.271159e+002, 2.143964e+002
1.275980e+002, 2.148380e+002
1.280801e+002, 2.153095e+002
1.285623e+002, 2.156147e+002
1.290444e+002, 2.157174e+002
1.295265e+002, 2.156731e+002
1.300086e+002, 2.155524e+002
1.304907e+002, 2.153723e+002
1.309728e+002, 2.150285e+002
1.314550e+002, 2.141842e+002
1.319371e+002, 2.131701e+002
1.324192e+002, 2.124644e+002
1.329013e+002, 2.123154e+002
1.333834e+002, 2.126003e+002
1.338655e+002, 2.129446e+002
1.343477e+002, 2.132348e+002
1.348298e+002, 2.137890e+002
1.353119e+002, 2.146381e+002
1.357940e+002, 2.157972e+002
1.362761e+002, 2.172962e+002
1.367582e+002, 2.191959e+002
1.372404e+002, 2.214913e+002
1.377225e+002, 2.239226e+002
1.382046e+002, 2.269366e+002
1.386867e+002, 2.296731e+002
1.391688e+002, 2.319726e+002
1.396509e+002, 2.337573e+002
1.401331e+002, 2.349841e+002
1.406152e+002, 2.356532e+002
1.410973e+002, 2.358514e+002
1.415794e+002, 2.349326e+002
1.420615e+002, 2.323853e+002
1.425436e+002, 2.293549e+002
1.430258e+002, 2.262367e+002
1.435079e+002, 2.232140e+002
1.439900e+002, 2.206127e+002
1.444721e+002, 2.189348e+002
1.449542e+002, 2.186265e+002
1.454363e+002, 2.182080e+002
1.459185e+002, 2.179683e+002
1.464006e+002, 2.174683e+002
1.468827e+002, 2.161067e+002
1.473648e+002, 2.136460e+002
1.478469e+002, 2.105785e+002
1.483290e+002, 2.075642e+002
1.488112e+002, 2.045434e+002
1.492933e+002, 2.017887e+002
1.497754e+002, 1.994767e+002
1.502575e+002, 1.975236e+002
1.507396e+002, 1.956456e+002
1.512217e+002, 1.937546e+002
1.517039e+002, 1.919470e+002
1.521860e+002, 1.903023e+002
1.526681e+002, 1.888090e+002
1.531502e+002, 1.875159e+002
1.536323e+002, 1.865471e+002
1.541144e+002, 1.859212e+002
1.545966e+002, 1.851945e+002
1.550787e+002, 1.839110e+002
1.555608e+002, 1.826992e+002
1.560429e+002, 1.820714e+002
1.565250e+002, 1.821404e+002
1.570071e+002, 1.825061e+002
1.574893e+002, 1.826406e+002
1.579714e+002, 1.825078e+002
1.584535e+002, 1.822184e+002
1.589356e+002, 1.818335e+002
1.594177e+002, 1.813050e+002
1.598998e+002, 1.804872e+002
1.603820e+002, 1.793337e+002
1.608641e+002, 1.780854e+002
1.613462e+002, 1.773518e+002
1.618283e+002, 1.776922e+002
1.623104e+002, 1.777864e+002
1.627925e+002, 1.772871e+002
1.632747e+002, 1.765758e+002
1.637568e+002, 1.760468e+002
1.642389e+002, 1.758987e+002
1.647210e+002, 1.760753e+002
1.652031e+002, 1.763574e+002
1.656852e+002, 1.767720e+002
1.661674e+002, 1.772644e+002
1.666495e+002, 1.778293e+002
1.671316e+002, 1.784690e+002
1.676137e+002, 1.791849e+002
1.680958e+002, 1.799859e+002
1.685779e+002, 1.808654e+002
1.690601e+002, 1.817890e+002
1.695422e+002, 1.830173e+002
1.700243e+002, 1.840250e+002
1.705064e+002, 1.845577e+002
1.709885e+002, 1.846729e+002
1.714706e+002, 1.846187e+002
1.719528e+002, 1.845530e+002
1.724349e+002, 1.844140e+002
1.729170e+002, 1.840515e+002
1.733991e+002, 1.835440e+002
1.738812e+002, 1.827563e+002
1.743633e+002, 1.814460e+002
1.748455e+002, 1.795972e+002
1.753276e+002, 1.777635e+002
1.758097e+002, 1.762763e+002
1.762918e+002, 1.750384e+002
1.767739e+002, 1.738807e+002
1.772560e+002, 1.727323e+002
1.777382e+002, 1.716821e+002
1.782203e+002, 1.709026e+002
1.787024e+002, 1.704669e+002
1.791845e+002, 1.700714e+002
1.796666e+002, 1.695511e+002
1.801487e+002, 1.689772e+002
1.806309e+002, 1.684306e+002
1.811130e+002, 1.679170e+002
1.815951e+002, 1.674674e+002
1.820772e+002, 1.671685e+002
1.825593e+002, 1.670854e+002
1.830414e+002, 1.670627e+002
1.835236e+002, 1.669862e+002
1.840057e+002, 1.669315e+002
1.844878e+002, 1.670334e+002
1.849699e+002, 1.674217e+002
1.854520e+002, 1.680191e+002
1.859341e+002, 1.683172e+002
1.864163e+002, 1.678389e+002
1.868984e+002, 1.675872e+002
1.873805e+002, 1.678172e+002
1.878626e+002, 1.684289e+002
1.883447e+002, 1.692315e+002
1.888268e+002, 1.701017e+002
1.893090e+002, 1.710376e+002
1.897911e+002, 1.721039e+002
1.902732e+002, 1.736079e+002
1.907553e+002, 1.749353e+002
1.912374e+002, 1.759211e+002
1.917195e+002, 1.765967e+002
1.922017e+002, 1.771039e+002
1.926838e+002, 1.775790e+002
1.931659e+002, 1.780476e+002
1.936480e+002, 1.778569e+002
1.941301e+002, 1.764945e+002
1.946122e+002, 1.751273e+002
1.950944e+002, 1.743133e+002
1.955765e+002, 1.739690e+002
1.960586e+002, 1.736232e+002
1.965407e+002, 1.728445e+002
1.970228e+002, 1.716183e+002
1.975049e+002, 1.709211e+002
1.979871e+002, 1.709209e+002
1.984692e+002, 1.712383e+002
1.989513e+002, 1.717010e+002
1.994334e+002, 1.722843e+002
1.999155e+002, 1.729722e+002
2.003976e+002, 1.737902e+002
2.008798e+002, 1.747252e+002
2.013619e+002, 1.755721e+002
2.018440e+002, 1.761012e+002
2.023261e+002, 1.766773e+002
2.028082e+002, 1.777161e+002
2.032903e+002, 1.792528e+002
2.037725e+002, 1.808027e+002
2.042546e+002, 1.819791e+002
2.047367e+002, 1.828573e+002
2.052188e+002, 1.836347e+002
2.057009e+002, 1.842073e+002
2.061830e+002, 1.847618e+002
2.066652e+002, 1.856156e+002
2.071473e+002, 1.868672e+002
2.076294e+002, 1.880443e+002
2.081115e+002, 1.888177e+002
2.085936e+002, 1.893063e+002
2.090757e+002, 1.896569e+002
2.095579e+002, 1.900159e+002
2.100400e+002, 1.902290e+002
2.105221e+002, 1.899388e+002
2.110042e+002, 1.889897e+002
2.114863e+002, 1.878662e+002
2.119685e+002, 1.868197e+002
2.124506e+002, 1.857717e+002
2.129327e+002, 1.845971e+002
2.134148e+002, 1.831837e+002
2.138969e+002, 1.816198e+002
2.143790e+002, 1.802215e+002
2.148612e+002, 1.791751e+002
2.153433e+002, 1.779674e+002
2.158254e+002, 1.763565e+002
2.163075e+002, 1.745241e+002
2.167896e+002, 1.726998e+002
2.172717e+002, 1.710141e+002
2.177539e+002, 1.694421e+002
2.182360e+002, 1.679025e+002
2.187181e+002, 1.663529e+002
2.192002e+002, 1.649083e+002
2.196823e+002, 1.635716e+002
2.201644e+002, 1.623546e+002
2.206466e+002, 1.612902e+002
2.211287e+002, 1.604095e+002
2.216108e+002, 1.596869e+002
2.220929e+002, 1.589900e+002
2.225750e+002, 1.583315e+002
2.230571e+002, 1.576869e+002
2.235393e+002, 1.569661e+002
2.240214e+002, 1.562764e+002
2.245035e+002, 1.558082e+002
2.249856e+002, 1.556975e+002
2.254677e+002, 1.558586e+002
2.259498e+002, 1.557502e+002
2.264320e+002, 1.548856e+002
2.269141e+002, 1.542793e+002
2.273962e+002, 1.542615e+002
2.278783e+002, 1.545856e+002
2.283604e+002, 1.548430e+002
2.288425e+002, 1.547877e+002
2.293247e+002, 1.545030e+002
2.298068e+002, 1.544767e+002
2.302889e+002, 1.550143e+002
2.307710e+002, 1.554426e+002
2.312531e+002, 1.555425e+002
2.317352e+002, 1.554467e+002
2.322174e+002, 1.553903e+002
2.326995e+002, 1.554978e+002
2.331816e+002, 1.557396e+002
2.336637e+002, 1.559922e+002
2.341458e+002, 1.562542e+002
2.346279e+002, 1.565252e+002
2.351101e+002, 1.568295e+002
2.355922e+002, 1.571416e+002
2.360743e+002, 1.574022e+002
2.365564e+002, 1.575707e+002
2.370385e+002, 1.576867e+002
2.375206e+002, 1.578758e+002
2.380028e+002, 1.581687e+002
2.384849e+002, 1.584695e+002
2.389670e+002, 1.587222e+002
2.394491e+002, 1.589574e+002
2.399312e+002, 1.592449e+002
2.404133e+002, 1.596083e+002
2.408955e+002, 1.600481e+002
2.413776e+002, 1.605864e+002
2.418597e+002, 1.612818e+002
2.423418e+002, 1.619131e+002
2.428239e+002, 1.623845e+002
2.433060e+002, 1.627179e+002
2.437882e+002, 1.629640e+002
2.442703e+002, 1.631124e+002
2.447524e+002, 1.632149e+002
2.452345e+002, 1.633765e+002
2.457166e+002, 1.636239e+002
2.461987e+002, 1.637975e+002
2.466809e+002, 1.637478e+002
2.471630e+002, 1.635476e+002
2.476451e+002, 1.634166e+002
2.481272e+002, 1.633574e+002
2.486093e+002, 1.634882e+002
2.490914e+002, 1.639798e+002
2.495736e+002, 1.648326e+002
2.500557e+002, 1.656969e+002
2.505378e+002, 1.663228e+002
2.510199e+002, 1.667823e+002
2.515020e+002, 1.674016e+002
2.519841e+002, 1.683597e+002
2.524663e+002, 1.693294e+002
2.529484e+002, 1.700567e+002
2.534305e+002, 1.705515e+002
2.539126e+002, 1.709046e+002
2.543947e+002, 1.711890e+002
2.548768e+002, 1.713841e+002
2.553590e+002, 1.713906e+002
2.558411e+002, 1.712099e+002
2.563232e+002, 1.707897e+002
2.568053e+002, 1.699955e+002
2.572874e+002, 1.689356e+002
2.577695e+002, 1.679988e+002
2.582516e+002, 1.674607e+002
2.587338e+002, 1.672600e+002
2.592159e+002, 1.670904e+002
2.596980e+002, 1.669586e+002
2.601801e+002, 1.668398e+002
2.606622e+002, 1.666868e+002
2.611443e+002, 1.665323e+002
2.616265e+002, 1.664474e+002
2.621086e+002, 1.664689e+002
2.625907e+002, 1.665938e+002
2.630728e+002, 1.668322e+002
2.635549e+002, 1.673144e+002
2.640370e+002, 1.677049e+002
2.645192e+002, 1.677824e+002
2.650013e+002, 1.677029e+002
2.654834e+002, 1.677290e+002
2.659655e+002, 1.680352e+002
2.664476e+002, 1.685291e+002
2.669297e+002, 1.688891e+002
2.674119e+002, 1.690681e+002
2.678940e+002, 1.691733e+002
2.683761e+002, 1.690900e+002
2.688582e+002, 1.690096e+002
2.693403e+002, 1.691938e+002
2.698224e+002, 1.697964e+002
2.703046e+002, 1.706702e+002
2.707867e+002, 1.714105e+002
2.712688e+002, 1.719495e+002
2.717509e+002, 1.724675e+002
2.722330e+002, 1.730680e+002
2.727151e+002, 1.736454e+002
2.731973e+002, 1.740988e+002
2.736794e+002, 1.743874e+002
2.741615e+002, 1.745440e+002
2.746436e+002, 1.746527e+002
2.751257e+002, 1.747867e+002
2.756078e+002, 1.747045e+002
2.760900e+002, 1.744147e+002
2.765721e+002, 1.739223e+002
2.770542e+002, 1.731956e+002
2.775363e+002, 1.722342e+002
2.780184e+002, 1.711275e+002
2.785005e+002, 1.700160e+002
2.789827e+002, 1.688710e+002
2.794648e+002, 1.677899e+002
2.799469e+002, 1.667284e+002
2.804290e+002, 1.657512e+002
2.809111e+002, 1.648986e+002
2.813932e+002, 1.641817e+002
2.818754e+002, 1.635971e+002
2.823575e+002, 1.631256e+002
2.828396e+002, 1.627170e+002
2.833217e+002, 1.625923e+002
2.838038e+002, 1.629197e+002
2.842859e+002, 1.633510e+002
2.847681e+002, 1.637845e+002
2.852502e+002, 1.641645e+002
2.857323e+002, 1.644000e+002
2.862144e+002, 1.643517e+002
2.866965e+002, 1.639210e+002
2.871786e+002, 1.637846e+002
2.876608e+002, 1.643221e+002
2.881429e+002, 1.647720e+002
2.886250e+002, 1.648394e+002
2.891071e+002, 1.645463e+002
2.895892e+002, 1.640492e+002
2.900714e+002, 1.634572e+002
2.905535e+002, 1.627718e+002
2.910356e+002, 1.620736e+002
2.915177e+002, 1.611909e+002
2.919998e+002, 1.604783e+002
2.924819e+002, 1.600624e+002
2.929641e+002, 1.598874e+002
2.934462e+002, 1.598462e+002
2.939283e+002, 1.598766e+002
2.944104e+002, 1.599731e+002
2.948925e+002, 1.600994e+002
2.953746e+002, 1.601665e+002
2.958568e+002, 1.603690e+002
2.963389e+002, 1.607586e+002
2.968210e+002, 1.612959e+002
2.973031e+002, 1.619690e+002
2.977852e+002, 1.627789e+002
2.982673e+002, 1.636352e+002
2.987495e+002, 1.642591e+002
2.992316e+002, 1.643420e+002
2.997137e+002, 1.645724e+002
3.001958e+002, 1.650703e+002
3.006779e+002, 1.656823e+002
3.011600e+002, 1.662845e+002
3.016422e+002, 1.668301e+002
3.021243e+002, 1.672976e+002
3.026064e+002, 1.676347e+002
3.030885e+002, 1.676933e+002
3.035706e+002, 1.678831e+002
3.040527e+002, 1.683783e+002
3.045349e+002, 1.688772e+002
3.050170e+002, 1.691719e+002
3.054991e+002, 1.692184e+002
3.059812e+002, 1.690746e+002
3.064633e+002, 1.687979e+002
3.069454e+002, 1.683490e+002
3.074276e+002, 1.678979e+002
3.079097e+002, 1.674906e+002
3.083918e+002, 1.670486e+002
3.088739e+002, 1.664223e+002
3.093560e+002, 1.656853e+002
3.098381e+002, 1.651098e+002
3.103203e+002, 1.649422e+002
3.108024e+002, 1.652089e+002
3.112845e+002, 1.655090e+002
3.117666e+002, 1.657063e+002
3.122487e+002, 1.660683e+002
3.127308e+002, 1.667349e+002
3.132130e+002, 1.676434e+002
3.136951e+002, 1.686579e+002
3.141772e+002, 1.696967e+002
3.146593e+002, 1.707596e+002
3.151414e+002, 1.718156e+002
3.156235e+002, 1.724994e+002
3.161057e+002, 1.736081e+002
3.165878e+002, 1.754443e+002
3.170699e+002, 1.777352e+002
3.175520e+002, 1.801788e+002
3.180341e+002, 1.826371e+002
3.185162e+002, 1.850519e+002
3.189984e+002, 1.872560e+002
3.194805e+002, 1.895323e+002
3.199626e+002, 1.911482e+002
3.204447e+002, 1.919610e+002
3.209268e+002, 1.922044e+002
3.214089e+002, 1.921400e+002
3.218911e+002, 1.918189e+002
3.223732e+002, 1.910253e+002
3.228553e+002, 1.893849e+002
3.233374e+002, 1.865004e+002
3.238195e+002, 1.837146e+002
3.243016e+002, 1.809794e+002
3.247838e+002, 1.783816e+002
3.252659e+002, 1.759819e+002
3.257480e+002, 1.737792e+002
3.262301e+002, 1.717633e+002
3.267122e+002, 1.698955e+002
3.271943e+002, 1.681606e+002
3.276765e+002, 1.667825e+002
3.281586e+002, 1.661083e+002
3.286407e+002, 1.653978e+002
3.291228e+002, 1.642399e+002
3.296049e+002, 1.628168e+002
3.300870e+002, 1.615640e+002
3.305692e+002, 1.607787e+002
3.310513e+002, 1.604139e+002
3.315334e+002, 1.601212e+002
3.320155e+002, 1.598751e+002
3.324976e+002, 1.597360e+002
3.329797e+002, 1.596362e+002
3.334619e+002, 1.596750e+002
3.339440e+002, 1.600057e+002
3.344261e+002, 1.606991e+002
3.349082e+002, 1.616393e+002
3.353904e+002, 1.625753e+002
3.358725e+002, 1.636316e+002
3.363546e+002, 1.644644e+002
3.368367e+002, 1.648630e+002
3.373188e+002, 1.651817e+002
3.378009e+002, 1.657766e+002
3.382831e+002, 1.666884e+002
3.387652e+002, 1.676189e+002
3.392473e+002, 1.681809e+002
3.397294e+002, 1.683505e+002
3.402115e+002, 1.681977e+002
3.406936e+002, 1.677330e+002
3.411758e+002, 1.669877e+002
3.416579e+002, 1.658776e+002
3.421400e+002, 1.644726e+002
3.426221e+002, 1.629748e+002
3.431042e+002, 1.615604e+002
3.435863e+002, 1.602284e+002
3.440685e+002, 1.587582e+002
3.445506e+002, 1.568449e+002
3.450327e+002, 1.551096e+002
3.455148e+002, 1.538008e+002
3.459969e+002, 1.527443e+002
3.464790e+002, 1.516409e+002
3.469612e+002, 1.503057e+002
3.474433e+002, 1.488796e+002
3.479254e+002, 1.477983e+002
3.484075e+002, 1.472951e+002
3.488896e+002, 1.467914e+002
3.493717e+002, 1.462205e+002
3.498539e+002, 1.456073e+002
3.503360e+002, 1.449908e+002
3.508181e+002, 1.443805e+002
3.513002e+002, 1.437076e+002
3.517823e+002, 1.428221e+002
3.522644e+002, 1.415989e+002
3.527466e+002, 1.405800e+002
3.532287e+002, 1.400633e+002
3.537108e+002, 1.395295e+002
3.541929e+002, 1.386266e+002
3.546750e+002, 1.374099e+002
3.551571e+002, 1.362336e+002
3.556393e+002, 1.354321e+002
3.561214e+002, 1.349998e+002
3.566035e+002, 1.345394e+002
3.570856e+002, 1.340482e+002
3.575677e+002, 1.335325e+002
3.580498e+002, 1.329100e+002
3.585320e+002, 1.322787e+002
3.590141e+002, 1.318206e+002
3.594962e+002, 1.316738e+002
3.599783e+002, 1.317056e+002
3.604604e+002, 1.315544e+002
3.609425e+002, 1.311382e+002
3.614247e+002, 1.307255e+002
3.619068e+002, 1.303292e+002
3.623889e+002, 1.300048e+002
3.628710e+002, 1.298389e+002
3.633531e+002, 1.298590e+002
3.638352e+002, 1.299311e+002
3.643174e+002, 1.298603e+002
3.647995e+002, 1.296192e+002
3.652816e+002, 1.295193e+002
3.657637e+002, 1.297664e+002
3.662458e+002, 1.300374e+002
3.667279e+002, 1.300915e+002
3.672101e+002, 1.299527e+002
3.676922e+002, 1.298349e+002
3.681743e+002, 1.299152e+002
3.686564e+002, 1.301482e+002
3.691385e+002, 1.303260e+002
3.696206e+002, 1.304336e+002
3.701028e+002, 1.305022e+002
3.705849e+002, 1.305426e+002
3.710670e+002, 1.305616e+002
3.715491e+002, 1.305582e+002
3.720312e+002, 1.304727e+002
3.725133e+002, 1.304251e+002
3.729955e+002, 1.306631e+002
3.734776e+002, 1.312297e+002
3.739597e+002, 1.316521e+002
3.744418e+002, 1.316292e+002
3.749239e+002, 1.314100e+002
3.754060e+002, 1.313118e+002
3.758882e+002, 1.313802e+002
3.763703e+002, 1.314814e+002
3.768524e+002, 1.315243e+002
3.773345e+002, 1.315227e+002
3.778166e+002, 1.315250e+002
3.782987e+002, 1.315220e+002
3.787809e+002, 1.315643e+002
3.792630e+002, 1.316976e+002
3.797451e+002, 1.319148e+002
3.802272e+002, 1.322287e+002
3.807093e+002, 1.326480e+002
3.811914e+002, 1.331630e+002
3.816736e+002, 1.337621e+002
3.821557e+002, 1.344404e+002
3.826378e+002, 1.352180e+002
3.831199e+002, 1.361935e+002
3.836020e+002, 1.372785e+002
3.840841e+002, 1.381097e+002
3.845663e+002, 1.385592e+002
3.850484e+002, 1.388774e+002
3.855305e+002, 1.392011e+002
3.860126e+002, 1.395097e+002
3.864947e+002, 1.397280e+002
3.869768e+002, 1.398069e+002
3.874590e+002, 1.398151e+002
3.879411e+002, 1.399600e+002
3.884232e+002, 1.404424e+002
3.889053e+002, 1.404808e+002
3.893874e+002, 1.393029e+002
3.898695e+002, 1.378952e+002
3.903517e+002, 1.376413e+002
3.908338e+002, 1.387430e+002
3.913159e+002, 1.399064e+002
3.917980e+002, 1.397662e+002
3.922801e+002, 1.381172e+002
3.927622e+002, 1.367679e+002
3.932444e+002, 1.357711e+002
3.937265e+002, 1.349928e+002
3.942086e+002, 1.344622e+002
3.946907e+002, 1.341018e+002
3.951728e+002, 1.337196e+002
3.956549e+002, 1.331964e+002
3.961371e+002, 1.325948e+002
3.966192e+002, 1.321834e+002
3.971013e+002, 1.321929e+002
3.975834e+002, 1.321103e+002
3.980655e+002, 1.317852e+002
3.985476e+002, 1.314096e+002
3.990298e+002, 1.311546e+002
3.995119e+002, 1.310741e+002
3.999940e+002, 1.311565e+002
4.004761e+002, 1.314403e+002
4.009582e+002, 1.321104e+002
4.014403e+002, 1.323103e+002
4.019225e+002, 1.316257e+002
4.024046e+002, 1.309267e+002
4.028867e+002, 1.305710e+002
4.033688e+002, 1.305374e+002
4.038509e+002, 1.306640e+002
4.043330e+002, 1.308509e+002
4.048152e+002, 1.310963e+002
4.052973e+002, 1.313850e+002
4.057794e+002, 1.316757e+002
4.062615e+002, 1.320840e+002
4.067436e+002, 1.326617e+002
4.072257e+002, 1.333378e+002
4.077079e+002, 1.340371e+002
4.081900e+002, 1.347400e+002
4.086721e+002, 1.354761e+002
4.091542e+002, 1.362727e+002
4.096363e+002, 1.371272e+002
4.101184e+002, 1.380960e+002
4.106006e+002, 1.392871e+002
4.110827e+002, 1.405085e+002
4.115648e+002, 1.416811e+002
4.120469e+002, 1.428045e+002
4.125290e+002, 1.438937e+002
4.130111e+002, 1.450534e+002
4.134933e+002, 1.461730e+002
4.139754e+002, 1.468861e+002
4.144575e+002, 1.471468e+002
4.149396e+002, 1.471200e+002
4.154217e+002, 1.466487e+002
4.159038e+002, 1.460213e+002
4.163860e+002, 1.455938e+002
4.168681e+002, 1.454981e+002
4.173502e+002, 1.454364e+002
4.178323e+002, 1.450996e+002
4.183144e+002, 1.445193e+002
4.187965e+002, 1.439805e+002
4.192787e+002, 1.435595e+002
4.197608e+002, 1.431911e+002
4.202429e+002, 1.427958e+002
4.207250e+002, 1.423777e+002
4.212071e+002, 1.419921e+002
4.216892e+002, 1.415949e+002
4.221714e+002, 1.412681e+002
4.226535e+002, 1.412279e+002
4.231356e+002, 1.414904e+002
4.236177e+002, 1.415725e+002
4.240998e+002, 1.410032e+002
4.245819e+002, 1.400137e+002
4.250641e+002, 1.396138e+002
4.255462e+002, 1.402316e+002
4.260283e+002, 1.408839e+002
4.265104e+002, 1.410930e+002
4.269925e+002, 1.410491e+002
4.274746e+002, 1.411394e+002
4.279568e+002, 1.415046e+002
4.284389e+002, 1.419631e+002
4.289210e+002, 1.422598e+002
4.294031e+002, 1.423800e+002
4.298852e+002, 1.423246e+002
4.303673e+002, 1.420159e+002
4.308495e+002, 1.415949e+002
4.313316e+002, 1.411450e+002
4.318137e+002, 1.406722e+002
4.322958e+002, 1.401581e+002
4.327779e+002, 1.395954e+002
4.332600e+002, 1.389723e+002
4.337422e+002, 1.382070e+002
4.342243e+002, 1.370892e+002
4.347064e+002, 1.360747e+002
4.351885e+002, 1.352298e+002
4.356706e+002, 1.345116e+002
4.361527e+002, 1.338647e+002
4.366349e+002, 1.332757e+002
4.371170e+002, 1.327921e+002
4.375991e+002, 1.324681e+002
4.380812e+002, 1.322827e+002
4.385633e+002, 1.323376e+002
4.390454e+002, 1.329355e+002
4.395276e+002, 1.334905e+002
4.400097e+002, 1.337313e+002
4.404918e+002, 1.337419e+002
4.409739e+002, 1.337668e+002
4.414560e+002, 1.339828e+002
4.419381e+002, 1.342798e+002
4.424203e+002, 1.343212e+002
4.429024e+002, 1.340243e+002
4.433845e+002, 1.336916e+002
4.438666e+002, 1.334953e+002
4.443487e+002, 1.332540e+002
4.448308e+002, 1.328339e+002
4.453130e+002, 1.322120e+002
4.457951e+002, 1.313866e+002
4.462772e+002, 1.302482e+002
4.467593e+002, 1.288695e+002
4.472414e+002, 1.276414e+002
4.477235e+002, 1.266368e+002
4.482057e+002, 1.257329e+002
4.486878e+002, 1.248096e+002
4.491699e+002, 1.239060e+002
4.496520e+002, 1.231562e+002
4.501341e+002, 1.226279e+002
4.506162e+002, 1.222292e+002
4.510984e+002, 1.219267e+002
4.515805e+002, 1.217006e+002
4.520626e+002, 1.214132e+002
4.525447e+002, 1.209761e+002
4.530268e+002, 1.204942e+002
4.535089e+002, 1.201759e+002
4.539911e+002, 1.200266e+002
4.544732e+002, 1.199360e+002
4.549553e+002, 1.199585e+002
4.554374e+002, 1.199820e+002
4.559195e+002, 1.198767e+002
4.564016e+002, 1.196357e+002
4.568838e+002, 1.193531e+002
4.573659e+002, 1.191002e+002
4.578480e+002, 1.188746e+002
4.583301e+002, 1.186247e+002
4.588122e+002, 1.182465e+002
4.592943e+002, 1.179687e+002
4.597765e+002, 1.179209e+002
4.602586e+002, 1.179778e+002
4.607407e+002, 1.179820e+002
4.612228e+002, 1.178796e+002
4.617049e+002, 1.177048e+002
4.621870e+002, 1.174714e+002
4.626692e+002, 1.170637e+002
4.631513e+002, 1.169854e+002
4.636334e+002, 1.176285e+002
4.641155e+002, 1.181990e+002
4.645976e+002, 1.182732e+002
4.650797e+002, 1.180083e+002
4.655619e+002, 1.178099e+002
4.660440e+002, 1.179285e+002
4.665261e+002, 1.182556e+002
4.670082e+002, 1.184864e+002
4.674903e+002, 1.185791e+002
4.679724e+002, 1.186908e+002
4.684546e+002, 1.189194e+002
4.689367e+002, 1.191400e+002
4.694188e+002, 1.192266e+002
4.699009e+002, 1.191783e+002
4.703830e+002, 1.191580e+002
4.708651e+002, 1.194021e+002
4.713473e+002, 1.197863e+002
4.718294e+002, 1.197822e+002
4.723115e+002, 1.192140e+002
4.727936e+002, 1.187094e+002
4.732757e+002, 1.188102e+002
4.737578e+002, 1.192360e+002
4.742400e+002, 1.194596e+002
4.747221e+002, 1.193036e+002
4.752042e+002, 1.190977e+002
4.756863e+002, 1.189735e+002
4.761684e+002, 1.189727e+002
4.766505e+002, 1.192581e+002
4.771327e+002, 1.199147e+002
4.776148e+002, 1.207137e+002
4.780969e+002, 1.213997e+002
4.785790e+002, 1.219607e+002
4.790611e+002, 1.224367e+002
4.795432e+002, 1.228502e+002
4.800254e+002, 1.231596e+002
4.805075e+002, 1.233175e+002
4.809896e+002, 1.233482e+002
4.814717e+002, 1.233078e+002
4.819538e+002, 1.232203e+002
4.824359e+002, 1.231106e+002
4.829181e+002, 1.230594e+002
4.834002e+002, 1.233738e+002
4.838823e+002, 1.232710e+002
4.843644e+002, 1.224643e+002
4.848465e+002, 1.214697e+002
4.853286e+002, 1.206029e+002
4.858108e+002, 1.199162e+002
4.862929e+002, 1.193485e+002
4.867750e+002, 1.188661e+002
4.872571e+002, 1.184579e+002
4.877392e+002, 1.180069e+002
4.882213e+002, 1.174678e+002
4.887035e+002, 1.169592e+002
4.891856e+002, 1.164607e+002
4.896677e+002, 1.160286e+002
4.901498e+002, 1.157440e+002
4.906319e+002, 1.156251e+002
4.911140e+002, 1.155526e+002
4.915962e+002, 1.153713e+002
4.920783e+002, 1.151084e+002
4.925604e+002, 1.150189e+002
4.930425e+002, 1.152113e+002
4.935246e+002, 1.154169e+002
4.940067e+002, 1.154574e+002
4.944889e+002, 1.153646e+002
4.949710e+002, 1.151762e+002
4.954531e+002, 1.147425e+002
4.959352e+002, 1.143997e+002
4.964173e+002, 1.145086e+002
4.968994e+002, 1.149540e+002
4.973816e+002, 1.153092e+002
4.978637e+002, 1.154221e+002
4.983458e+002, 1.154187e+002
4.988279e+002, 1.154481e+002
4.993100e+002, 1.154892e+002
4.997921e+002, 1.156917e+002
5.002743e+002, 1.162721e+002
5.007564e+002, 1.168382e+002
5.012385e+002, 1.171138e+002
5.017206e+002, 1.171463e+002
5.022027e+002, 1.170917e+002
5.026848e+002, 1.170259e+002
5.031670e+002, 1.169942e+002
5.036491e+002, 1.171409e+002
5.041312e+002, 1.176480e+002
5.046133e+002, 1.180411e+002
5.050954e+002, 1.182282e+002
5.055775e+002, 1.183702e+002
5.060597e+002, 1.186101e+002
5.065418e+002, 1.189233e+002
5.070239e+002, 1.191515e+002
5.075060e+002, 1.191415e+002
5.079881e+002, 1.189569e+002
5.084702e+002, 1.189337e+002
5.089524e+002, 1.192115e+002
5.094345e+002, 1.193325e+002
5.099166e+002, 1.191050e+002
5.103987e+002, 1.186796e+002
5.108808e+002, 1.181429e+002
5.113629e+002, 1.175086e+002
5.118451e+002, 1.168691e+002
5.123271e+002, 1.163377e+002
5.128093e+002, 1.158557e+002
5.132914e+002, 1.152292e+002
5.137735e+002, 1.144081e+002
5.142556e+002, 1.136190e+002
5.147377e+002, 1.130098e+002
5.152198e+002, 1.125644e+002
5.157020e+002, 1.121977e+002
5.161841e+002, 1.120570e+002
5.166662e+002, 1.117797e+002
5.171483e+002, 1.109520e+002
5.176304e+002, 1.099553e+002
5.181125e+002, 1.095154e+002
5.185947e+002, 1.097970e+002
5.190768e+002, 1.102166e+002
5.195589e+002, 1.101251e+002
5.200410e+002, 1.094502e+002
5.205231e+002, 1.089488e+002
5.210052e+002, 1.085690e+002
5.214874e+002, 1.083894e+002
5.219695e+002, 1.085823e+002
5.224516e+002, 1.089402e+002
5.229337e+002, 1.091829e+002
5.234158e+002, 1.092075e+002
5.238979e+002, 1.091002e+002
5.243801e+002, 1.089819e+002
5.248622e+002, 1.088573e+002
5.253443e+002, 1.086992e+002
5.258264e+002, 1.084515e+002
5.263085e+002, 1.082320e+002
5.267906e+002, 1.080277e+002
5.272728e+002, 1.078958e+002
5.277549e+002, 1.079583e+002
5.282370e+002, 1.083128e+002
5.287191e+002, 1.087732e+002
5.292012e+002, 1.091287e+002
5.296833e+002, 1.093805e+002
5.301655e+002, 1.095462e+002
5.306476e+002, 1.096190e+002
5.311297e+002, 1.096242e+002
5.316118e+002, 1.095417e+002
5.320939e+002, 1.093890e+002
5.325760e+002, 1.093246e+002
5.330582e+002, 1.094385e+002
5.335403e+002, 1.096016e+002
5.340224e+002, 1.097264e+002
5.345045e+002, 1.098182e+002
5.349866e+002, 1.098792e+002
5.354688e+002, 1.098986e+002
5.359509e+002, 1.099583e+002
5.364330e+002, 1.102238e+002
5.369151e+002, 1.108275e+002
5.373972e+002, 1.113246e+002
5.378793e+002, 1.117634e+002
5.383615e+002, 1.120643e+002
5.388436e+002, 1.120662e+002
5.393257e+002, 1.118987e+002
5.398078e+002, 1.118622e+002
5.402899e+002, 1.121369e+002
5.407720e+002, 1.125688e+002
5.412542e+002, 1.127771e+002
5.417363e+002, 1.126620e+002
5.422184e+002, 1.126563e+002
5.427005e+002, 1.129424e+002
5.431826e+002, 1.132559e+002
5.436647e+002, 1.134497e+002
5.441469e+002, 1.135347e+002
5.446290e+002, 1.135944e+002
5.451111e+002, 1.136625e+002
5.455932e+002, 1.137350e+002
5.460753e+002, 1.138575e+002
5.465574e+002, 1.140225e+002
5.470396e+002, 1.139928e+002
5.475217e+002, 1.136015e+002
5.480038e+002, 1.130800e+002
5.484859e+002, 1.127890e+002
5.489680e+002, 1.127331e+002
5.494501e+002, 1.127355e+002
5.499323e+002, 1.127734e+002
5.504144e+002, 1.128514e+002
5.508965e+002, 1.129954e+002
5.513786e+002, 1.131863e+002
5.518607e+002, 1.133672e+002
5.523428e+002, 1.135083e+002
5.528250e+002, 1.136179e+002
5.533071e+002, 1.137121e+002
5.537892e+002, 1.137519e+002
5.542713e+002, 1.138512e+002
5.547534e+002, 1.139883e+002
5.552355e+002, 1.141957e+002
5.557177e+002, 1.145961e+002
5.561998e+002, 1.150860e+002
5.566819e+002, 1.154076e+002
5.571640e+002, 1.153887e+002
5.576461e+002, 1.151488e+002
5.581282e+002, 1.149372e+002
5.586104e+002, 1.147608e+002
5.590925e+002, 1.145654e+002
5.595746e+002, 1.143464e+002
5.600567e+002, 1.140920e+002
5.605388e+002, 1.137721e+002
5.610209e+002, 1.134003e+002
5.615031e+002, 1.130654e+002
5.619852e+002, 1.128006e+002
5.624673e+002, 1.125905e+002
5.629494e+002, 1.124453e+002
5.634315e+002, 1.123488e+002
5.639136e+002, 1.122172e+002
5.643958e+002, 1.120038e+002
5.648779e+002, 1.117733e+002
5.653600e+002, 1.116296e+002
5.658421e+002, 1.115777e+002
5.663242e+002, 1.116218e+002
5.668063e+002, 1.118941e+002
5.672885e+002, 1.121357e+002
5.677706e+002, 1.121886e+002
5.682527e+002, 1.120984e+002
5.687348e+002, 1.119662e+002
5.692169e+002, 1.118390e+002
5.696990e+002, 1.117389e+002
5.701812e+002, 1.117159e+002
5.706633e+002, 1.117877e+002
5.711454e+002, 1.118678e+002
5.716275e+002, 1.119778e+002
5.721096e+002, 1.120655e+002
5.725917e+002, 1.121259e+002
5.730739e+002, 1.121437e+002
5.735560e+002, 1.120734e+002
5.740381e+002, 1.118491e+002
5.745202e+002, 1.116182e+002
5.750023e+002, 1.116515e+002
5.754844e+002, 1.118665e+002
5.759666e+002, 1.117282e+002
5.764487e+002, 1.109995e+002
5.769308e+002, 1.102330e+002
5.774129e+002, 1.100533e+002
5.778950e+002, 1.104799e+002
5.783771e+002, 1.107474e+002
5.788593e+002, 1.107619e+002
5.793414e+002, 1.106987e+002
5.798235e+002, 1.105849e+002
5.803056e+002, 1.104607e+002
5.807877e+002, 1.103617e+002
5.812698e+002, 1.103050e+002
5.817520e+002, 1.103437e+002
5.822341e+002, 1.105795e+002
5.827162e+002, 1.110555e+002
5.831984e+002, 1.113250e+002
5.836805e+002, 1.112333e+002
5.841626e+002, 1.111178e+002
5.846447e+002, 1.110506e+002
5.851268e+002, 1.110227e+002
5.856089e+002, 1.110418e+002
5.860911e+002, 1.111112e+002
5.865732e+002, 1.111448e+002
5.870553e+002, 1.111256e+002
5.875374e+002, 1.110120e+002
5.880195e+002, 1.105887e+002
5.885016e+002, 1.097787e+002
5.889838e+002, 1.089660e+002
5.894659e+002, 1.084264e+002
5.899480e+002, 1.080531e+002
5.904301e+002, 1.075002e+002
5.909122e+002, 1.066095e+002
5.913943e+002, 1.058573e+002
5.918765e+002, 1.054482e+002
5.923586e+002, 1.052108e+002
5.928407e+002, 1.050171e+002
5.933228e+002, 1.048215e+002
5.938049e+002, 1.045334e+002
5.942870e+002, 1.040657e+002
5.947692e+002, 1.034807e+002
5.952513e+002, 1.030629e+002
5.957334e+002, 1.028710e+002
5.962155e+002, 1.027535e+002
5.966976e+002, 1.027637e+002
5.971797e+002, 1.027763e+002
5.976619e+002, 1.026824e+002
5.981440e+002, 1.025038e+002
5.986261e+002, 1.023589e+002
5.991082e+002, 1.023306e+002
5.995903e+002, 1.023687e+002
6.000724e+002, 1.023992e+002
6.005546e+002, 1.024215e+002
6.010367e+002, 1.023865e+002
6.015188e+002, 1.022472e+002
6.020009e+002, 1.020894e+002
6.024830e+002, 1.020535e+002
6.029651e+002, 1.021361e+002
6.034473e+002, 1.021195e+002
6.039294e+002, 1.018341e+002
6.044115e+002, 1.015753e+002
6.048936e+002, 1.015297e+002
6.053757e+002, 1.016464e+002
6.058578e+002, 1.018541e+002
6.063400e+002, 1.021208e+002
6.068221e+002, 1.023345e+002
6.073042e+002, 1.023181e+002
6.077863e+002, 1.020277e+002
6.082684e+002, 1.018001e+002
6.087505e+002, 1.016844e+002
6.092327e+002, 1.015799e+002
6.097148e+002, 1.014662e+002
6.101969e+002, 1.013449e+002
6.106790e+002, 1.011977e+002
6.111611e+002, 1.010176e+002
6.116432e+002, 1.008984e+002
6.121254e+002, 1.009821e+002
6.126075e+002, 1.011917e+002
6.130896e+002, 1.012640e+002
6.135717e+002, 1.011615e+002
6.140538e+002, 1.010640e+002
6.145359e+002, 1.010829e+002
6.150181e+002, 1.011815e+002
6.155002e+002, 1.012491e+002
6.159823e+002, 1.012609e+002
6.164644e+002, 1.012989e+002
6.169465e+002, 1.014326e+002
6.174286e+002, 1.015586e+002
6.179108e+002, 1.015854e+002
6.183929e+002, 1.015191e+002
6.188750e+002, 1.014223e+002
6.193571e+002, 1.013371e+002
6.198392e+002, 1.012312e+002
6.203214e+002, 1.010039e+002
6.208035e+002, 1.006035e+002
6.212856e+002, 1.002408e+002
6.217677e+002, 9.992403e+001
6.222498e+002, 9.966737e+001
6.227319e+002, 9.952418e+001
6.232141e+002, 9.944676e+001
6.236962e+002, 9.931705e+001
6.241783e+002, 9.908525e+001
6.246604e+002, 9.879707e+001
6.251425e+002, 9.842350e+001
6.256246e+002, 9.802290e+001
6.261068e+002, 9.783471e+001
6.265889e+002, 9.793100e+001
6.270710e+002, 9.805433e+001
6.275531e+002, 9.794563e+001
6.280352e+002, 9.762035e+001
6.285173e+002, 9.743958e+001
6.289995e+002, 9.752485e+001
6.294816e+002, 9.757815e+001
6.299637e+002, 9.744613e+001
6.304458e+002, 9.731139e+001
6.309279e+002, 9.739420e+001
6.314100e+002, 9.768886e+001
6.318922e+002, 9.798329e+001
6.323743e+002, 9.809577e+001
6.328564e+002, 9.807779e+001
6.333385e+002, 9.811483e+001
6.338206e+002, 9.820795e+001
6.343027e+002, 9.835134e+001
6.347849e+002, 9.857052e+001
6.352670e+002, 9.881535e+001
6.357491e+002, 9.902355e+001
6.362312e+002, 9.920345e+001
6.367133e+002, 9.943037e+001
6.371954e+002, 9.982042e+001
6.376776e+002, 1.001854e+002
6.381597e+002, 1.003623e+002
6.386418e+002, 1.003964e+002
6.391239e+002, 1.003902e+002
6.396060e+002, 1.003780e+002
6.400881e+002, 1.003719e+002
6.405703e+002, 1.003873e+002
6.410524e+002, 1.004258e+002
6.415345e+002, 1.004744e+002
6.420166e+002, 1.006257e+002
6.424987e+002, 1.006743e+002
6.429808e+002, 1.005549e+002
6.434630e+002, 1.003287e+002
6.439451e+002, 1.000450e+002
6.444272e+002, 9.971935e+001
6.449093e+002, 9.936411e+001
6.453914e+002, 9.898756e+001
6.458735e+002, 9.858829e+001
6.463557e+002, 9.814481e+001
6.468378e+002, 9.764998e+001
6.473199e+002, 9.722725e+001
6.478020e+002, 9.696281e+001
6.482841e+002, 9.674123e+001
6.487662e+002, 9.634177e+001
6.492484e+002, 9.570565e+001
6.497305e+002, 9.522363e+001
6.502126e+002, 9.501170e+001
6.506947e+002, 9.487654e+001
6.511768e+002, 9.474000e+001
6.516589e+002, 9.459682e+001
6.521411e+002, 9.445260e+001
6.526232e+002, 9.430965e+001
6.531053e+002, 9.417105e+001
6.535874e+002, 9.401407e+001
6.540695e+002, 9.383699e+001
6.545516e+002, 9.384550e+001
6.550338e+002, 9.418703e+001
6.555159e+002, 9.441865e+001
6.559980e+002, 9.430384e+001
6.564801e+002, 9.399510e+001
6.569622e+002, 9.357478e+001
6.574443e+002, 9.302251e+001
6.579265e+002, 9.266504e+001
6.584086e+002, 9.270713e+001
6.588907e+002, 9.297720e+001
6.593728e+002, 9.341059e+001
6.598549e+002, 9.392443e+001
6.603370e+002, 9.423817e+001
6.608192e+002, 9.421728e+001
6.613013e+002, 9.398149e+001
6.617834e+002, 9.367361e+001
6.622655e+002, 9.310082e+001
6.627476e+002, 9.318062e+001
6.632297e+002, 9.487282e+001
6.637119e+002, 9.616509e+001
6.641940e+002, 9.620259e+001
6.646761e+002, 9.558345e+001
6.651582e+002, 9.503701e+001
6.656403e+002, 9.475599e+001
6.661224e+002, 9.472869e+001
6.666046e+002, 9.507911e+001
6.670867e+002, 9.564528e+001
6.675688e+002, 9.603069e+001
6.680509e+002, 9.621037e+001
6.685330e+002, 9.639225e+001
6.690151e+002, 9.669609e+001
6.694973e+002, 9.703565e+001
6.699794e+002, 9.721780e+001
6.704615e+002, 9.711034e+001
6.709436e+002, 9.721432e+001
6.714257e+002, 9.766090e+001
6.719078e+002, 9.819309e+001
6.723900e+002, 9.869164e+001
6.728721e+002, 9.917955e+001
6.733542e+002, 9.975203e+001
6.738363e+002, 1.004358e+002
6.743184e+002, 1.010690e+002
6.748005e+002, 1.013927e+002
6.752827e+002, 1.014512e+002
6.757648e+002, 1.017246e+002
6.762469e+002, 1.022992e+002
6.767290e+002, 1.028130e+002
6.772111e+002, 1.030923e+002
6.776932e+002, 1.032055e+002
6.781754e+002, 1.033192e+002
6.786575e+002, 1.034817e+002
6.791396e+002, 1.033953e+002
6.796217e+002, 1.028573e+002
6.801038e+002, 1.021641e+002
6.805859e+002, 1.014884e+002
6.810681e+002, 1.008454e+002
6.815502e+002, 1.002465e+002
6.820323e+002, 9.969547e+001
6.825144e+002, 9.914056e+001
6.829965e+002, 9.848846e+001
6.834786e+002, 9.772556e+001
6.839608e+002, 9.712405e+001
6.844429e+002, 9.677364e+001
6.849250e+002, 9.642676e+001
6.854071e+002, 9.593198e+001
6.858892e+002, 9.541829e+001
6.863713e+002, 9.505734e+001
6.868535e+002, 9.487525e+001
6.873356e+002, 9.462536e+001
6.878177e+002, 9.408012e+001
6.882998e+002, 9.350735e+001
6.887819e+002, 9.315942e+001
6.892640e+002, 9.302354e+001
6.897462e+002, 9.304238e+001
6.902283e+002, 9.319540e+001
6.907104e+002, 9.339799e+001
6.911925e+002, 9.351633e+001
6.916746e+002, 9.352748e+001
6.921567e+002, 9.367762e+001
6.926389e+002, 9.420181e+001
6.931210e+002, 9.454236e+001
6.936031e+002, 9.434139e+001
6.940852e+002, 9.403289e+001
6.945673e+002, 9.409782e+001
6.950494e+002, 9.457748e+001
6.955316e+002, 9.507008e+001
6.960137e+002, 9.525649e+001
6.964958e+002, 9.537582e+001
6.969779e+002, 9.571863e+001
6.974600e+002, 9.627530e+001
6.979421e+002, 9.702060e+001
6.984243e+002, 9.796141e+001
6.989064e+002, 9.894003e+001
6.993885e+002, 9.975633e+001
6.998706e+002, 1.003969e+002
7.003527e+002, 1.010528e+002
7.008348e+002, 1.017054e+002
7.013170e+002, 1.024007e+002
7.017991e+002, 1.030725e+002
7.022812e+002, 1.038377e+002
7.027633e+002, 1.048516e+002
7.032454e+002, 1.060963e+002
7.037275e+002, 1.073398e+002
7.042097e+002, 1.083184e+002
7.046918e+002, 1.093211e+002
7.051739e+002, 1.108959e+002
7.056560e+002, 1.129596e+002
7.061381e+002, 1.148707e+002
7.066202e+002, 1.164277e+002
7.071024e+002, 1.179316e+002
7.075845e+002, 1.196580e+002
7.080666e+002, 1.216189e+002
7.085487e+002, 1.237615e+002
7.090308e+002, 1.260848e+002
7.095129e+002, 1.285842e+002
7.099951e+002, 1.313458e+002
7.104772e+002, 1.342269e+002
7.109593e+002, 1.371030e+002
7.114414e+002, 1.399759e+002
7.119235e+002, 1.429323e+002
7.124056e+002, 1.461685e+002
7.128878e+002, 1.492975e+002
7.133699e+002, 1.517365e+002
7.138520e+002, 1.535248e+002
7.143341e+002, 1.548810e+002
7.148162e+002, 1.558610e+002
7.152983e+002, 1.563760e+002
7.157805e+002, 1.563862e+002
7.162626e+002, 1.558694e+002
7.167447e+002, 1.546722e+002
7.172268e+002, 1.528986e+002
7.177089e+002, 1.503604e+002
7.181910e+002, 1.465499e+002
7.186732e+002, 1.423865e+002
7.191553e+002, 1.383798e+002
7.196374e+002, 1.345931e+002
7.201195e+002, 1.309469e+002
7.206016e+002, 1.274173e+002
7.210837e+002, 1.240141e+002
7.215659e+002, 1.207238e+002
7.220480e+002, 1.175703e+002
7.225301e+002, 1.147468e+002
7.230122e+002, 1.122745e+002
7.234943e+002, 1.100284e+002
7.239764e+002, 1.079330e+002
7.244586e+002, 1.059953e+002
7.249407e+002, 1.042108e+002
7.254228e+002, 1.025422e+002
7.259049e+002, 1.011084e+002
7.263870e+002, 1.000683e+002
7.268691e+002, 9.911764e+001
7.273513e+002, 9.809246e+001
7.278334e+002, 9.704441e+001
7.283155e+002, 9.606790e+001
7.287976e+002, 9.519882e+001
7.292797e+002, 9.446165e+001
7.297618e+002, 9.394447e+001
7.302440e+002, 9.358658e+001
7.307261e+002, 9.315526e+001
7.312082e+002, 9.264091e+001
7.316903e+002, 9.213197e+001
7.321724e+002, 9.165382e+001
7.326545e+002, 9.122221e+001
7.331367e+002, 9.086318e+001
7.336188e+002, 9.058857e+001
7.341009e+002, 9.033576e+001
7.345830e+002, 9.007751e+001
7.350651e+002, 8.987169e+001
7.355472e+002, 8.982153e+001
7.360294e+002, 8.978612e+001
7.365115e+002, 8.955022e+001
7.369936e+002, 8.912375e+001
7.374757e+002, 8.877503e+001
7.379578e+002, 8.876360e+001
7.384399e+002, 8.890268e+001
7.389221e+002, 8.878726e+001
7.394042e+002, 8.843537e+001
7.398863e+002, 8.812761e+001
7.403684e+002, 8.793713e+001
7.408505e+002, 8.778891e+001
7.413326e+002, 8.761118e+001
7.418148e+002, 8.741060e+001
7.422969e+002, 8.726622e+001
7.427790e+002, 8.725820e+001
7.432611e+002, 8.719088e+001
7.437432e+002, 8.690108e+001
7.442253e+002, 8.666320e+001
7.447075e+002, 8.675596e+001
7.451896e+002, 8.707687e+001
7.456717e+002, 8.730746e+001
7.461538e+002, 8.728791e+001
7.466359e+002, 8.716854e+001
7.471180e+002, 8.713844e+001
7.476002e+002, 8.716092e+001
7.480823e+002, 8.707800e+001
7.485644e+002, 8.686652e+001
7.490465e+002, 8.668516e+001
7.495286e+002, 8.662933e+001
7.500107e+002, 8.665977e+001
7.504929e+002, 8.668080e+001
7.509750e+002, 8.666033e+001
7.514571e+002, 8.671340e+001
7.519392e+002, 8.700046e+001
7.524213e+002, 8.717647e+001
7.529034e+002, 8.693725e+001
7.533856e+002, 8.658076e+001
7.538677e+002, 8.656303e+001
7.543498e+002, 8.697256e+001
7.548319e+002, 8.739223e+001
7.553140e+002, 8.750511e+001
7.557961e+002, 8.743596e+001
7.562783e+002, 8.732178e+001
7.567604e+002, 8.719514e+001
7.572425e+002, 8.724007e+001
7.577246e+002, 8.752935e+001
7.582067e+002, 8.789117e+001
7.586888e+002, 8.813712e+001
7.591710e+002, 8.826759e+001
7.596531e+002, 8.827396e+001
7.601352e+002, 8.794501e+001
7.606173e+002, 8.781750e+001
7.610994e+002, 8.812605e+001
7.615815e+002, 8.851699e+001
7.620637e+002, 8.871381e+001
7.625458e+002, 8.875706e+001
7.630279e+002, 8.886913e+001
7.635100e+002, 8.918181e+001
7.639921e+002, 8.950330e+001
7.644742e+002, 8.967874e+001
7.649564e+002, 8.975263e+001
7.654385e+002, 8.978158e+001
7.659206e+002, 8.978477e+001
7.664027e+002, 8.982132e+001
7.668848e+002, 8.993511e+001
7.673669e+002, 9.007742e+001
7.678491e+002, 9.014175e+001
7.683312e+002, 9.013931e+001
7.688133e+002, 9.001103e+001
7.692954e+002, 8.967648e+001
7.697775e+002, 8.932796e+001
7.702596e+002, 8.903824e+001
7.707418e+002, 8.878767e+001
7.712239e+002, 8.856026e+001
7.717060e+002, 8.835592e+001
7.721881e+002, 8.814409e+001
7.726702e+002, 8.799242e+001
7.731523e+002, 8.775656e+001
7.736345e+002, 8.720424e+001
7.741166e+002, 8.650607e+001
7.745987e+002, 8.600904e+001
7.750808e+002, 8.580642e+001
7.755629e+002, 8.575401e+001
7.760450e+002, 8.574291e+001
7.765272e+002, 8.574239e+001
7.770093e+002, 8.556705e+001
7.774914e+002, 8.516251e+001
7.779735e+002, 8.489266e+001
7.784556e+002, 8.492040e+001
7.789377e+002, 8.498076e+001
7.794199e+002, 8.481693e+001
7.799020e+002, 8.447782e+001
7.803841e+002, 8.420442e+001
7.808662e+002, 8.394621e+001
7.813483e+002, 8.384230e+001
7.818304e+002, 8.411418e+001
7.823126e+002, 8.439651e+001
7.827947e+002, 8.435180e+001
7.832768e+002, 8.405805e+001
7.837589e+002, 8.377023e+001
7.842410e+002, 8.360020e+001
7.847231e+002, 8.350057e+001
7.852053e+002, 8.346106e+001
7.856874e+002, 8.344633e+001
7.861695e+002, 8.327800e+001
7.866516e+002, 8.293879e+001
7.871337e+002, 8.266004e+001
7.876158e+002, 8.254646e+001
7.880980e+002, 8.254089e+001
7.885801e+002, 8.256869e+001
7.890622e+002, 8.263915e+001
7.895443e+002, 8.268418e+001
7.900264e+002, 8.269862e+001
7.905085e+002, 8.269598e+001
7.909907e+002, 8.261888e+001
7.914728e+002, 8.256942e+001
7.919549e+002, 8.270719e+001
7.924370e+002, 8.298205e+001
7.929191e+002, 8.311503e+001
7.934012e+002, 8.284855e+001
7.938834e+002, 8.257199e+001
7.943655e+002, 8.280028e+001
7.948476e+002, 8.326765e+001
7.953297e+002, 8.334739e+001
7.958118e+002, 8.298898e+001
7.962939e+002, 8.264503e+001
7.967761e+002, 8.261326e+001
7.972582e+002, 8.276690e+001
7.977403e+002, 8.280203e+001
7.982224e+002, 8.268760e+001
7.987045e+002, 8.258046e+001
7.991866e+002, 8.244090e+001
7.996688e+002, 8.237646e+001
8.001509e+002, 8.251752e+001
8.006330e+002, 8.272079e+001
8.011151e+002, 8.277583e+001
8.015972e+002, 8.265132e+001
8.020793e+002, 8.266702e+001
8.025615e+002, 8.312746e+001
8.030436e+002, 8.352908e+001
8.035257e+002, 8.345801e+001
8.040078e+002, 8.317231e+001
8.044899e+002, 8.305105e+001
8.049720e+002, 8.316519e+001
8.054542e+002, 8.338573e+001
8.059363e+002, 8.364944e+001
8.064184e+002, 8.388504e+001
8.069005e+002, 8.390659e+001
8.073826e+002, 8.372258e+001
8.078647e+002, 8.351147e+001
8.083469e+002, 8.327180e+001
8.088290e+002, 8.316018e+001
8.093111e+002, 8.335115e+001
8.097932e+002, 8.370679e+001
8.102753e+002, 8.378968e+001
8.107574e+002, 8.333265e+001
8.112396e+002, 8.315085e+001
8.117217e+002, 8.353320e+001
8.122038e+002, 8.386109e+001
8.126859e+002, 8.388668e+001
8.131680e+002, 8.369313e+001
8.136501e+002, 8.331718e+001
8.141323e+002, 8.279301e+001
8.146144e+002, 8.245686e+001
8.150965e+002, 8.270930e+001
8.155786e+002, 8.310585e+001
8.160607e+002, 8.312715e+001
8.165428e+002, 8.287170e+001
8.170250e+002, 8.257063e+001
8.175071e+002, 8.229103e+001
8.179892e+002, 8.209326e+001
8.184713e+002, 8.203642e+001
8.189534e+002, 8.208250e+001
8.194355e+002, 8.208731e+001
8.199177e+002, 8.202832e+001
8.203998e+002, 8.203777e+001
8.208819e+002, 8.218111e+001
8.213640e+002, 8.230766e+001
8.218461e+002, 8.230330e+001
8.223282e+002, 8.222816e+001
8.228104e+002, 8.221351e+001
8.232925e+002, 8.229704e+001
8.237746e+002, 8.230717e+001
8.242567e+002, 8.208614e+001
8.247388e+002, 8.191594e+001
8.252209e+002, 8.204191e+001
8.257031e+002, 8.228377e+001
8.261852e+002, 8.236903e+001
8.266673e+002, 8.225161e+001
8.271494e+002, 8.208515e+001
8.276315e+002, 8.196321e+001
8.281136e+002, 8.188919e+001
8.285958e+002, 8.188032e+001
8.290779e+002, 8.192614e+001
8.295600e+002, 8.199882e+001
8.300421e+002, 8.209513e+001
8.305242e+002, 8.209241e+001
8.310063e+002, 8.185355e+001
8.314885e+002, 8.152785e+001
8.319706e+002, 8.163290e+001
8.324527e+002, 8.251366e+001
8.329348e+002, 8.289776e+001
8.334169e+002, 8.235213e+001
8.338990e+002, 8.184292e+001
8.343812e+002, 8.181591e+001
8.348633e+002, 8.199758e+001
8.353454e+002, 8.202359e+001
8.358275e+002, 8.185448e+001
8.363096e+002, 8.179877e+001
8.367917e+002, 8.211308e+001
8.372739e+002, 8.240388e+001
8.377560e+002, 8.235573e+001
8.382381e+002, 8.216647e+001
8.387202e+002, 8.216332e+001
8.392023e+002, 8.234945e+001
8.396844e+002, 8.243178e+001
8.401666e+002, 8.218443e+001
8.406487e+002, 8.182991e+001
8.411308e+002, 8.179835e+001
8.416129e+002, 8.203439e+001
8.420950e+002, 8.212283e+001
8.425771e+002, 8.200507e+001
8.430593e+002, 8.194567e+001
8.435414e+002, 8.210709e+001
8.440235e+002, 8.237237e+001
8.445056e+002, 8.253893e+001
8.449877e+002, 8.261253e+001
8.454698e+002, 8.255293e+001
8.459520e+002, 8.211309e+001
8.464341e+002, 8.187064e+001
8.469162e+002, 8.213119e+001
8.473983e+002, 8.250467e+001
8.478804e+002, 8.268040e+001
8.483625e+002, 8.265096e+001
8.488447e+002, 8.251651e+001
8.493268e+002, 8.219636e+001
8.498089e+002, 8.195403e+001
8.502910e+002, 8.200549e+001
8.507731e+002, 8.216760e+001
8.512552e+002, 8.221591e+001
8.517374e+002, 8.216903e+001
8.522195e+002, 8.218498e+001
8.527016e+002, 8.233631e+001
8.531837e+002, 8.249827e+001
8.536658e+002, 8.248592e+001
8.541479e+002, 8.234065e+001
8.546301e+002, 8.226265e+001
8.551122e+002, 8.225579e+001
8.555943e+002, 8.225103e+001
8.560764e+002, 8.221676e+001
8.565585e+002, 8.221719e+001
8.570406e+002, 8.235094e+001
8.575228e+002, 8.259351e+001
8.580049e+002, 8.264438e+001
8.584870e+002, 8.234708e+001
8.589691e+002, 8.212405e+001
8.594512e+002, 8.205260e+001
8.599333e+002, 8.201968e+001
8.604155e+002, 8.198557e+001
8.608976e+002, 8.194316e+001
8.613797e+002, 8.187714e+001
8.618618e+002, 8.177779e+001
8.623439e+002, 8.169960e+001
8.628260e+002, 8.167473e+001
8.633082e+002, 8.167088e+001
8.637903e+002, 8.166415e+001
8.642724e+002, 8.165937e+001
8.647545e+002, 8.167050e+001
8.652366e+002, 8.169794e+001
8.657188e+002, 8.173015e+001
8.662009e+002, 8.177312e+001
8.666830e+002, 8.178747e+001
8.671651e+002, 8.169185e+001
8.676472e+002, 8.149561e+001
8.681293e+002, 8.122545e+001
8.686115e+002, 8.087826e+001
8.690936e+002, 8.061620e+001
8.695757e+002, 8.054047e+001
8.700578e+002, 8.060079e+001
8.705399e+002, 8.071585e+001
8.710220e+002, 8.092693e+001
8.715042e+002, 8.097334e+001
8.719863e+002, 8.072805e+001
8.724684e+002, 8.052290e+001
8.729505e+002, 8.051656e+001
8.734326e+002, 8.055119e+001
8.739147e+002, 8.047546e+001
8.743969e+002, 8.030837e+001
8.748790e+002, 8.019406e+001
8.753611e+002, 8.025008e+001
8.758432e+002, 8.023595e+001
8.763253e+002, 7.998135e+001
8.768074e+002, 7.969470e+001
8.772896e+002, 7.956420e+001
8.777717e+002, 7.955344e+001
8.782538e+002, 7.951484e+001
8.787359e+002, 7.939598e+001
8.792180e+002, 7.935832e+001
8.797001e+002, 7.970705e+001
8.801823e+002, 8.015917e+001
8.806644e+002, 8.008708e+001
8.811465e+002, 7.961989e+001
8.816286e+002, 7.936052e+001
8.821107e+002, 7.946461e+001
8.825928e+002, 7.967719e+001
8.830750e+002, 7.978415e+001
8.835571e+002, 7.980896e+001
8.840392e+002, 7.983135e+001
8.845213e+002, 7.985509e+001
8.850034e+002, 7.983997e+001
8.854855e+002, 7.973423e+001
8.859677e+002, 7.970351e+001
8.864498e+002, 7.986259e+001
8.869319e+002, 8.012484e+001
8.874140e+002, 8.034911e+001
8.878961e+002, 8.053029e+001
8.883782e+002, 8.070703e+001
8.888604e+002, 8.085629e+001
8.893425e+002, 8.103273e+001
8.898246e+002, 8.128701e+001
8.903067e+002, 8.154846e+001
8.907888e+002, 8.177884e+001
8.912709e+002, 8.196153e+001
8.917531e+002, 8.205710e+001
8.922352e+002, 8.202369e+001
8.927173e+002, 8.199688e+001
8.931994e+002, 8.203101e+001
8.936815e+002, 8.214902e+001
8.941636e+002, 8.244846e+001
8.946458e+002, 8.284763e+001
8.951279e+002, 8.311598e+001
8.956100e+002, 8.319115e+001
8.960921e+002, 8.324031e+001
8.965742e+002, 8.344243e+001
8.970563e+002, 8.371969e+001
8.975385e+002, 8.384359e+001
8.980206e+002, 8.382896e+001
8.985027e+002, 8.390967e+001
8.989848e+002, 8.414550e+001
8.994669e+002, 8.425224e+001
8.999490e+002, 8.401622e+001
9.004312e+002, 8.358728e+001
9.009133e+002, 8.331559e+001
9.013954e+002, 8.325289e+001
9.018775e+002, 8.311433e+001
9.023596e+002, 8.292191e+001
9.028417e+002, 8.261084e+001
9.033239e+002, 8.200060e+001
9.038060e+002, 8.139281e+001
9.042881e+002, 8.118521e+001
9.047702e+002, 8.128199e+001
9.052523e+002, 8.105600e+001
9.057344e+002, 8.005376e+001
9.062166e+002, 7.928474e+001
9.066987e+002, 7.915614e+001
9.071808e+002, 7.918185e+001
9.076629e+002, 7.903981e+001
9.081450e+002, 7.878390e+001
9.086271e+002, 7.859296e+001
9.091093e+002, 7.850832e+001
9.095914e+002, 7.833922e+001
9.100735e+002, 7.777445e+001
9.105556e+002, 7.721439e+001
9.110377e+002, 7.726692e+001
9.115198e+002, 7.761227e+001
9.120020e+002, 7.754794e+001
9.124841e+002, 7.700828e+001
9.129662e+002, 7.639323e+001
9.134483e+002, 7.593880e+001
9.139304e+002, 7.565826e+001
9.144125e+002, 7.565116e+001
9.148947e+002, 7.586758e+001
9.153768e+002, 7.586088e+001
9.158589e+002, 7.559987e+001
9.163410e+002, 7.544157e+001
9.168231e+002, 7.553915e+001
9.173052e+002, 7.568583e+001
9.177874e+002, 7.562480e+001
9.182695e+002, 7.539725e+001
9.187516e+002, 7.540843e+001
9.192337e+002, 7.574111e+001
9.197158e+002, 7.612775e+001
9.201979e+002, 7.672279e+001
9.206801e+002, 7.713604e+001
9.211622e+002, 7.706860e+001
9.216443e+002, 7.671620e+001
9.221264e+002, 7.633517e+001
9.226085e+002, 7.590616e+001
9.230906e+002, 7.564542e+001
9.235728e+002, 7.561701e+001
9.240549e+002, 7.571806e+001
9.245370e+002, 7.605508e+001
9.250191e+002, 7.639288e+001
9.255012e+002, 7.650605e+001
9.259833e+002, 7.641777e+001
9.264655e+002, 7.627730e+001
9.269476e+002, 7.613700e+001
9.274297e+002, 7.596126e+001
9.279118e+002, 7.563525e+001
9.283939e+002, 7.533138e+001
9.288760e+002, 7.526395e+001
9.293582e+002, 7.537432e+001
9.298403e+002, 7.554236e+001
9.303224e+002, 7.571701e+001
9.308045e+002, 7.583025e+001
9.312866e+002, 7.582403e+001
9.317687e+002, 7.573170e+001
9.322509e+002, 7.554392e+001
9.327330e+002, 7.531629e+001
9.332151e+002, 7.535075e+001
9.336972e+002, 7.566736e+001
9.341793e+002, 7.595897e+001
9.346614e+002, 7.607795e+001
9.351436e+002, 7.606507e+001
9.356257e+002, 7.593871e+001
9.361078e+002, 7.571563e+001
9.365899e+002, 7.579381e+001
9.370720e+002, 7.628896e+001
9.375541e+002, 7.660197e+001
9.380363e+002, 7.655336e+001
9.385184e+002, 7.640771e+001
9.390005e+002, 7.630058e+001
9.394826e+002, 7.626321e+001
9.399647e+002, 7.640044e+001
9.404468e+002, 7.681461e+001
9.409290e+002, 7.712016e+001
9.414111e+002, 7.719146e+001
9.418932e+002, 7.731835e+001
9.423753e+002, 7.760072e+001
9.428574e+002, 7.796043e+001
9.433395e+002, 7.833402e+001
9.438217e+002, 7.871895e+001
9.443038e+002, 7.912218e+001
9.447859e+002, 7.955102e+001
9.452680e+002, 7.998829e+001
9.457501e+002, 8.051985e+001
9.462322e+002, 8.097005e+001
9.467144e+002, 8.109808e+001
9.471965e+002, 8.109553e+001
9.476786e+002, 8.129885e+001
9.481607e+002, 8.176658e+001
9.486428e+002, 8.228217e+001
9.491249e+002, 8.277965e+001
9.496071e+002, 8.316901e+001
9.500892e+002, 8.318190e+001
9.505713e+002, 8.310503e+001
9.510534e+002, 8.347861e+001
9.515355e+002, 8.426305e+001
9.520176e+002, 8.509361e+001
9.524998e+002, 8.580261e+001
9.529819e+002, 8.633833e+001
9.534640e+002, 8.654395e+001
9.539461e+002, 8.656419e+001
9.544282e+002, 8.685183e+001
9.549103e+002, 8.738194e+001
9.553925e+002, 8.794357e+001
9.558746e+002, 8.849527e+001
9.563567e+002, 8.914575e+001
9.568388e+002, 8.998071e+001
9.573209e+002, 9.093346e+001
9.578030e+002, 9.190899e+001
9.582852e+002, 9.292976e+001
9.587673e+002, 9.367898e+001
9.592494e+002, 9.408237e+001
9.597315e+002, 9.450771e+001
9.602136e+002, 9.509858e+001
9.606957e+002, 9.569187e+001
9.611779e+002, 9.614516e+001
9.616600e+002, 9.646507e+001
9.621421e+002, 9.668330e+001
9.626242e+002, 9.688487e+001
9.631063e+002, 9.681414e+001
9.635884e+002, 9.627209e+001
9.640706e+002, 9.570440e+001
9.645527e+002, 9.530251e+001
9.650348e+002, 9.494270e+001
9.655169e+002, 9.445285e+001
9.659990e+002, 9.384592e+001
9.664811e+002, 9.336143e+001
9.669633e+002, 9.300769e+001
9.674454e+002, 9.281662e+001
9.679275e+002, 9.289552e+001
9.684096e+002, 9.303913e+001
9.688917e+002, 9.313596e+001
9.693738e+002, 9.318919e+001
9.698560e+002, 9.316606e+001
9.703381e+002, 9.307267e+001
9.708202e+002, 9.317976e+001
9.713023e+002, 9.370090e+001
9.717844e+002, 9.436730e+001
9.722665e+002, 9.512151e+001
9.727487e+002, 9.583730e+001
9.732308e+002, 9.630375e+001
9.737129e+002, 9.659554e+001
9.741950e+002, 9.698849e+001
9.746771e+002, 9.758751e+001
9.751592e+002, 9.814551e+001
9.756414e+002, 9.848349e+001
9.761235e+002, 9.861532e+001
9.766056e+002, 9.856364e+001
9.770877e+002, 9.832368e+001
9.775698e+002, 9.774593e+001
9.780519e+002, 9.690825e+001
9.785341e+002, 9.640443e+001
9.790162e+002, 9.662711e+001
9.794983e+002, 9.688715e+001
9.799804e+002, 9.599987e+001
9.804625e+002, 9.430522e+001
9.809446e+002, 9.316972e+001
9.814268e+002, 9.255675e+001
9.819089e+002, 9.177518e+001
9.823910e+002, 9.064285e+001
9.828731e+002, 8.946670e+001
9.833552e+002, 8.848928e+001
9.838373e+002, 8.766777e+001
9.843195e+002, 8.689257e+001
9.848016e+002, 8.616206e+001
9.852837e+002, 8.552426e+001
9.857658e+002, 8.496530e+001
9.862479e+002, 8.463428e+001
9.867300e+002, 8.466489e+001
9.872122e+002, 8.470012e+001
9.876943e+002, 8.435493e+001
9.881764e+002, 8.370857e+001
9.886585e+002, 8.318327e+001
9.891406e+002, 8.274863e+001
9.896227e+002, 8.253455e+001
9.901049e+002, 8.267703e+001
9.905870e+002, 8.280141e+001
9.910691e+002, 8.273617e+001
9.915512e+002, 8.259656e+001
9.920333e+002, 8.252145e+001
9.925154e+002, 8.250850e+001
9.929976e+002, 8.246453e+001
9.934797e+002, 8.224283e+001
9.939618e+002, 8.221404e+001
9.944439e+002, 8.260420e+001
9.949260e+002, 8.295973e+001
9.954081e+002, 8.297960e+001
9.958903e+002, 8.288459e+001
9.963724e+002, 8.301102e+001
9.968545e+002, 8.337434e+001
9.973366e+002, 8.362646e+001
9.978187e+002, 8.362337e+001
9.983008e+002, 8.360818e+001
9.987830e+002, 8.372810e+001
9.992651e+002, 8.378345e+001
9.997472e+002, 8.355961e+001
1.000229e+003, 8.319575e+001
1.000711e+003, 8.296337e+001
1.001194e+003, 8.291141e+001
1.001676e+003, 8.279617e+001
1.002158e+003, 8.243412e+001
1.002640e+003, 8.207290e+001
1.003122e+003, 8.192698e+001
1.003604e+003, 8.179834e+001
1.004086e+003, 8.145657e+001
1.004568e+003, 8.095724e+001
1.005050e+003, 8.050151e+001
1.005533e+003, 8.014979e+001
1.006015e+003, 7.971204e+001
1.006497e+003, 7.895653e+001
1.006979e+003, 7.815157e+001
1.007461e+003, 7.755639e+001
1.007943e+003, 7.708609e+001
1.008425e+003, 7.665380e+001
1.008907e+003, 7.621326e+001
1.009390e+003, 7.567903e+001
1.009872e+003, 7.501274e+001
1.010354e+003, 7.435341e+001
1.010836e+003, 7.381116e+001
1.011318e+003, 7.337428e+001
1.011800e+003, 7.304636e+001
1.012282e+003, 7.280588e+001
1.012764e+003, 7.265398e+001
1.013246e+003, 7.254974e+001
1.013729e+003, 7.229492e+001
1.014211e+003, 7.178016e+001
1.014693e+003, 7.118295e+001
1.015175e+003, 7.068858e+001
1.015657e+003, 7.030722e+001
1.016139e+003, 7.011472e+001
1.016621e+003, 7.007297e+001
1.017103e+003, 6.997155e+001
1.017586e+003, 6.977722e+001
1.018068e+003, 6.964808e+001
1.018550e+003, 6.969122e+001
1.019032e+003, 6.976918e+001
1.019514e+003, 6.960766e+001
1.019996e+003, 6.926040e+001
1.020478e+003, 6.913166e+001
1.020960e+003, 6.921616e+001
1.021442e+003, 6.935882e+001
1.021925e+003, 6.953382e+001
1.022407e+003, 6.958158e+001
1.022889e+003, 6.936713e+001
1.023371e+003, 6.904613e+001
1.023853e+003, 6.894154e+001
1.024335e+003, 6.905563e+001
1.024817e+003, 6.914809e+001
1.025299e+003, 6.922842e+001
1.025781e+003, 6.919343e+001
1.026264e+003, 6.899114e+001
1.026746e+003, 6.878398e+001
1.027228e+003, 6.870698e+001
1.027710e+003, 6.868336e+001
1.028192e+003, 6.852180e+001
1.028674e+003, 6.820253e+001
1.029156e+003, 6.789010e+001
1.029638e+003, 6.754594e+001
1.030120e+003, 6.735914e+001
1.030603e+003, 6.744193e+001
1.031085e+003, 6.754802e+001
1.031567e+003, 6.746844e+001
1.032049e+003, 6.728783e+001
1.032531e+003, 6.723833e+001
1.033013e+003, 6.736217e+001
1.033495e+003, 6.743103e+001
1.033977e+003, 6.745242e+001
1.034460e+003, 6.739452e+001
1.034942e+003, 6.716228e+001
1.035424e+003, 6.697672e+001
1.035906e+003, 6.706004e+001
1.036388e+003, 6.730479e+001
1.036870e+003, 6.739321e+001
1.037352e+003, 6.725458e+001
1.037834e+003, 6.720833e+001
1.038317e+003, 6.736298e+001
1.038799e+003, 6.744138e+001
1.039281e+003, 6.726430e+001
1.039763e+003, 6.710669e+001
1.040245e+003, 6.726359e+001
1.040727e+003, 6.759133e+001
1.041209e+003, 6.766765e+001
1.041691e+003, 6.739213e+001
1.042173e+003, 6.718391e+001
1.042656e+003, 6.706326e+001
1.043138e+003, 6.698940e+001
1.043620e+003, 6.699668e+001
1.044102e+003, 6.700597e+001
1.044584e+003, 6.691071e+001
1.045066e+003, 6.677857e+001
1.045548e+003, 6.679786e+001
1.046030e+003, 6.702551e+001
1.046512e+003, 6.722478e+001
1.046995e+003, 6.740327e+001
1.047477e+003, 6.750639e+001
1.047959e+003, 6.746765e+001
1.048441e+003, 6.739334e+001
1.048923e+003, 6.730344e+001
1.049405e+003, 6.725709e+001
1.049887e+003, 6.741196e+001
1.050369e+003, 6.784318e+001
1.050852e+003, 6.817402e+001
1.051334e+003, 6.828111e+001
1.051816e+003, 6.834679e+001
1.052298e+003, 6.840032e+001
1.052780e+003, 6.846848e+001
1.053262e+003, 6.859936e+001
1.053744e+003, 6.875341e+001
1.054226e+003, 6.882762e+001
1.054708e+003, 6.879005e+001
1.055191e+003, 6.880657e+001
1.055673e+003, 6.897630e+001
1.056155e+003, 6.913623e+001
1.056637e+003, 6.927288e+001
1.057119e+003, 6.932893e+001
1.057601e+003, 6.925679e+001
1.058083e+003, 6.906919e+001
1.058565e+003, 6.875890e+001
1.059047e+003, 6.831458e+001
1.059530e+003, 6.797442e+001
1.060012e+003, 6.794940e+001
1.060494e+003, 6.787601e+001
1.060976e+003, 6.755645e+001
1.061458e+003, 6.716782e+001
1.061940e+003, 6.675508e+001
1.062422e+003, 6.642121e+001
1.062904e+003, 6.641855e+001
1.063387e+003, 6.678879e+001
1.063869e+003, 6.691900e+001
1.064351e+003, 6.632572e+001
1.064833e+003, 6.577798e+001
1.065315e+003, 6.563085e+001
1.065797e+003, 6.565971e+001
1.066279e+003, 6.578954e+001
1.066761e+003, 6.590745e+001
1.067244e+003, 6.578919e+001
1.067726e+003, 6.542096e+001
1.068208e+003, 6.520474e+001
1.068690e+003, 6.538737e+001
1.069172e+003, 6.564240e+001
1.069654e+003, 6.591848e+001
1.070136e+003, 6.611440e+001
1.070618e+003, 6.607053e+001
1.071100e+003, 6.592442e+001
1.071583e+003, 6.590145e+001
1.072065e+003, 6.603005e+001
1.072547e+003, 6.617903e+001
1.073029e+003, 6.625681e+001
1.073511e+003, 6.641199e+001
1.073993e+003, 6.681345e+001
1.074475e+003, 6.721976e+001
1.074957e+003, 6.744044e+001
1.075439e+003, 6.754485e+001
1.075922e+003, 6.762574e+001
1.076404e+003, 6.771032e+001
1.076886e+003, 6.783916e+001
1.077368e+003, 6.805984e+001
1.077850e+003, 6.825259e+001
1.078332e+003, 6.830897e+001
1.078814e+003, 6.837452e+001
1.079297e+003, 6.858803e+001
1.079779e+003, 6.885432e+001
1.080261e+003, 6.904972e+001
1.080743e+003, 6.916615e+001
1.081225e+003, 6.925097e+001
1.081707e+003, 6.932481e+001
1.082189e+003, 6.935252e+001
1.082671e+003, 6.933834e+001
1.083153e+003, 6.924973e+001
1.083635e+003, 6.903528e+001
1.084118e+003, 6.875658e+001
1.084600e+003, 6.850492e+001
1.085082e+003, 6.825445e+001
1.085564e+003, 6.788703e+001
1.086046e+003, 6.734605e+001
1.086528e+003, 6.681783e+001
1.087010e+003, 6.636342e+001
1.087492e+003, 6.596556e+001
1.087975e+003, 6.561048e+001
1.088457e+003, 6.530875e+001
1.088939e+003, 6.510818e+001
1.089421e+003, 6.495985e+001
1.089903e+003, 6.471755e+001
1.090385e+003, 6.433217e+001
1.090867e+003, 6.407294e+001
1.091349e+003, 6.422204e+001
1.091832e+003, 6.428985e+001
1.092314e+003, 6.386958e+001
1.092796e+003, 6.343995e+001
1.093278e+003, 6.351778e+001
1.093760e+003, 6.385590e+001
1.094242e+003, 6.393150e+001
1.094724e+003, 6.365837e+001
1.095206e+003, 6.336628e+001
1.095688e+003, 6.303065e+001
1.096171e+003, 6.287331e+001
1.096653e+003, 6.314730e+001
1.097135e+003, 6.344378e+001
1.097617e+003, 6.347408e+001
1.098099e+003, 6.334716e+001
1.098581e+003, 6.321876e+001
1.099063e+003, 6.311563e+001
1.099545e+003, 6.307345e+001
1.100027e+003, 6.315129e+001
1.100510e+003, 6.320434e+001
1.100992e+003, 6.322295e+001
1.101474e+003, 6.317660e+001
1.101956e+003, 6.295753e+001
1.102438e+003, 6.272903e+001
1.102920e+003, 6.272053e+001
1.103402e+003, 6.288858e+001
1.103884e+003, 6.294264e+001
1.104367e+003, 6.274876e+001
1.104849e+003, 6.266145e+001
1.105331e+003, 6.289949e+001
1.105813e+003, 6.305515e+001
1.106295e+003, 6.290190e+001
1.106777e+003, 6.265850e+001
1.107259e+003, 6.249866e+001
1.107741e+003, 6.241616e+001
1.108224e+003, 6.239156e+001
1.108706e+003, 6.248081e+001
1.109188e+003, 6.239502e+001
1.109670e+003, 6.188284e+001
1.110152e+003, 6.150817e+001
1.110634e+003, 6.145027e+001
1.111116e+003, 6.151815e+001
1.111598e+003, 6.168481e+001
1.112080e+003, 6.185157e+001
1.112563e+003, 6.180696e+001
1.113045e+003, 6.151703e+001
1.113527e+003, 6.131203e+001
1.114009e+003, 6.124715e+001
1.114491e+003, 6.117706e+001
1.114973e+003, 6.109002e+001
1.115455e+003, 6.099258e+001
1.115937e+003, 6.086619e+001
1.116419e+003, 6.074971e+001
1.116902e+003, 6.069100e+001
1.117384e+003, 6.068919e+001
1.117866e+003, 6.074105e+001
1.118348e+003, 6.095305e+001
1.118830e+003, 6.095108e+001
1.119312e+003, 6.054448e+001
1.119794e+003, 6.029115e+001
1.120276e+003, 6.048385e+001
1.120759e+003, 6.075037e+001
1.121241e+003, 6.074160e+001
1.121723e+003, 6.052429e+001
1.122205e+003, 6.032766e+001
1.122687e+003, 6.013762e+001
1.123169e+003, 6.003782e+001
1.123651e+003, 6.005989e+001
1.124133e+003, 6.005185e+001
1.124615e+003, 5.994070e+001
1.125098e+003, 5.991555e+001
1.125580e+003, 6.015558e+001
1.126062e+003, 6.046544e+001
1.126544e+003, 6.043238e+001
1.127026e+003, 6.006766e+001
1.127508e+003, 5.991264e+001
1.127990e+003, 5.998983e+001
1.128472e+003, 6.011149e+001
1.128954e+003, 6.026917e+001
1.129437e+003, 6.031281e+001
1.129919e+003, 6.015289e+001
1.130401e+003, 5.992976e+001
1.130883e+003, 5.980945e+001
1.131365e+003, 5.977667e+001
1.131847e+003, 5.977330e+001
1.132329e+003, 5.979859e+001
1.132811e+003, 5.987185e+001
1.133294e+003, 5.998962e+001
1.133776e+003, 5.995665e+001
1.134258e+003, 5.970735e+001
1.134740e+003, 5.941786e+001
1.135222e+003, 5.919385e+001
1.135704e+003, 5.919891e+001
1.136186e+003, 6.005829e+001
1.136668e+003, 6.140178e+001
1.137151e+003, 6.163285e+001
1.137633e+003, 6.091413e+001
1.138115e+003, 6.013308e+001
1.138597e+003, 5.952093e+001
1.139079e+003, 5.916774e+001
1.139561e+003, 5.913005e+001
1.140043e+003, 5.922671e+001
1.140525e+003, 5.924787e+001
1.141007e+003, 5.925100e+001
1.141490e+003, 5.936997e+001
1.141972e+003, 5.954758e+001
1.142454e+003, 5.967863e+001
1.142936e+003, 5.974025e+001
1.143418e+003, 5.968759e+001
1.143900e+003, 5.952074e+001
1.144382e+003, 5.938617e+001
1.144864e+003, 5.940977e+001
1.145346e+003, 5.948420e+001
1.145829e+003, 5.950298e+001
1.146311e+003, 5.949810e+001
1.146793e+003, 5.955653e+001
1.147275e+003, 5.960435e+001
1.147757e+003, 5.943007e+001
1.148239e+003, 5.907179e+001
1.148721e+003, 5.886569e+001
1.149203e+003, 5.898582e+001
1.149686e+003, 5.916825e+001
1.150168e+003, 5.929880e+001
1.150650e+003, 5.936886e+001
1.151132e+003, 5.935564e+001
1.151614e+003, 5.929226e+001
1.152096e+003, 5.919857e+001
1.152578e+003, 5.909128e+001
1.153060e+003, 5.897318e+001
1.153542e+003, 5.884176e+001
1.154025e+003, 5.882783e+001
1.154507e+003, 5.911381e+001
1.154989e+003, 5.933230e+001
1.155471e+003, 5.934051e+001
1.155953e+003, 5.925498e+001
1.156435e+003, 5.908784e+001
1.156917e+003, 5.891319e+001
1.157399e+003, 5.882221e+001
1.157881e+003, 5.881653e+001
1.158364e+003, 5.884950e+001
1.158846e+003, 5.896970e+001
1.159328e+003, 5.902642e+001
1.159810e+003, 5.895791e+001
1.160292e+003, 5.889592e+001
1.160774e+003, 5.891005e+001
1.161256e+003, 5.890776e+001
1.161738e+003, 5.878180e+001
1.162221e+003, 5.860416e+001
1.162703e+003, 5.855965e+001
1.163185e+003, 5.867329e+001
1.163667e+003, 5.870336e+001
1.164149e+003, 5.858265e+001
1.164631e+003, 5.859453e+001
1.165113e+003, 5.884924e+001
1.165595e+003, 5.903672e+001
1.166078e+003, 5.898427e+001
1.166560e+003, 5.883240e+001
1.167042e+003, 5.874187e+001
1.167524e+003, 5.871471e+001
1.168006e+003, 5.880146e+001
1.168488e+003, 5.901310e+001
1.168970e+003, 5.899020e+001
1.169452e+003, 5.870531e+001
1.169934e+003, 5.848231e+001
1.170417e+003, 5.841302e+001
1.170899e+003, 5.848683e+001
1.171381e+003, 5.871658e+001
1.171863e+003, 5.895357e+001
1.172345e+003, 5.892796e+001
1.172827e+003, 5.870580e+001
1.173309e+003, 5.844995e+001
1.173791e+003, 5.820947e+001
1.174273e+003, 5.824319e+001
1.174756e+003, 5.851509e+001
1.175238e+003, 5.864926e+001
1.175720e+003, 5.850706e+001
1.176202e+003, 5.833366e+001
1.176684e+003, 5.831468e+001
1.177166e+003, 5.842215e+001
1.177648e+003, 5.874401e+001
1.178130e+003, 5.908117e+001
1.178613e+003, 5.913232e+001
1.179095e+003, 5.896940e+001
1.179577e+003, 5.870328e+001
1.180059e+003, 5.841428e+001
1.180541e+003, 5.828730e+001
1.181023e+003, 5.842173e+001
1.181505e+003, 5.860229e+001
1.181987e+003, 5.872692e+001
1.182469e+003, 5.882038e+001
1.182952e+003, 5.892912e+001
1.183434e+003, 5.898870e+001
1.183916e+003, 5.891258e+001
1.184398e+003, 5.874751e+001
1.184880e+003, 5.857333e+001
1.185362e+003, 5.840553e+001
1.185844e+003, 5.829412e+001
1.186326e+003, 5.822799e+001
1.186808e+003, 5.825457e+001
1.187291e+003, 5.851585e+001
1.187773e+003, 5.870688e+001
1.188255e+003, 5.862633e+001
1.188737e+003, 5.847396e+001
1.189219e+003, 5.844859e+001
1.189701e+003, 5.850371e+001
1.190183e+003, 5.848893e+001
1.190665e+003, 5.837935e+001
1.191148e+003, 5.834012e+001
1.191630e+003, 5.843194e+001
1.192112e+003, 5.841386e+001
1.192594e+003, 5.820826e+001
1.193076e+003, 5.799107e+001
1.193558e+003, 5.783434e+001
1.194040e+003, 5.777042e+001
1.194522e+003, 5.786126e+001
1.195005e+003, 5.805839e+001
1.195487e+003, 5.816255e+001
1.195969e+003, 5.817558e+001
1.196451e+003, 5.814745e+001
1.196933e+003, 5.808236e+001
1.197415e+003, 5.800662e+001
1.197897e+003, 5.792822e+001
1.198379e+003, 5.786926e+001
1.198861e+003, 5.784358e+001
1.199344e+003, 5.783878e+001
1.199826e+003, 5.782867e+001
1.200308e+003, 5.783322e+001
1.200790e+003, 5.795316e+001
1.201272e+003, 5.809544e+001
1.201754e+003, 5.798473e+001
1.202236e+003, 5.770678e+001
1.202718e+003, 5.762707e+001
1.203200e+003, 5.781718e+001
1.203683e+003, 5.795372e+001
1.204165e+003, 5.781256e+001
1.204647e+003, 5.764906e+001
1.205129e+003, 5.765386e+001
1.205611e+003, 5.771935e+001
1.206093e+003, 5.777942e+001
1.206575e+003, 5.782758e+001
1.207057e+003, 5.788496e+001
1.207540e+003, 5.792482e+001
1.208022e+003, 5.785453e+001
1.208504e+003, 5.764095e+001
1.208986e+003, 5.751427e+001
1.209468e+003, 5.764618e+001
1.209950e+003, 5.769411e+001
1.210432e+003, 5.746069e+001
1.210914e+003, 5.727015e+001
1.211396e+003, 5.730727e+001
1.211879e+003, 5.745211e+001
1.212361e+003, 5.761749e+001
1.212843e+003, 5.778108e+001
1.213325e+003, 5.784270e+001
1.213807e+003, 5.777102e+001
1.214289e+003, 5.775000e+001
1.214771e+003, 5.779227e+001
1.215253e+003, 5.784730e+001
1.215735e+003, 5.792260e+001
1.216218e+003, 5.791140e+001
1.216700e+003, 5.774089e+001
1.217182e+003, 5.753275e+001
1.217664e+003, 5.743493e+001
1.218146e+003, 5.742255e+001
1.218628e+003, 5.742569e+001
1.219110e+003, 5.744145e+001
1.219592e+003, 5.745226e+001
1.220075e+003, 5.746032e+001
1.220557e+003, 5.747591e+001
1.221039e+003, 5.750536e+001
1.221521e+003, 5.758958e+001
1.222003e+003, 5.775624e+001
1.222485e+003, 5.786570e+001
1.222967e+003, 5.771209e+001
1.223449e+003, 5.749140e+001
1.223932e+003, 5.740167e+001
1.224414e+003, 5.740382e+001
1.224896e+003, 5.745243e+001
1.225378e+003, 5.754754e+001
1.225860e+003, 5.777193e+001
1.226342e+003, 5.808293e+001
1.226824e+003, 5.815430e+001
1.227306e+003, 5.776853e+001
1.227788e+003, 5.744032e+001
1.228271e+003, 5.738536e+001
1.228753e+003, 5.736715e+001
1.229235e+003, 5.724962e+001
1.229717e+003, 5.716408e+001
1.230199e+003, 5.723746e+001
1.230681e+003, 5.740689e+001
1.231163e+003, 5.757331e+001
1.231645e+003, 5.773451e+001
1.232127e+003, 5.781071e+001
1.232610e+003, 5.779920e+001
1.233092e+003, 5.769102e+001
1.233574e+003, 5.743028e+001
1.234056e+003, 5.727325e+001
1.234538e+003, 5.730712e+001
1.235020e+003, 5.742615e+001
1.235502e+003, 5.756782e+001
1.235984e+003, 5.768441e+001
1.236467e+003, 5.769608e+001
1.236949e+003, 5.760803e+001
1.237431e+003, 5.739209e+001
1.237913e+003, 5.709477e+001
1.238395e+003, 5.692576e+001
1.238877e+003, 5.689228e+001
1.239359e+003, 5.690454e+001
1.239841e+003, 5.693823e+001
1.240323e+003, 5.705664e+001
1.240806e+003, 5.732727e+001
1.241288e+003, 5.755221e+001
1.241770e+003, 5.751089e+001
1.242252e+003, 5.736476e+001
1.242734e+003, 5.722218e+001
1.243216e+003, 5.710820e+001
1.243698e+003, 5.707853e+001
1.244180e+003, 5.708454e+001
1.244662e+003, 5.698046e+001
1.245145e+003, 5.676290e+001
1.245627e+003, 5.672125e+001
1.246109e+003, 5.708624e+001
1.246591e+003, 5.734540e+001
1.247073e+003, 5.738244e+001
1.247555e+003, 5.733830e+001
1.248037e+003, 5.716618e+001
1.248519e+003, 5.704576e+001
1.249002e+003, 5.712597e+001
1.249484e+003, 5.732288e+001
1.249966e+003, 5.751707e+001
1.250448e+003, 5.769454e+001
1.250930e+003, 5.756965e+001
1.251412e+003, 5.709758e+001
1.251894e+003, 5.680813e+001
1.252376e+003, 5.674262e+001
1.252859e+003, 5.681945e+001
1.253341e+003, 5.701220e+001
1.253823e+003, 5.722001e+001
1.254305e+003, 5.738372e+001
1.254787e+003, 5.742207e+001
1.255269e+003, 5.704258e+001
1.255751e+003, 5.659856e+001
1.256233e+003, 5.693789e+001
1.256715e+003, 5.759234e+001
1.257198e+003, 5.762267e+001
1.257680e+003, 5.720952e+001
1.258162e+003, 5.698853e+001
1.258644e+003, 5.708767e+001
1.259126e+003, 5.731810e+001
1.259608e+003, 5.767817e+001
1.260090e+003, 5.785216e+001
1.260572e+003, 5.756432e+001
1.261054e+003, 5.722669e+001
1.261537e+003, 5.691951e+001
1.262019e+003, 5.675682e+001
1.262501e+003, 5.692198e+001
1.262983e+003, 5.722548e+001
1.263465e+003, 5.737685e+001
1.263947e+003, 5.738781e+001
1.264429e+003, 5.736782e+001
1.264911e+003, 5.731152e+001
1.265394e+003, 5.722746e+001
1.265876e+003, 5.708429e+001
1.266358e+003, 5.708430e+001
1.266840e+003, 5.730340e+001
1.267322e+003, 5.742718e+001
1.267804e+003, 5.726989e+001
1.268286e+003, 5.705685e+001
1.268768e+003, 5.707751e+001
1.269250e+003, 5.720305e+001
1.269733e+003, 5.710545e+001
1.270215e+003, 5.689613e+001
1.270697e+003, 5.688032e+001
1.271179e+003, 5.699062e+001
1.271661e+003, 5.701151e+001
1.272143e+003, 5.692190e+001
1.272625e+003, 5.679689e+001
1.273107e+003, 5.666527e+001
1.273589e+003, 5.661306e+001
1.274072e+003, 5.679513e+001
1.274554e+003, 5.692554e+001
1.275036e+003, 5.674041e+001
1.275518e+003, 5.659435e+001
1.276000e+003, 5.686692e+001
1.276482e+003, 5.718912e+001
1.276964e+003, 5.704517e+001
1.277446e+003, 5.661675e+001
1.277929e+003, 5.652754e+001
1.278411e+003, 5.682455e+001
1.278893e+003, 5.698058e+001
1.279375e+003, 5.696153e+001
1.279857e+003, 5.692997e+001
1.280339e+003, 5.690147e+001
1.280821e+003, 5.686607e+001
1.281303e+003, 5.682267e+001
1.281786e+003, 5.679768e+001
1.282268e+003, 5.680392e+001
##END=



