##NAMES=Dickinsonite-(KMnNa)
##RRUFFID=R160070
##IDEAL CHEMISTRY=K(NaMn^2+^)CaNa_3_AlMn^2+^_13_(PO_4_)_12_(OH)_2_
##LOCALITY=Smith mine, Newport, New Hampshire, USA
##OWNER=UAMM
##SOURCE=Rock Currier
##DESCRIPTION=Pale yellowish green granular crystals, associated with muscovite and albite.
##STATUS=The identification of this mineral has been confirmed only by single crystal X-ray diffraction.
##URL=rruff.info/R160070
8.806445e+001, 6.003806e+002
8.854657e+001, 5.986504e+002
8.902869e+001, 5.980789e+002
8.951080e+001, 5.995007e+002
8.999292e+001, 6.017112e+002
9.047504e+001, 6.036490e+002
9.095715e+001, 6.051362e+002
9.143927e+001, 6.059543e+002
9.192139e+001, 6.056021e+002
9.240350e+001, 6.041523e+002
9.288562e+001, 6.024271e+002
9.336774e+001, 5.966367e+002
9.384985e+001, 5.833210e+002
9.433197e+001, 5.639118e+002
9.481409e+001, 5.472064e+002
9.529620e+001, 5.305710e+002
9.577832e+001, 5.148441e+002
9.626044e+001, 5.001356e+002
9.674255e+001, 4.870971e+002
9.722467e+001, 4.766967e+002
9.770679e+001, 4.694806e+002
9.818890e+001, 4.625864e+002
9.867102e+001, 4.555798e+002
9.915314e+001, 4.484146e+002
9.963525e+001, 4.408446e+002
1.001174e+002, 4.327023e+002
1.005995e+002, 4.242504e+002
1.010816e+002, 4.164460e+002
1.015637e+002, 4.089226e+002
1.020458e+002, 4.023803e+002
1.025280e+002, 3.971694e+002
1.030101e+002, 3.928592e+002
1.034922e+002, 3.886854e+002
1.039743e+002, 3.840491e+002
1.044564e+002, 3.789345e+002
1.049385e+002, 3.754982e+002
1.054207e+002, 3.751247e+002
1.059028e+002, 3.747622e+002
1.063849e+002, 3.731803e+002
1.068670e+002, 3.702238e+002
1.073491e+002, 3.657556e+002
1.078312e+002, 3.588736e+002
1.083134e+002, 3.497672e+002
1.087955e+002, 3.421714e+002
1.092776e+002, 3.371595e+002
1.097597e+002, 3.337216e+002
1.102418e+002, 3.304869e+002
1.107239e+002, 3.272961e+002
1.112061e+002, 3.242504e+002
1.116882e+002, 3.213595e+002
1.121703e+002, 3.186133e+002
1.126524e+002, 3.162055e+002
1.131345e+002, 3.144163e+002
1.136166e+002, 3.131952e+002
1.140988e+002, 3.117667e+002
1.145809e+002, 3.100763e+002
1.150630e+002, 3.080760e+002
1.155451e+002, 3.055920e+002
1.160272e+002, 3.026655e+002
1.165093e+002, 2.997004e+002
1.169915e+002, 2.972940e+002
1.174736e+002, 2.958854e+002
1.179557e+002, 2.938594e+002
1.184378e+002, 2.905410e+002
1.189199e+002, 2.870341e+002
1.194020e+002, 2.840712e+002
1.198842e+002, 2.819013e+002
1.203663e+002, 2.803102e+002
1.208484e+002, 2.787972e+002
1.213305e+002, 2.768704e+002
1.218126e+002, 2.756562e+002
1.222947e+002, 2.760624e+002
1.227769e+002, 2.769942e+002
1.232590e+002, 2.770080e+002
1.237411e+002, 2.753066e+002
1.242232e+002, 2.722562e+002
1.247053e+002, 2.694807e+002
1.251874e+002, 2.666413e+002
1.256696e+002, 2.643297e+002
1.261517e+002, 2.629690e+002
1.266338e+002, 2.624018e+002
1.271159e+002, 2.619487e+002
1.275980e+002, 2.612780e+002
1.280801e+002, 2.603761e+002
1.285623e+002, 2.593119e+002
1.290444e+002, 2.579511e+002
1.295265e+002, 2.565250e+002
1.300086e+002, 2.553438e+002
1.304907e+002, 2.545005e+002
1.309728e+002, 2.534456e+002
1.314550e+002, 2.516619e+002
1.319371e+002, 2.494685e+002
1.324192e+002, 2.472559e+002
1.329013e+002, 2.451248e+002
1.333834e+002, 2.430929e+002
1.338655e+002, 2.411911e+002
1.343477e+002, 2.393231e+002
1.348298e+002, 2.377760e+002
1.353119e+002, 2.368141e+002
1.357940e+002, 2.362180e+002
1.362761e+002, 2.355743e+002
1.367582e+002, 2.344850e+002
1.372404e+002, 2.329299e+002
1.377225e+002, 2.319265e+002
1.382046e+002, 2.325257e+002
1.386867e+002, 2.327746e+002
1.391688e+002, 2.319582e+002
1.396509e+002, 2.301649e+002
1.401331e+002, 2.279139e+002
1.406152e+002, 2.256626e+002
1.410973e+002, 2.233466e+002
1.415794e+002, 2.213675e+002
1.420615e+002, 2.196841e+002
1.425436e+002, 2.182800e+002
1.430258e+002, 2.172427e+002
1.435079e+002, 2.165501e+002
1.439900e+002, 2.159576e+002
1.444721e+002, 2.151083e+002
1.449542e+002, 2.137757e+002
1.454363e+002, 2.128008e+002
1.459185e+002, 2.126319e+002
1.464006e+002, 2.126708e+002
1.468827e+002, 2.121945e+002
1.473648e+002, 2.109616e+002
1.478469e+002, 2.093253e+002
1.483290e+002, 2.077273e+002
1.488112e+002, 2.060833e+002
1.492933e+002, 2.048060e+002
1.497754e+002, 2.043855e+002
1.502575e+002, 2.045002e+002
1.507396e+002, 2.041443e+002
1.512217e+002, 2.028058e+002
1.517039e+002, 2.011132e+002
1.521860e+002, 1.998000e+002
1.526681e+002, 1.988561e+002
1.531502e+002, 1.983085e+002
1.536323e+002, 1.984149e+002
1.541144e+002, 1.992089e+002
1.545966e+002, 1.996482e+002
1.550787e+002, 1.992656e+002
1.555608e+002, 1.984906e+002
1.560429e+002, 1.975493e+002
1.565250e+002, 1.964792e+002
1.570071e+002, 1.953154e+002
1.574893e+002, 1.940762e+002
1.579714e+002, 1.927029e+002
1.584535e+002, 1.914174e+002
1.589356e+002, 1.900725e+002
1.594177e+002, 1.889076e+002
1.598998e+002, 1.882658e+002
1.603820e+002, 1.882708e+002
1.608641e+002, 1.885343e+002
1.613462e+002, 1.880930e+002
1.618283e+002, 1.861440e+002
1.623104e+002, 1.845885e+002
1.627925e+002, 1.838092e+002
1.632747e+002, 1.834124e+002
1.637568e+002, 1.829966e+002
1.642389e+002, 1.823681e+002
1.647210e+002, 1.815528e+002
1.652031e+002, 1.806529e+002
1.656852e+002, 1.794429e+002
1.661674e+002, 1.784019e+002
1.666495e+002, 1.776507e+002
1.671316e+002, 1.771172e+002
1.676137e+002, 1.767089e+002
1.680958e+002, 1.763938e+002
1.685779e+002, 1.761380e+002
1.690601e+002, 1.757171e+002
1.695422e+002, 1.751260e+002
1.700243e+002, 1.744221e+002
1.705064e+002, 1.735439e+002
1.709885e+002, 1.725411e+002
1.714706e+002, 1.716228e+002
1.719528e+002, 1.710026e+002
1.724349e+002, 1.705444e+002
1.729170e+002, 1.697103e+002
1.733991e+002, 1.679338e+002
1.738812e+002, 1.662259e+002
1.743633e+002, 1.655085e+002
1.748455e+002, 1.658039e+002
1.753276e+002, 1.661109e+002
1.758097e+002, 1.657307e+002
1.762918e+002, 1.649527e+002
1.767739e+002, 1.642941e+002
1.772560e+002, 1.639796e+002
1.777382e+002, 1.637474e+002
1.782203e+002, 1.631936e+002
1.787024e+002, 1.622226e+002
1.791845e+002, 1.612527e+002
1.796666e+002, 1.604287e+002
1.801487e+002, 1.597582e+002
1.806309e+002, 1.593057e+002
1.811130e+002, 1.592015e+002
1.815951e+002, 1.592705e+002
1.820772e+002, 1.590055e+002
1.825593e+002, 1.581882e+002
1.830414e+002, 1.573824e+002
1.835236e+002, 1.567907e+002
1.840057e+002, 1.563336e+002
1.844878e+002, 1.559084e+002
1.849699e+002, 1.554692e+002
1.854520e+002, 1.550073e+002
1.859341e+002, 1.544664e+002
1.864163e+002, 1.537984e+002
1.868984e+002, 1.530938e+002
1.873805e+002, 1.522046e+002
1.878626e+002, 1.513022e+002
1.883447e+002, 1.506980e+002
1.888268e+002, 1.506535e+002
1.893090e+002, 1.511439e+002
1.897911e+002, 1.512843e+002
1.902732e+002, 1.509248e+002
1.907553e+002, 1.503725e+002
1.912374e+002, 1.494286e+002
1.917195e+002, 1.483317e+002
1.922017e+002, 1.475933e+002
1.926838e+002, 1.476660e+002
1.931659e+002, 1.486065e+002
1.936480e+002, 1.489633e+002
1.941301e+002, 1.484352e+002
1.946122e+002, 1.477650e+002
1.950944e+002, 1.471669e+002
1.955765e+002, 1.466850e+002
1.960586e+002, 1.463601e+002
1.965407e+002, 1.462665e+002
1.970228e+002, 1.464127e+002
1.975049e+002, 1.463555e+002
1.979871e+002, 1.457901e+002
1.984692e+002, 1.452871e+002
1.989513e+002, 1.453274e+002
1.994334e+002, 1.458721e+002
1.999155e+002, 1.463610e+002
2.003976e+002, 1.463062e+002
2.008798e+002, 1.457292e+002
2.013619e+002, 1.452891e+002
2.018440e+002, 1.450579e+002
2.023261e+002, 1.449411e+002
2.028082e+002, 1.449961e+002
2.032903e+002, 1.452430e+002
2.037725e+002, 1.452121e+002
2.042546e+002, 1.442207e+002
2.047367e+002, 1.426349e+002
2.052188e+002, 1.415163e+002
2.057009e+002, 1.413373e+002
2.061830e+002, 1.416107e+002
2.066652e+002, 1.417553e+002
2.071473e+002, 1.417792e+002
2.076294e+002, 1.416132e+002
2.081115e+002, 1.410362e+002
2.085936e+002, 1.402576e+002
2.090757e+002, 1.395896e+002
2.095579e+002, 1.391291e+002
2.100400e+002, 1.388574e+002
2.105221e+002, 1.387969e+002
2.110042e+002, 1.390956e+002
2.114863e+002, 1.392595e+002
2.119685e+002, 1.390083e+002
2.124506e+002, 1.384890e+002
2.129327e+002, 1.378910e+002
2.134148e+002, 1.372760e+002
2.138969e+002, 1.366548e+002
2.143790e+002, 1.360526e+002
2.148612e+002, 1.354041e+002
2.153433e+002, 1.348947e+002
2.158254e+002, 1.347072e+002
2.163075e+002, 1.346503e+002
2.167896e+002, 1.344304e+002
2.172717e+002, 1.338345e+002
2.177539e+002, 1.329910e+002
2.182360e+002, 1.325195e+002
2.187181e+002, 1.328949e+002
2.192002e+002, 1.330174e+002
2.196823e+002, 1.324700e+002
2.201644e+002, 1.315572e+002
2.206466e+002, 1.307014e+002
2.211287e+002, 1.301580e+002
2.216108e+002, 1.298747e+002
2.220929e+002, 1.295595e+002
2.225750e+002, 1.290627e+002
2.230571e+002, 1.287080e+002
2.235393e+002, 1.286448e+002
2.240214e+002, 1.287402e+002
2.245035e+002, 1.288276e+002
2.249856e+002, 1.288151e+002
2.254677e+002, 1.286949e+002
2.259498e+002, 1.284079e+002
2.264320e+002, 1.276687e+002
2.269141e+002, 1.270712e+002
2.273962e+002, 1.268008e+002
2.278783e+002, 1.267218e+002
2.283604e+002, 1.266346e+002
2.288425e+002, 1.264305e+002
2.293247e+002, 1.261106e+002
2.298068e+002, 1.256702e+002
2.302889e+002, 1.247932e+002
2.307710e+002, 1.241602e+002
2.312531e+002, 1.241026e+002
2.317352e+002, 1.243681e+002
2.322174e+002, 1.245072e+002
2.326995e+002, 1.242713e+002
2.331816e+002, 1.237462e+002
2.336637e+002, 1.233057e+002
2.341458e+002, 1.229097e+002
2.346279e+002, 1.226202e+002
2.351101e+002, 1.225475e+002
2.355922e+002, 1.225895e+002
2.360743e+002, 1.225267e+002
2.365564e+002, 1.222324e+002
2.370385e+002, 1.218006e+002
2.375206e+002, 1.215511e+002
2.380028e+002, 1.215473e+002
2.384849e+002, 1.215756e+002
2.389670e+002, 1.216099e+002
2.394491e+002, 1.216262e+002
2.399312e+002, 1.215821e+002
2.404133e+002, 1.214782e+002
2.408955e+002, 1.212705e+002
2.413776e+002, 1.208101e+002
2.418597e+002, 1.199313e+002
2.423418e+002, 1.192445e+002
2.428239e+002, 1.191709e+002
2.433060e+002, 1.195076e+002
2.437882e+002, 1.196717e+002
2.442703e+002, 1.193992e+002
2.447524e+002, 1.189493e+002
2.452345e+002, 1.187980e+002
2.457166e+002, 1.190251e+002
2.461987e+002, 1.191235e+002
2.466809e+002, 1.187496e+002
2.471630e+002, 1.180306e+002
2.476451e+002, 1.173921e+002
2.481272e+002, 1.169887e+002
2.486093e+002, 1.166607e+002
2.490914e+002, 1.162079e+002
2.495736e+002, 1.156320e+002
2.500557e+002, 1.150495e+002
2.505378e+002, 1.145855e+002
2.510199e+002, 1.141866e+002
2.515020e+002, 1.135770e+002
2.519841e+002, 1.124907e+002
2.524663e+002, 1.114897e+002
2.529484e+002, 1.110773e+002
2.534305e+002, 1.112055e+002
2.539126e+002, 1.114691e+002
2.543947e+002, 1.117587e+002
2.548768e+002, 1.120242e+002
2.553590e+002, 1.120024e+002
2.558411e+002, 1.115531e+002
2.563232e+002, 1.109454e+002
2.568053e+002, 1.103515e+002
2.572874e+002, 1.097728e+002
2.577695e+002, 1.092138e+002
2.582516e+002, 1.085343e+002
2.587338e+002, 1.078231e+002
2.592159e+002, 1.076530e+002
2.596980e+002, 1.084717e+002
2.601801e+002, 1.092074e+002
2.606622e+002, 1.092435e+002
2.611443e+002, 1.087782e+002
2.616265e+002, 1.082514e+002
2.621086e+002, 1.079306e+002
2.625907e+002, 1.077622e+002
2.630728e+002, 1.075078e+002
2.635549e+002, 1.071414e+002
2.640370e+002, 1.067174e+002
2.645192e+002, 1.061847e+002
2.650013e+002, 1.056291e+002
2.654834e+002, 1.052167e+002
2.659655e+002, 1.051131e+002
2.664476e+002, 1.051678e+002
2.669297e+002, 1.047840e+002
2.674119e+002, 1.035493e+002
2.678940e+002, 1.025520e+002
2.683761e+002, 1.022856e+002
2.688582e+002, 1.023582e+002
2.693403e+002, 1.022663e+002
2.698224e+002, 1.017430e+002
2.703046e+002, 1.009744e+002
2.707867e+002, 1.004935e+002
2.712688e+002, 1.005208e+002
2.717509e+002, 1.004504e+002
2.722330e+002, 1.000556e+002
2.727151e+002, 9.956078e+001
2.731973e+002, 9.919580e+001
2.736794e+002, 9.905447e+001
2.741615e+002, 9.904070e+001
2.746436e+002, 9.895124e+001
2.751257e+002, 9.874397e+001
2.756078e+002, 9.853784e+001
2.760900e+002, 9.836153e+001
2.765721e+002, 9.818501e+001
2.770542e+002, 9.799483e+001
2.775363e+002, 9.778370e+001
2.780184e+002, 9.753622e+001
2.785005e+002, 9.719184e+001
2.789827e+002, 9.658960e+001
2.794648e+002, 9.626768e+001
2.799469e+002, 9.652876e+001
2.804290e+002, 9.683572e+001
2.809111e+002, 9.674248e+001
2.813932e+002, 9.621662e+001
2.818754e+002, 9.564375e+001
2.823575e+002, 9.560911e+001
2.828396e+002, 9.649484e+001
2.833217e+002, 9.679642e+001
2.838038e+002, 9.604322e+001
2.842859e+002, 9.517760e+001
2.847681e+002, 9.467860e+001
2.852502e+002, 9.457606e+001
2.857323e+002, 9.465638e+001
2.862144e+002, 9.474419e+001
2.866965e+002, 9.489361e+001
2.871786e+002, 9.471715e+001
2.876608e+002, 9.379314e+001
2.881429e+002, 9.296579e+001
2.886250e+002, 9.262089e+001
2.891071e+002, 9.268459e+001
2.895892e+002, 9.287304e+001
2.900714e+002, 9.298411e+001
2.905535e+002, 9.301994e+001
2.910356e+002, 9.282150e+001
2.915177e+002, 9.199271e+001
2.919998e+002, 9.134741e+001
2.924819e+002, 9.120590e+001
2.929641e+002, 9.140653e+001
2.934462e+002, 9.164438e+001
2.939283e+002, 9.173679e+001
2.944104e+002, 9.168474e+001
2.948925e+002, 9.149723e+001
2.953746e+002, 9.101114e+001
2.958568e+002, 9.056374e+001
2.963389e+002, 9.016118e+001
2.968210e+002, 8.983327e+001
2.973031e+002, 8.961751e+001
2.977852e+002, 8.953106e+001
2.982673e+002, 8.955669e+001
2.987495e+002, 8.964722e+001
2.992316e+002, 9.001222e+001
2.997137e+002, 9.016823e+001
3.001958e+002, 8.997873e+001
3.006779e+002, 8.963034e+001
3.011600e+002, 8.928115e+001
3.016422e+002, 8.898927e+001
3.021243e+002, 8.875940e+001
3.026064e+002, 8.860621e+001
3.030885e+002, 8.858983e+001
3.035706e+002, 8.854867e+001
3.040527e+002, 8.852623e+001
3.045349e+002, 8.845379e+001
3.050170e+002, 8.821717e+001
3.054991e+002, 8.782822e+001
3.059812e+002, 8.747266e+001
3.064633e+002, 8.741264e+001
3.069454e+002, 8.782983e+001
3.074276e+002, 8.788955e+001
3.079097e+002, 8.731641e+001
3.083918e+002, 8.668746e+001
3.088739e+002, 8.631860e+001
3.093560e+002, 8.620272e+001
3.098381e+002, 8.614896e+001
3.103203e+002, 8.598064e+001
3.108024e+002, 8.568308e+001
3.112845e+002, 8.552938e+001
3.117666e+002, 8.569213e+001
3.122487e+002, 8.580099e+001
3.127308e+002, 8.569968e+001
3.132130e+002, 8.544240e+001
3.136951e+002, 8.515714e+001
3.141772e+002, 8.492221e+001
3.146593e+002, 8.473403e+001
3.151414e+002, 8.457752e+001
3.156235e+002, 8.464294e+001
3.161057e+002, 8.451649e+001
3.165878e+002, 8.394233e+001
3.170699e+002, 8.318772e+001
3.175520e+002, 8.262822e+001
3.180341e+002, 8.243493e+001
3.185162e+002, 8.246846e+001
3.189984e+002, 8.237290e+001
3.194805e+002, 8.191707e+001
3.199626e+002, 8.163748e+001
3.204447e+002, 8.164722e+001
3.209268e+002, 8.177458e+001
3.214089e+002, 8.187577e+001
3.218911e+002, 8.190858e+001
3.223732e+002, 8.190907e+001
3.228553e+002, 8.194337e+001
3.233374e+002, 8.210253e+001
3.238195e+002, 8.205075e+001
3.243016e+002, 8.160082e+001
3.247838e+002, 8.111736e+001
3.252659e+002, 8.084352e+001
3.257480e+002, 8.078030e+001
3.262301e+002, 8.077021e+001
3.267122e+002, 8.065810e+001
3.271943e+002, 8.042897e+001
3.276765e+002, 8.022269e+001
3.281586e+002, 7.998181e+001
3.286407e+002, 7.981581e+001
3.291228e+002, 7.981823e+001
3.296049e+002, 7.992946e+001
3.300870e+002, 8.001824e+001
3.305692e+002, 7.999493e+001
3.310513e+002, 7.987312e+001
3.315334e+002, 7.976006e+001
3.320155e+002, 7.972462e+001
3.324976e+002, 7.961716e+001
3.329797e+002, 7.937481e+001
3.334619e+002, 7.906150e+001
3.339440e+002, 7.867337e+001
3.344261e+002, 7.820879e+001
3.349082e+002, 7.785768e+001
3.353904e+002, 7.813100e+001
3.358725e+002, 7.990583e+001
3.363546e+002, 8.091247e+001
3.368367e+002, 8.069408e+001
3.373188e+002, 7.999008e+001
3.378009e+002, 7.930761e+001
3.382831e+002, 7.879817e+001
3.387652e+002, 7.841074e+001
3.392473e+002, 7.808710e+001
3.397294e+002, 7.783195e+001
3.402115e+002, 7.762692e+001
3.406936e+002, 7.749354e+001
3.411758e+002, 7.738276e+001
3.416579e+002, 7.729864e+001
3.421400e+002, 7.722034e+001
3.426221e+002, 7.709148e+001
3.431042e+002, 7.684095e+001
3.435863e+002, 7.646889e+001
3.440685e+002, 7.626693e+001
3.445506e+002, 7.648626e+001
3.450327e+002, 7.662876e+001
3.455148e+002, 7.651528e+001
3.459969e+002, 7.626513e+001
3.464790e+002, 7.608876e+001
3.469612e+002, 7.610882e+001
3.474433e+002, 7.624082e+001
3.479254e+002, 7.619655e+001
3.484075e+002, 7.577869e+001
3.488896e+002, 7.550992e+001
3.493717e+002, 7.556724e+001
3.498539e+002, 7.572961e+001
3.503360e+002, 7.584087e+001
3.508181e+002, 7.584377e+001
3.513002e+002, 7.571317e+001
3.517823e+002, 7.533122e+001
3.522644e+002, 7.451135e+001
3.527466e+002, 7.406060e+001
3.532287e+002, 7.439894e+001
3.537108e+002, 7.480003e+001
3.541929e+002, 7.488479e+001
3.546750e+002, 7.466026e+001
3.551571e+002, 7.436468e+001
3.556393e+002, 7.421037e+001
3.561214e+002, 7.419559e+001
3.566035e+002, 7.412061e+001
3.570856e+002, 7.387749e+001
3.575677e+002, 7.370760e+001
3.580498e+002, 7.373556e+001
3.585320e+002, 7.388554e+001
3.590141e+002, 7.402695e+001
3.594962e+002, 7.408871e+001
3.599783e+002, 7.409767e+001
3.604604e+002, 7.412828e+001
3.609425e+002, 7.420219e+001
3.614247e+002, 7.424555e+001
3.619068e+002, 7.425093e+001
3.623889e+002, 7.421121e+001
3.628710e+002, 7.412734e+001
3.633531e+002, 7.400086e+001
3.638352e+002, 7.379852e+001
3.643174e+002, 7.341447e+001
3.647995e+002, 7.281332e+001
3.652816e+002, 7.238623e+001
3.657637e+002, 7.224120e+001
3.662458e+002, 7.227154e+001
3.667279e+002, 7.246935e+001
3.672101e+002, 7.280268e+001
3.676922e+002, 7.311944e+001
3.681743e+002, 7.333156e+001
3.686564e+002, 7.344364e+001
3.691385e+002, 7.345811e+001
3.696206e+002, 7.332214e+001
3.701028e+002, 7.319060e+001
3.705849e+002, 7.315439e+001
3.710670e+002, 7.318581e+001
3.715491e+002, 7.324503e+001
3.720312e+002, 7.333944e+001
3.725133e+002, 7.343349e+001
3.729955e+002, 7.344344e+001
3.734776e+002, 7.335139e+001
3.739597e+002, 7.335944e+001
3.744418e+002, 7.368671e+001
3.749239e+002, 7.407977e+001
3.754060e+002, 7.419012e+001
3.758882e+002, 7.392883e+001
3.763703e+002, 7.364406e+001
3.768524e+002, 7.359854e+001
3.773345e+002, 7.373752e+001
3.778166e+002, 7.380994e+001
3.782987e+002, 7.369804e+001
3.787809e+002, 7.362107e+001
3.792630e+002, 7.393669e+001
3.797451e+002, 7.458591e+001
3.802272e+002, 7.501508e+001
3.807093e+002, 7.477895e+001
3.811914e+002, 7.434411e+001
3.816736e+002, 7.441965e+001
3.821557e+002, 7.507900e+001
3.826378e+002, 7.569791e+001
3.831199e+002, 7.577451e+001
3.836020e+002, 7.542739e+001
3.840841e+002, 7.527263e+001
3.845663e+002, 7.543101e+001
3.850484e+002, 7.567559e+001
3.855305e+002, 7.587746e+001
3.860126e+002, 7.605875e+001
3.864947e+002, 7.629403e+001
3.869768e+002, 7.661838e+001
3.874590e+002, 7.700252e+001
3.879411e+002, 7.739670e+001
3.884232e+002, 7.782019e+001
3.889053e+002, 7.819714e+001
3.893874e+002, 7.850425e+001
3.898695e+002, 7.876080e+001
3.903517e+002, 7.897822e+001
3.908338e+002, 7.916188e+001
3.913159e+002, 7.932278e+001
3.917980e+002, 7.944105e+001
3.922801e+002, 7.949293e+001
3.927622e+002, 7.982028e+001
3.932444e+002, 8.072846e+001
3.937265e+002, 8.159694e+001
3.942086e+002, 8.205910e+001
3.946907e+002, 8.221472e+001
3.951728e+002, 8.236355e+001
3.956549e+002, 8.267246e+001
3.961371e+002, 8.311800e+001
3.966192e+002, 8.359649e+001
3.971013e+002, 8.401359e+001
3.975834e+002, 8.458776e+001
3.980655e+002, 8.555109e+001
3.985476e+002, 8.656751e+001
3.990298e+002, 8.726599e+001
3.995119e+002, 8.756180e+001
3.999940e+002, 8.768177e+001
4.004761e+002, 8.790467e+001
4.009582e+002, 8.819302e+001
4.014403e+002, 8.873164e+001
4.019225e+002, 8.968243e+001
4.024046e+002, 9.069337e+001
4.028867e+002, 9.177119e+001
4.033688e+002, 9.277977e+001
4.038509e+002, 9.342969e+001
4.043330e+002, 9.346289e+001
4.048152e+002, 9.302896e+001
4.052973e+002, 9.300930e+001
4.057794e+002, 9.382600e+001
4.062615e+002, 9.442866e+001
4.067436e+002, 9.450311e+001
4.072257e+002, 9.435167e+001
4.077079e+002, 9.428126e+001
4.081900e+002, 9.438536e+001
4.086721e+002, 9.453115e+001
4.091542e+002, 9.453678e+001
4.096363e+002, 9.438342e+001
4.101184e+002, 9.419615e+001
4.106006e+002, 9.401255e+001
4.110827e+002, 9.376842e+001
4.115648e+002, 9.342088e+001
4.120469e+002, 9.298158e+001
4.125290e+002, 9.249764e+001
4.130111e+002, 9.197816e+001
4.134933e+002, 9.144066e+001
4.139754e+002, 9.094659e+001
4.144575e+002, 9.051402e+001
4.149396e+002, 9.007982e+001
4.154217e+002, 8.955964e+001
4.159038e+002, 8.904222e+001
4.163860e+002, 8.864490e+001
4.168681e+002, 8.840908e+001
4.173502e+002, 8.824210e+001
4.178323e+002, 8.807453e+001
4.183144e+002, 8.790523e+001
4.187965e+002, 8.775179e+001
4.192787e+002, 8.768467e+001
4.197608e+002, 8.753231e+001
4.202429e+002, 8.697701e+001
4.207250e+002, 8.606489e+001
4.212071e+002, 8.543162e+001
4.216892e+002, 8.557951e+001
4.221714e+002, 8.599429e+001
4.226535e+002, 8.591544e+001
4.231356e+002, 8.528642e+001
4.236177e+002, 8.468919e+001
4.240998e+002, 8.455626e+001
4.245819e+002, 8.476482e+001
4.250641e+002, 8.473824e+001
4.255462e+002, 8.429294e+001
4.260283e+002, 8.385082e+001
4.265104e+002, 8.364415e+001
4.269925e+002, 8.356128e+001
4.274746e+002, 8.335866e+001
4.279568e+002, 8.294160e+001
4.284389e+002, 8.248047e+001
4.289210e+002, 8.224501e+001
4.294031e+002, 8.237480e+001
4.298852e+002, 8.233485e+001
4.303673e+002, 8.201725e+001
4.308495e+002, 8.161489e+001
4.313316e+002, 8.119200e+001
4.318137e+002, 8.079332e+001
4.322958e+002, 8.051176e+001
4.327779e+002, 8.041996e+001
4.332600e+002, 8.049948e+001
4.337422e+002, 8.060213e+001
4.342243e+002, 8.086104e+001
4.347064e+002, 8.097990e+001
4.351885e+002, 8.085311e+001
4.356706e+002, 8.059902e+001
4.361527e+002, 8.028429e+001
4.366349e+002, 7.995023e+001
4.371170e+002, 7.971614e+001
4.375991e+002, 7.980502e+001
4.380812e+002, 8.036622e+001
4.385633e+002, 8.069790e+001
4.390454e+002, 8.059533e+001
4.395276e+002, 8.044939e+001
4.400097e+002, 8.044072e+001
4.404918e+002, 8.051109e+001
4.409739e+002, 8.047454e+001
4.414560e+002, 8.015931e+001
4.419381e+002, 7.973350e+001
4.424203e+002, 7.975683e+001
4.429024e+002, 8.047363e+001
4.433845e+002, 8.098756e+001
4.438666e+002, 8.080444e+001
4.443487e+002, 8.044094e+001
4.448308e+002, 8.030547e+001
4.453130e+002, 8.046898e+001
4.457951e+002, 8.073252e+001
4.462772e+002, 8.098384e+001
4.467593e+002, 8.120914e+001
4.472414e+002, 8.130033e+001
4.477235e+002, 8.116137e+001
4.482057e+002, 8.106277e+001
4.486878e+002, 8.133351e+001
4.491699e+002, 8.180795e+001
4.496520e+002, 8.207513e+001
4.501341e+002, 8.183546e+001
4.506162e+002, 8.153041e+001
4.510984e+002, 8.167751e+001
4.515805e+002, 8.218445e+001
4.520626e+002, 8.244978e+001
4.525447e+002, 8.217271e+001
4.530268e+002, 8.160959e+001
4.535089e+002, 8.122655e+001
4.539911e+002, 8.102322e+001
4.544732e+002, 8.090830e+001
4.549553e+002, 8.093415e+001
4.554374e+002, 8.099656e+001
4.559195e+002, 8.098342e+001
4.564016e+002, 8.088577e+001
4.568838e+002, 8.076160e+001
4.573659e+002, 8.065217e+001
4.578480e+002, 8.055762e+001
4.583301e+002, 8.047959e+001
4.588122e+002, 8.049852e+001
4.592943e+002, 8.043655e+001
4.597765e+002, 8.013441e+001
4.602586e+002, 7.976857e+001
4.607407e+002, 7.959887e+001
4.612228e+002, 7.970380e+001
4.617049e+002, 7.991105e+001
4.621870e+002, 7.995692e+001
4.626692e+002, 7.976843e+001
4.631513e+002, 7.965208e+001
4.636334e+002, 7.968731e+001
4.641155e+002, 7.971413e+001
4.645976e+002, 7.968951e+001
4.650797e+002, 7.960161e+001
4.655619e+002, 7.942610e+001
4.660440e+002, 7.912945e+001
4.665261e+002, 7.877810e+001
4.670082e+002, 7.855846e+001
4.674903e+002, 7.848954e+001
4.679724e+002, 7.850039e+001
4.684546e+002, 7.873743e+001
4.689367e+002, 7.893734e+001
4.694188e+002, 7.883659e+001
4.699009e+002, 7.843092e+001
4.703830e+002, 7.805941e+001
4.708651e+002, 7.807742e+001
4.713473e+002, 7.834835e+001
4.718294e+002, 7.833276e+001
4.723115e+002, 7.790842e+001
4.727936e+002, 7.748228e+001
4.732757e+002, 7.734054e+001
4.737578e+002, 7.737888e+001
4.742400e+002, 7.742554e+001
4.747221e+002, 7.751466e+001
4.752042e+002, 7.751261e+001
4.756863e+002, 7.732185e+001
4.761684e+002, 7.696635e+001
4.766505e+002, 7.648386e+001
4.771327e+002, 7.585577e+001
4.776148e+002, 7.521950e+001
4.780969e+002, 7.473130e+001
4.785790e+002, 7.440592e+001
4.790611e+002, 7.419179e+001
4.795432e+002, 7.423338e+001
4.800254e+002, 7.425990e+001
4.805075e+002, 7.409615e+001
4.809896e+002, 7.376804e+001
4.814717e+002, 7.337368e+001
4.819538e+002, 7.296086e+001
4.824359e+002, 7.254205e+001
4.829181e+002, 7.214828e+001
4.834002e+002, 7.166419e+001
4.838823e+002, 7.138834e+001
4.843644e+002, 7.164297e+001
4.848465e+002, 7.185764e+001
4.853286e+002, 7.152657e+001
4.858108e+002, 7.069645e+001
4.862929e+002, 6.982694e+001
4.867750e+002, 6.931240e+001
4.872571e+002, 6.911260e+001
4.877392e+002, 6.885158e+001
4.882213e+002, 6.845950e+001
4.887035e+002, 6.812162e+001
4.891856e+002, 6.799899e+001
4.896677e+002, 6.788921e+001
4.901498e+002, 6.754897e+001
4.906319e+002, 6.691864e+001
4.911140e+002, 6.623476e+001
4.915962e+002, 6.574538e+001
4.920783e+002, 6.542433e+001
4.925604e+002, 6.506801e+001
4.930425e+002, 6.463485e+001
4.935246e+002, 6.420662e+001
4.940067e+002, 6.387323e+001
4.944889e+002, 6.358857e+001
4.949710e+002, 6.323682e+001
4.954531e+002, 6.268813e+001
4.959352e+002, 6.218560e+001
4.964173e+002, 6.200060e+001
4.968994e+002, 6.204112e+001
4.973816e+002, 6.195664e+001
4.978637e+002, 6.161703e+001
4.983458e+002, 6.115543e+001
4.988279e+002, 6.074683e+001
4.993100e+002, 6.039201e+001
4.997921e+002, 6.009400e+001
5.002743e+002, 5.988725e+001
5.007564e+002, 5.970945e+001
5.012385e+002, 5.952876e+001
5.017206e+002, 5.934192e+001
5.022027e+002, 5.915206e+001
5.026848e+002, 5.895930e+001
5.031670e+002, 5.877152e+001
5.036491e+002, 5.861308e+001
5.041312e+002, 5.846935e+001
5.046133e+002, 5.838325e+001
5.050954e+002, 5.851411e+001
5.055775e+002, 5.857339e+001
5.060597e+002, 5.826447e+001
5.065418e+002, 5.766179e+001
5.070239e+002, 5.713979e+001
5.075060e+002, 5.702151e+001
5.079881e+002, 5.721181e+001
5.084702e+002, 5.725084e+001
5.089524e+002, 5.707884e+001
5.094345e+002, 5.689009e+001
5.099166e+002, 5.666502e+001
5.103987e+002, 5.650090e+001
5.108808e+002, 5.658952e+001
5.113629e+002, 5.696302e+001
5.118451e+002, 5.716551e+001
5.123271e+002, 5.668843e+001
5.128093e+002, 5.578389e+001
5.132914e+002, 5.517683e+001
5.137735e+002, 5.495911e+001
5.142556e+002, 5.490771e+001
5.147377e+002, 5.492439e+001
5.152198e+002, 5.498891e+001
5.157020e+002, 5.502843e+001
5.161841e+002, 5.505188e+001
5.166662e+002, 5.503447e+001
5.171483e+002, 5.495971e+001
5.176304e+002, 5.483811e+001
5.181125e+002, 5.467753e+001
5.185947e+002, 5.448064e+001
5.190768e+002, 5.426971e+001
5.195589e+002, 5.405825e+001
5.200410e+002, 5.383580e+001
5.205231e+002, 5.371161e+001
5.210052e+002, 5.370501e+001
5.214874e+002, 5.375785e+001
5.219695e+002, 5.387494e+001
5.224516e+002, 5.403267e+001
5.229337e+002, 5.423735e+001
5.234158e+002, 5.448467e+001
5.238979e+002, 5.466842e+001
5.243801e+002, 5.457565e+001
5.248622e+002, 5.411715e+001
5.253443e+002, 5.385192e+001
5.258264e+002, 5.381248e+001
5.263085e+002, 5.396745e+001
5.267906e+002, 5.446556e+001
5.272728e+002, 5.511511e+001
5.277549e+002, 5.555474e+001
5.282370e+002, 5.560537e+001
5.287191e+002, 5.546457e+001
5.292012e+002, 5.533168e+001
5.296833e+002, 5.521200e+001
5.301655e+002, 5.519066e+001
5.306476e+002, 5.530103e+001
5.311297e+002, 5.549593e+001
5.316118e+002, 5.579847e+001
5.320939e+002, 5.618349e+001
5.325760e+002, 5.640051e+001
5.330582e+002, 5.617181e+001
5.335403e+002, 5.595261e+001
5.340224e+002, 5.614177e+001
5.345045e+002, 5.663938e+001
5.349866e+002, 5.714551e+001
5.354688e+002, 5.754097e+001
5.359509e+002, 5.779754e+001
5.364330e+002, 5.783183e+001
5.369151e+002, 5.742482e+001
5.373972e+002, 5.733337e+001
5.378793e+002, 5.781891e+001
5.383615e+002, 5.834883e+001
5.388436e+002, 5.862828e+001
5.393257e+002, 5.871030e+001
5.398078e+002, 5.875333e+001
5.402899e+002, 5.883278e+001
5.407720e+002, 5.899514e+001
5.412542e+002, 5.938871e+001
5.417363e+002, 6.010843e+001
5.422184e+002, 6.073499e+001
5.427005e+002, 6.116377e+001
5.431826e+002, 6.151078e+001
5.436647e+002, 6.177255e+001
5.441469e+002, 6.199469e+001
5.446290e+002, 6.233402e+001
5.451111e+002, 6.292707e+001
5.455932e+002, 6.363897e+001
5.460753e+002, 6.428481e+001
5.465574e+002, 6.486293e+001
5.470396e+002, 6.539607e+001
5.475217e+002, 6.588848e+001
5.480038e+002, 6.633980e+001
5.484859e+002, 6.676077e+001
5.489680e+002, 6.715955e+001
5.494501e+002, 6.748133e+001
5.499323e+002, 6.762538e+001
5.504144e+002, 6.776208e+001
5.508965e+002, 6.805103e+001
5.513786e+002, 6.845761e+001
5.518607e+002, 6.884720e+001
5.523428e+002, 6.915018e+001
5.528250e+002, 6.937752e+001
5.533071e+002, 6.955632e+001
5.537892e+002, 6.969670e+001
5.542713e+002, 6.976571e+001
5.547534e+002, 6.978474e+001
5.552355e+002, 6.972531e+001
5.557177e+002, 6.950229e+001
5.561998e+002, 6.918520e+001
5.566819e+002, 6.896317e+001
5.571640e+002, 6.898476e+001
5.576461e+002, 6.909281e+001
5.581282e+002, 6.889124e+001
5.586104e+002, 6.830873e+001
5.590925e+002, 6.789167e+001
5.595746e+002, 6.795430e+001
5.600567e+002, 6.804074e+001
5.605388e+002, 6.766560e+001
5.610209e+002, 6.690397e+001
5.615031e+002, 6.629493e+001
5.619852e+002, 6.623459e+001
5.624673e+002, 6.628198e+001
5.629494e+002, 6.588136e+001
5.634315e+002, 6.513950e+001
5.639136e+002, 6.461308e+001
5.643958e+002, 6.454577e+001
5.648779e+002, 6.475213e+001
5.653600e+002, 6.493993e+001
5.658421e+002, 6.514757e+001
5.663242e+002, 6.519878e+001
5.668063e+002, 6.497649e+001
5.672885e+002, 6.471130e+001
5.677706e+002, 6.449087e+001
5.682527e+002, 6.433360e+001
5.687348e+002, 6.425494e+001
5.692169e+002, 6.426264e+001
5.696990e+002, 6.433660e+001
5.701812e+002, 6.445000e+001
5.706633e+002, 6.461991e+001
5.711454e+002, 6.475694e+001
5.716275e+002, 6.479117e+001
5.721096e+002, 6.485905e+001
5.725917e+002, 6.510820e+001
5.730739e+002, 6.543771e+001
5.735560e+002, 6.559968e+001
5.740381e+002, 6.542982e+001
5.745202e+002, 6.518301e+001
5.750023e+002, 6.513245e+001
5.754844e+002, 6.525790e+001
5.759666e+002, 6.547643e+001
5.764487e+002, 6.580753e+001
5.769308e+002, 6.609483e+001
5.774129e+002, 6.611797e+001
5.778950e+002, 6.587215e+001
5.783771e+002, 6.584208e+001
5.788593e+002, 6.621770e+001
5.793414e+002, 6.661661e+001
5.798235e+002, 6.684864e+001
5.803056e+002, 6.699619e+001
5.807877e+002, 6.719044e+001
5.812698e+002, 6.747450e+001
5.817520e+002, 6.782095e+001
5.822341e+002, 6.821022e+001
5.827162e+002, 6.865939e+001
5.831984e+002, 6.901545e+001
5.836805e+002, 6.927190e+001
5.841626e+002, 6.943333e+001
5.846447e+002, 6.947002e+001
5.851268e+002, 6.943241e+001
5.856089e+002, 6.935116e+001
5.860911e+002, 6.923308e+001
5.865732e+002, 6.917537e+001
5.870553e+002, 6.923656e+001
5.875374e+002, 6.942940e+001
5.880195e+002, 6.991129e+001
5.885016e+002, 7.080368e+001
5.889838e+002, 7.141101e+001
5.894659e+002, 7.109748e+001
5.899480e+002, 7.022384e+001
5.904301e+002, 6.992519e+001
5.909122e+002, 7.057198e+001
5.913943e+002, 7.104356e+001
5.918765e+002, 7.087416e+001
5.923586e+002, 7.043655e+001
5.928407e+002, 7.000521e+001
5.933228e+002, 6.968325e+001
5.938049e+002, 6.968327e+001
5.942870e+002, 7.021091e+001
5.947692e+002, 7.111263e+001
5.952513e+002, 7.166985e+001
5.957334e+002, 7.167828e+001
5.962155e+002, 7.169072e+001
5.966976e+002, 7.180482e+001
5.971797e+002, 7.190974e+001
5.976619e+002, 7.186597e+001
5.981440e+002, 7.172582e+001
5.986261e+002, 7.171744e+001
5.991082e+002, 7.203048e+001
5.995903e+002, 7.251035e+001
6.000724e+002, 7.291453e+001
6.005546e+002, 7.324294e+001
6.010367e+002, 7.342550e+001
6.015188e+002, 7.341567e+001
6.020009e+002, 7.328623e+001
6.024830e+002, 7.311601e+001
6.029651e+002, 7.290759e+001
6.034473e+002, 7.264481e+001
6.039294e+002, 7.234866e+001
6.044115e+002, 7.197561e+001
6.048936e+002, 7.144006e+001
6.053757e+002, 7.081934e+001
6.058578e+002, 7.025879e+001
6.063400e+002, 6.981419e+001
6.068221e+002, 6.945600e+001
6.073042e+002, 6.915341e+001
6.077863e+002, 6.892077e+001
6.082684e+002, 6.865895e+001
6.087505e+002, 6.843616e+001
6.092327e+002, 6.809874e+001
6.097148e+002, 6.752380e+001
6.101969e+002, 6.684880e+001
6.106790e+002, 6.624821e+001
6.111611e+002, 6.577147e+001
6.116432e+002, 6.531306e+001
6.121254e+002, 6.470380e+001
6.126075e+002, 6.403548e+001
6.130896e+002, 6.366894e+001
6.135717e+002, 6.367455e+001
6.140538e+002, 6.360976e+001
6.145359e+002, 6.319352e+001
6.150181e+002, 6.252313e+001
6.155002e+002, 6.188400e+001
6.159823e+002, 6.125787e+001
6.164644e+002, 6.069106e+001
6.169465e+002, 6.023911e+001
6.174286e+002, 5.981756e+001
6.179108e+002, 5.923072e+001
6.183929e+002, 5.858523e+001
6.188750e+002, 5.832841e+001
6.193571e+002, 5.879337e+001
6.198392e+002, 5.957386e+001
6.203214e+002, 5.949852e+001
6.208035e+002, 5.816473e+001
6.212856e+002, 5.721604e+001
6.217677e+002, 5.712464e+001
6.222498e+002, 5.718121e+001
6.227319e+002, 5.702356e+001
6.232141e+002, 5.672007e+001
6.236962e+002, 5.648940e+001
6.241783e+002, 5.645022e+001
6.246604e+002, 5.644572e+001
6.251425e+002, 5.623747e+001
6.256246e+002, 5.592833e+001
6.261068e+002, 5.591096e+001
6.265889e+002, 5.629522e+001
6.270710e+002, 5.676139e+001
6.275531e+002, 5.702174e+001
6.280352e+002, 5.708325e+001
6.285173e+002, 5.711901e+001
6.289995e+002, 5.702836e+001
6.294816e+002, 5.704304e+001
6.299637e+002, 5.721092e+001
6.304458e+002, 5.750481e+001
6.309279e+002, 5.796101e+001
6.314100e+002, 5.853886e+001
6.318922e+002, 5.906964e+001
6.323743e+002, 5.939272e+001
6.328564e+002, 5.957721e+001
6.333385e+002, 5.990380e+001
6.338206e+002, 6.042580e+001
6.343027e+002, 6.086493e+001
6.347849e+002, 6.107072e+001
6.352670e+002, 6.122905e+001
6.357491e+002, 6.155244e+001
6.362312e+002, 6.202082e+001
6.367133e+002, 6.240429e+001
6.371954e+002, 6.254980e+001
6.376776e+002, 6.265992e+001
6.381597e+002, 6.299597e+001
6.386418e+002, 6.342038e+001
6.391239e+002, 6.354688e+001
6.396060e+002, 6.324931e+001
6.400881e+002, 6.279988e+001
6.405703e+002, 6.254062e+001
6.410524e+002, 6.249294e+001
6.415345e+002, 6.239250e+001
6.420166e+002, 6.225027e+001
6.424987e+002, 6.203780e+001
6.429808e+002, 6.176898e+001
6.434630e+002, 6.141707e+001
6.439451e+002, 6.090908e+001
6.444272e+002, 6.025358e+001
6.449093e+002, 5.961376e+001
6.453914e+002, 5.912555e+001
6.458735e+002, 5.874523e+001
6.463557e+002, 5.837550e+001
6.468378e+002, 5.801225e+001
6.473199e+002, 5.767410e+001
6.478020e+002, 5.739121e+001
6.482841e+002, 5.710259e+001
6.487662e+002, 5.671057e+001
6.492484e+002, 5.621331e+001
6.497305e+002, 5.562774e+001
6.502126e+002, 5.478379e+001
6.506947e+002, 5.402469e+001
6.511768e+002, 5.362096e+001
6.516589e+002, 5.341194e+001
6.521411e+002, 5.312358e+001
6.526232e+002, 5.265681e+001
6.531053e+002, 5.209137e+001
6.535874e+002, 5.147959e+001
6.540695e+002, 5.081964e+001
6.545516e+002, 5.040290e+001
6.550338e+002, 5.038520e+001
6.555159e+002, 5.030473e+001
6.559980e+002, 4.984905e+001
6.564801e+002, 4.928014e+001
6.569622e+002, 4.889396e+001
6.574443e+002, 4.873311e+001
6.579265e+002, 4.857995e+001
6.584086e+002, 4.833607e+001
6.588907e+002, 4.805378e+001
6.593728e+002, 4.773776e+001
6.598549e+002, 4.742508e+001
6.603370e+002, 4.727562e+001
6.608192e+002, 4.737440e+001
6.613013e+002, 4.756195e+001
6.617834e+002, 4.755972e+001
6.622655e+002, 4.732745e+001
6.627476e+002, 4.705514e+001
6.632297e+002, 4.654158e+001
6.637119e+002, 4.621150e+001
6.641940e+002, 4.636304e+001
6.646761e+002, 4.670387e+001
6.651582e+002, 4.684516e+001
6.656403e+002, 4.668409e+001
6.661224e+002, 4.641574e+001
6.666046e+002, 4.614289e+001
6.670867e+002, 4.589545e+001
6.675688e+002, 4.575582e+001
6.680509e+002, 4.572996e+001
6.685330e+002, 4.574938e+001
6.690151e+002, 4.581319e+001
6.694973e+002, 4.585303e+001
6.699794e+002, 4.571574e+001
6.704615e+002, 4.529784e+001
6.709436e+002, 4.498452e+001
6.714257e+002, 4.486031e+001
6.719078e+002, 4.476259e+001
6.723900e+002, 4.456067e+001
6.728721e+002, 4.434064e+001
6.733542e+002, 4.427104e+001
6.738363e+002, 4.440792e+001
6.743184e+002, 4.461798e+001
6.748005e+002, 4.477523e+001
6.752827e+002, 4.487505e+001
6.757648e+002, 4.485996e+001
6.762469e+002, 4.470748e+001
6.767290e+002, 4.450969e+001
6.772111e+002, 4.425102e+001
6.776932e+002, 4.401080e+001
6.781754e+002, 4.392478e+001
6.786575e+002, 4.401144e+001
6.791396e+002, 4.414238e+001
6.796217e+002, 4.436296e+001
6.801038e+002, 4.455230e+001
6.805859e+002, 4.462878e+001
6.810681e+002, 4.459927e+001
6.815502e+002, 4.447290e+001
6.820323e+002, 4.425771e+001
6.825144e+002, 4.401255e+001
6.829965e+002, 4.379792e+001
6.834786e+002, 4.360549e+001
6.839608e+002, 4.361707e+001
6.844429e+002, 4.403173e+001
6.849250e+002, 4.428992e+001
6.854071e+002, 4.402924e+001
6.858892e+002, 4.356894e+001
6.863713e+002, 4.320679e+001
6.868535e+002, 4.297011e+001
6.873356e+002, 4.286835e+001
6.878177e+002, 4.301361e+001
6.882998e+002, 4.321594e+001
6.887819e+002, 4.325955e+001
6.892640e+002, 4.318701e+001
6.897462e+002, 4.316991e+001
6.902283e+002, 4.327609e+001
6.907104e+002, 4.343090e+001
6.911925e+002, 4.353901e+001
6.916746e+002, 4.360744e+001
6.921567e+002, 4.356511e+001
6.926389e+002, 4.330140e+001
6.931210e+002, 4.307620e+001
6.936031e+002, 4.291143e+001
6.940852e+002, 4.284151e+001
6.945673e+002, 4.294530e+001
6.950494e+002, 4.321653e+001
6.955316e+002, 4.345895e+001
6.960137e+002, 4.364080e+001
6.964958e+002, 4.367565e+001
6.969779e+002, 4.328129e+001
6.974600e+002, 4.259115e+001
6.979421e+002, 4.225637e+001
6.984243e+002, 4.253033e+001
6.989064e+002, 4.302055e+001
6.993885e+002, 4.324262e+001
6.998706e+002, 4.317391e+001
7.003527e+002, 4.313438e+001
7.008348e+002, 4.319537e+001
7.013170e+002, 4.319678e+001
7.017991e+002, 4.307009e+001
7.022812e+002, 4.289867e+001
7.027633e+002, 4.272497e+001
7.032454e+002, 4.257376e+001
7.037275e+002, 4.251308e+001
7.042097e+002, 4.260382e+001
7.046918e+002, 4.279407e+001
7.051739e+002, 4.304217e+001
7.056560e+002, 4.333277e+001
7.061381e+002, 4.355683e+001
7.066202e+002, 4.368483e+001
7.071024e+002, 4.373716e+001
7.075845e+002, 4.373188e+001
7.080666e+002, 4.366872e+001
7.085487e+002, 4.355215e+001
7.090308e+002, 4.320621e+001
7.095129e+002, 4.304255e+001
7.099951e+002, 4.332536e+001
7.104772e+002, 4.365954e+001
7.109593e+002, 4.367741e+001
7.114414e+002, 4.341536e+001
7.119235e+002, 4.317954e+001
7.124056e+002, 4.316573e+001
7.128878e+002, 4.323004e+001
7.133699e+002, 4.310396e+001
7.138520e+002, 4.282932e+001
7.143341e+002, 4.271772e+001
7.148162e+002, 4.284145e+001
7.152983e+002, 4.307313e+001
7.157805e+002, 4.335984e+001
7.162626e+002, 4.366716e+001
7.167447e+002, 4.379485e+001
7.172268e+002, 4.359950e+001
7.177089e+002, 4.344372e+001
7.181910e+002, 4.337503e+001
7.186732e+002, 4.333852e+001
7.191553e+002, 4.332270e+001
7.196374e+002, 4.330354e+001
7.201195e+002, 4.321085e+001
7.206016e+002, 4.299277e+001
7.210837e+002, 4.281098e+001
7.215659e+002, 4.295559e+001
7.220480e+002, 4.335050e+001
7.225301e+002, 4.354114e+001
7.230122e+002, 4.344987e+001
7.234943e+002, 4.337221e+001
7.239764e+002, 4.352354e+001
7.244586e+002, 4.377622e+001
7.249407e+002, 4.378194e+001
7.254228e+002, 4.336628e+001
7.259049e+002, 4.313990e+001
7.263870e+002, 4.330033e+001
7.268691e+002, 4.349143e+001
7.273513e+002, 4.355066e+001
7.278334e+002, 4.349467e+001
7.283155e+002, 4.334029e+001
7.287976e+002, 4.310131e+001
7.292797e+002, 4.290162e+001
7.297618e+002, 4.288755e+001
7.302440e+002, 4.302057e+001
7.307261e+002, 4.319550e+001
7.312082e+002, 4.341940e+001
7.316903e+002, 4.352592e+001
7.321724e+002, 4.339843e+001
7.326545e+002, 4.320709e+001
7.331367e+002, 4.322170e+001
7.336188e+002, 4.350499e+001
7.341009e+002, 4.363417e+001
7.345830e+002, 4.346912e+001
7.350651e+002, 4.331993e+001
7.355472e+002, 4.326532e+001
7.360294e+002, 4.329848e+001
7.365115e+002, 4.345549e+001
7.369936e+002, 4.370705e+001
7.374757e+002, 4.389862e+001
7.379578e+002, 4.388297e+001
7.384399e+002, 4.376280e+001
7.389221e+002, 4.375204e+001
7.394042e+002, 4.384326e+001
7.398863e+002, 4.392073e+001
7.403684e+002, 4.395491e+001
7.408505e+002, 4.397634e+001
7.413326e+002, 4.402842e+001
7.418148e+002, 4.410044e+001
7.422969e+002, 4.406606e+001
7.427790e+002, 4.380627e+001
7.432611e+002, 4.361379e+001
7.437432e+002, 4.348983e+001
7.442253e+002, 4.347231e+001
7.447075e+002, 4.368386e+001
7.451896e+002, 4.402231e+001
7.456717e+002, 4.421046e+001
7.461538e+002, 4.408980e+001
7.466359e+002, 4.389654e+001
7.471180e+002, 4.395224e+001
7.476002e+002, 4.417542e+001
7.480823e+002, 4.424539e+001
7.485644e+002, 4.411961e+001
7.490465e+002, 4.402061e+001
7.495286e+002, 4.409700e+001
7.500107e+002, 4.425756e+001
7.504929e+002, 4.427287e+001
7.509750e+002, 4.400244e+001
7.514571e+002, 4.393951e+001
7.519392e+002, 4.432351e+001
7.524213e+002, 4.463080e+001
7.529034e+002, 4.454399e+001
7.533856e+002, 4.430562e+001
7.538677e+002, 4.429193e+001
7.543498e+002, 4.457728e+001
7.548319e+002, 4.483630e+001
7.553140e+002, 4.476595e+001
7.557961e+002, 4.454828e+001
7.562783e+002, 4.450341e+001
7.567604e+002, 4.460182e+001
7.572425e+002, 4.465244e+001
7.577246e+002, 4.459444e+001
7.582067e+002, 4.442627e+001
7.586888e+002, 4.409037e+001
7.591710e+002, 4.359011e+001
7.596531e+002, 4.354530e+001
7.601352e+002, 4.444581e+001
7.606173e+002, 4.505371e+001
7.610994e+002, 4.502174e+001
7.615815e+002, 4.479589e+001
7.620637e+002, 4.467989e+001
7.625458e+002, 4.466273e+001
7.630279e+002, 4.459608e+001
7.635100e+002, 4.437668e+001
7.639921e+002, 4.417634e+001
7.644742e+002, 4.414203e+001
7.649564e+002, 4.422332e+001
7.654385e+002, 4.435118e+001
7.659206e+002, 4.450649e+001
7.664027e+002, 4.464507e+001
7.668848e+002, 4.473842e+001
7.673669e+002, 4.479797e+001
7.678491e+002, 4.486430e+001
7.683312e+002, 4.497609e+001
7.688133e+002, 4.493089e+001
7.692954e+002, 4.449693e+001
7.697775e+002, 4.423098e+001
7.702596e+002, 4.455030e+001
7.707418e+002, 4.508930e+001
7.712239e+002, 4.537611e+001
7.717060e+002, 4.534821e+001
7.721881e+002, 4.522755e+001
7.726702e+002, 4.503651e+001
7.731523e+002, 4.484153e+001
7.736345e+002, 4.470007e+001
7.741166e+002, 4.459613e+001
7.745987e+002, 4.447778e+001
7.750808e+002, 4.433748e+001
7.755629e+002, 4.424226e+001
7.760450e+002, 4.426012e+001
7.765272e+002, 4.437885e+001
7.770093e+002, 4.458159e+001
7.774914e+002, 4.491715e+001
7.779735e+002, 4.504771e+001
7.784556e+002, 4.475927e+001
7.789377e+002, 4.445568e+001
7.794199e+002, 4.455009e+001
7.799020e+002, 4.495061e+001
7.803841e+002, 4.519611e+001
7.808662e+002, 4.517983e+001
7.813483e+002, 4.514117e+001
7.818304e+002, 4.510790e+001
7.823126e+002, 4.509752e+001
7.827947e+002, 4.510373e+001
7.832768e+002, 4.514701e+001
7.837589e+002, 4.530637e+001
7.842410e+002, 4.562514e+001
7.847231e+002, 4.591315e+001
7.852053e+002, 4.589353e+001
7.856874e+002, 4.564419e+001
7.861695e+002, 4.547233e+001
7.866516e+002, 4.539655e+001
7.871337e+002, 4.532697e+001
7.876158e+002, 4.520677e+001
7.880980e+002, 4.511728e+001
7.885801e+002, 4.520050e+001
7.890622e+002, 4.549692e+001
7.895443e+002, 4.570143e+001
7.900264e+002, 4.578115e+001
7.905085e+002, 4.581426e+001
7.909907e+002, 4.572682e+001
7.914728e+002, 4.566488e+001
7.919549e+002, 4.583705e+001
7.924370e+002, 4.618581e+001
7.929191e+002, 4.638781e+001
7.934012e+002, 4.622081e+001
7.938834e+002, 4.594065e+001
7.943655e+002, 4.569476e+001
7.948476e+002, 4.554895e+001
7.953297e+002, 4.574593e+001
7.958118e+002, 4.626821e+001
7.962939e+002, 4.667324e+001
7.967761e+002, 4.666463e+001
7.972582e+002, 4.639311e+001
7.977403e+002, 4.621846e+001
7.982224e+002, 4.616901e+001
7.987045e+002, 4.608047e+001
7.991866e+002, 4.585207e+001
7.996688e+002, 4.573765e+001
8.001509e+002, 4.601226e+001
8.006330e+002, 4.638441e+001
8.011151e+002, 4.644061e+001
8.015972e+002, 4.612320e+001
8.020793e+002, 4.598507e+001
8.025615e+002, 4.642585e+001
8.030436e+002, 4.683326e+001
8.035257e+002, 4.674793e+001
8.040078e+002, 4.642005e+001
8.044899e+002, 4.621814e+001
8.049720e+002, 4.621441e+001
8.054542e+002, 4.627978e+001
8.059363e+002, 4.631438e+001
8.064184e+002, 4.635144e+001
8.069005e+002, 4.651111e+001
8.073826e+002, 4.678175e+001
8.078647e+002, 4.688659e+001
8.083469e+002, 4.675940e+001
8.088290e+002, 4.654303e+001
8.093111e+002, 4.628389e+001
8.097932e+002, 4.604248e+001
8.102753e+002, 4.601122e+001
8.107574e+002, 4.630733e+001
8.112396e+002, 4.658080e+001
8.117217e+002, 4.686156e+001
8.122038e+002, 4.708854e+001
8.126859e+002, 4.723787e+001
8.131680e+002, 4.731862e+001
8.136501e+002, 4.732648e+001
8.141323e+002, 4.726624e+001
8.146144e+002, 4.720609e+001
8.150965e+002, 4.718168e+001
8.155786e+002, 4.718439e+001
8.160607e+002, 4.721965e+001
8.165428e+002, 4.727227e+001
8.170250e+002, 4.729174e+001
8.175071e+002, 4.727087e+001
8.179892e+002, 4.726902e+001
8.184713e+002, 4.733635e+001
8.189534e+002, 4.746133e+001
8.194355e+002, 4.761602e+001
8.199177e+002, 4.782196e+001
8.203998e+002, 4.796193e+001
8.208819e+002, 4.803903e+001
8.213640e+002, 4.801844e+001
8.218461e+002, 4.772009e+001
8.223282e+002, 4.736429e+001
8.228104e+002, 4.744751e+001
8.232925e+002, 4.816339e+001
8.237746e+002, 4.860686e+001
8.242567e+002, 4.836819e+001
8.247388e+002, 4.806176e+001
8.252209e+002, 4.796605e+001
8.257031e+002, 4.806242e+001
8.261852e+002, 4.841096e+001
8.266673e+002, 4.894886e+001
8.271494e+002, 4.928179e+001
8.276315e+002, 4.901174e+001
8.281136e+002, 4.846298e+001
8.285958e+002, 4.813575e+001
8.290779e+002, 4.801447e+001
8.295600e+002, 4.803666e+001
8.300421e+002, 4.819194e+001
8.305242e+002, 4.843275e+001
8.310063e+002, 4.874819e+001
8.314885e+002, 4.908345e+001
8.319706e+002, 4.924995e+001
8.324527e+002, 4.913391e+001
8.329348e+002, 4.915768e+001
8.334169e+002, 4.952812e+001
8.338990e+002, 4.977631e+001
8.343812e+002, 4.962001e+001
8.348633e+002, 4.930109e+001
8.353454e+002, 4.909367e+001
8.358275e+002, 4.902481e+001
8.363096e+002, 4.906990e+001
8.367917e+002, 4.942336e+001
8.372739e+002, 4.967190e+001
8.377560e+002, 4.942853e+001
8.382381e+002, 4.898463e+001
8.387202e+002, 4.873178e+001
8.392023e+002, 4.873050e+001
8.396844e+002, 4.886005e+001
8.401666e+002, 4.905574e+001
8.406487e+002, 4.928101e+001
8.411308e+002, 4.949017e+001
8.416129e+002, 4.967616e+001
8.420950e+002, 4.977311e+001
8.425771e+002, 4.976823e+001
8.430593e+002, 4.975877e+001
8.435414e+002, 4.980445e+001
8.440235e+002, 4.986106e+001
8.445056e+002, 4.984405e+001
8.449877e+002, 4.973792e+001
8.454698e+002, 4.963770e+001
8.459520e+002, 4.953082e+001
8.464341e+002, 4.944762e+001
8.469162e+002, 4.939801e+001
8.473983e+002, 4.937222e+001
8.478804e+002, 4.940389e+001
8.483625e+002, 4.946364e+001
8.488447e+002, 4.940566e+001
8.493268e+002, 4.910038e+001
8.498089e+002, 4.879866e+001
8.502910e+002, 4.855941e+001
8.507731e+002, 4.845221e+001
8.512552e+002, 4.865767e+001
8.517374e+002, 4.907426e+001
8.522195e+002, 4.939565e+001
8.527016e+002, 4.948058e+001
8.531837e+002, 4.939326e+001
8.536658e+002, 4.917307e+001
8.541479e+002, 4.884747e+001
8.546301e+002, 4.848588e+001
8.551122e+002, 4.808525e+001
8.555943e+002, 4.796862e+001
8.560764e+002, 4.831700e+001
8.565585e+002, 4.872311e+001
8.570406e+002, 4.873967e+001
8.575228e+002, 4.840297e+001
8.580049e+002, 4.812964e+001
8.584870e+002, 4.787942e+001
8.589691e+002, 4.776805e+001
8.594512e+002, 4.800686e+001
8.599333e+002, 4.817835e+001
8.604155e+002, 4.790168e+001
8.608976e+002, 4.744995e+001
8.613797e+002, 4.742640e+001
8.618618e+002, 4.805040e+001
8.623439e+002, 4.840974e+001
8.628260e+002, 4.777296e+001
8.633082e+002, 4.706070e+001
8.637903e+002, 4.714285e+001
8.642724e+002, 4.761719e+001
8.647545e+002, 4.772006e+001
8.652366e+002, 4.731450e+001
8.657188e+002, 4.680830e+001
8.662009e+002, 4.646498e+001
8.666830e+002, 4.630852e+001
8.671651e+002, 4.651038e+001
8.676472e+002, 4.698230e+001
8.681293e+002, 4.711378e+001
8.686115e+002, 4.679950e+001
8.690936e+002, 4.649584e+001
8.695757e+002, 4.647091e+001
8.700578e+002, 4.664016e+001
8.705399e+002, 4.686921e+001
8.710220e+002, 4.723283e+001
8.715042e+002, 4.725841e+001
8.719863e+002, 4.671465e+001
8.724684e+002, 4.620598e+001
8.729505e+002, 4.581224e+001
8.734326e+002, 4.561114e+001
8.739147e+002, 4.579771e+001
8.743969e+002, 4.629338e+001
8.748790e+002, 4.659678e+001
8.753611e+002, 4.656071e+001
8.758432e+002, 4.639472e+001
8.763253e+002, 4.605907e+001
8.768074e+002, 4.571892e+001
8.772896e+002, 4.550675e+001
8.777717e+002, 4.541252e+001
8.782538e+002, 4.539895e+001
8.787359e+002, 4.545083e+001
8.792180e+002, 4.549477e+001
8.797001e+002, 4.542549e+001
8.801823e+002, 4.532085e+001
8.806644e+002, 4.536298e+001
8.811465e+002, 4.550831e+001
8.816286e+002, 4.555094e+001
8.821107e+002, 4.543847e+001
8.825928e+002, 4.528003e+001
8.830750e+002, 4.516444e+001
8.835571e+002, 4.509119e+001
8.840392e+002, 4.504114e+001
8.845213e+002, 4.498823e+001
8.850034e+002, 4.514023e+001
8.854855e+002, 4.564013e+001
8.859677e+002, 4.604907e+001
8.864498e+002, 4.606517e+001
8.869319e+002, 4.591450e+001
8.874140e+002, 4.600030e+001
8.878961e+002, 4.637309e+001
8.883782e+002, 4.664508e+001
8.888604e+002, 4.665034e+001
8.893425e+002, 4.675515e+001
8.898246e+002, 4.721891e+001
8.903067e+002, 4.769818e+001
8.907888e+002, 4.783835e+001
8.912709e+002, 4.772137e+001
8.917531e+002, 4.768974e+001
8.922352e+002, 4.787533e+001
8.927173e+002, 4.813275e+001
8.931994e+002, 4.836133e+001
8.936815e+002, 4.860821e+001
8.941636e+002, 4.894238e+001
8.946458e+002, 4.934201e+001
8.951279e+002, 4.975532e+001
8.956100e+002, 5.015968e+001
8.960921e+002, 5.050338e+001
8.965742e+002, 5.072261e+001
8.970563e+002, 5.086203e+001
8.975385e+002, 5.107982e+001
8.980206e+002, 5.135869e+001
8.985027e+002, 5.142560e+001
8.989848e+002, 5.120807e+001
8.994669e+002, 5.105650e+001
8.999490e+002, 5.122101e+001
9.004312e+002, 5.155582e+001
9.009133e+002, 5.173357e+001
9.013954e+002, 5.173865e+001
9.018775e+002, 5.163838e+001
9.023596e+002, 5.124428e+001
9.028417e+002, 5.107063e+001
9.033239e+002, 5.154482e+001
9.038060e+002, 5.208836e+001
9.042881e+002, 5.205537e+001
9.047702e+002, 5.155725e+001
9.052523e+002, 5.132698e+001
9.057344e+002, 5.163483e+001
9.062166e+002, 5.194712e+001
9.066987e+002, 5.210521e+001
9.071808e+002, 5.225496e+001
9.076629e+002, 5.255806e+001
9.081450e+002, 5.291145e+001
9.086271e+002, 5.308974e+001
9.091093e+002, 5.304166e+001
9.095914e+002, 5.300883e+001
9.100735e+002, 5.308977e+001
9.105556e+002, 5.332623e+001
9.110377e+002, 5.389800e+001
9.115198e+002, 5.462036e+001
9.120020e+002, 5.506987e+001
9.124841e+002, 5.521888e+001
9.129662e+002, 5.537380e+001
9.134483e+002, 5.572780e+001
9.139304e+002, 5.619440e+001
9.144125e+002, 5.668048e+001
9.148947e+002, 5.716610e+001
9.153768e+002, 5.748935e+001
9.158589e+002, 5.763945e+001
9.163410e+002, 5.767094e+001
9.168231e+002, 5.756107e+001
9.173052e+002, 5.752577e+001
9.177874e+002, 5.785812e+001
9.182695e+002, 5.849277e+001
9.187516e+002, 5.876363e+001
9.192337e+002, 5.849103e+001
9.197158e+002, 5.828798e+001
9.201979e+002, 5.824310e+001
9.206801e+002, 5.823805e+001
9.211622e+002, 5.818904e+001
9.216443e+002, 5.814634e+001
9.221264e+002, 5.821994e+001
9.226085e+002, 5.844337e+001
9.230906e+002, 5.855630e+001
9.235728e+002, 5.840419e+001
9.240549e+002, 5.828288e+001
9.245370e+002, 5.825863e+001
9.250191e+002, 5.834798e+001
9.255012e+002, 5.856483e+001
9.259833e+002, 5.890464e+001
9.264655e+002, 5.938699e+001
9.269476e+002, 6.006811e+001
9.274297e+002, 6.068299e+001
9.279118e+002, 6.092657e+001
9.283939e+002, 6.110357e+001
9.288760e+002, 6.155333e+001
9.293582e+002, 6.221939e+001
9.298403e+002, 6.294328e+001
9.303224e+002, 6.367441e+001
9.308045e+002, 6.442275e+001
9.312866e+002, 6.521582e+001
9.317687e+002, 6.598983e+001
9.322509e+002, 6.652094e+001
9.327330e+002, 6.690820e+001
9.332151e+002, 6.769440e+001
9.336972e+002, 6.891354e+001
9.341793e+002, 6.996481e+001
9.346614e+002, 7.053311e+001
9.351436e+002, 7.090958e+001
9.356257e+002, 7.151693e+001
9.361078e+002, 7.234053e+001
9.365899e+002, 7.306944e+001
9.370720e+002, 7.365279e+001
9.375541e+002, 7.433463e+001
9.380363e+002, 7.517920e+001
9.385184e+002, 7.609289e+001
9.390005e+002, 7.701301e+001
9.394826e+002, 7.794783e+001
9.399647e+002, 7.895347e+001
9.404468e+002, 8.014157e+001
9.409290e+002, 8.108147e+001
9.414111e+002, 8.162831e+001
9.418932e+002, 8.212563e+001
9.423753e+002, 8.253324e+001
9.428574e+002, 8.303795e+001
9.433395e+002, 8.397248e+001
9.438217e+002, 8.520107e+001
9.443038e+002, 8.601572e+001
9.447859e+002, 8.596316e+001
9.452680e+002, 8.605918e+001
9.457501e+002, 8.674189e+001
9.462322e+002, 8.763577e+001
9.467144e+002, 8.859643e+001
9.471965e+002, 8.950740e+001
9.476786e+002, 9.020277e+001
9.481607e+002, 9.066689e+001
9.486428e+002, 9.109180e+001
9.491249e+002, 9.153462e+001
9.496071e+002, 9.207288e+001
9.500892e+002, 9.277310e+001
9.505713e+002, 9.362473e+001
9.510534e+002, 9.466663e+001
9.515355e+002, 9.584887e+001
9.520176e+002, 9.702249e+001
9.524998e+002, 9.811907e+001
9.529819e+002, 9.911910e+001
9.534640e+002, 1.000407e+002
9.539461e+002, 1.008379e+002
9.544282e+002, 1.011869e+002
9.549103e+002, 1.012012e+002
9.553925e+002, 1.018686e+002
9.558746e+002, 1.034030e+002
9.563567e+002, 1.049749e+002
9.568388e+002, 1.060250e+002
9.573209e+002, 1.066862e+002
9.578030e+002, 1.071026e+002
9.582852e+002, 1.071812e+002
9.587673e+002, 1.083282e+002
9.592494e+002, 1.110341e+002
9.597315e+002, 1.127358e+002
9.602136e+002, 1.122303e+002
9.606957e+002, 1.113388e+002
9.611779e+002, 1.118425e+002
9.616600e+002, 1.134553e+002
9.621421e+002, 1.146403e+002
9.626242e+002, 1.153366e+002
9.631063e+002, 1.157194e+002
9.635884e+002, 1.154034e+002
9.640706e+002, 1.152596e+002
9.645527e+002, 1.158296e+002
9.650348e+002, 1.165853e+002
9.655169e+002, 1.168901e+002
9.659990e+002, 1.167663e+002
9.664811e+002, 1.167932e+002
9.669633e+002, 1.170982e+002
9.674454e+002, 1.174896e+002
9.679275e+002, 1.178630e+002
9.684096e+002, 1.183719e+002
9.688917e+002, 1.191673e+002
9.693738e+002, 1.201523e+002
9.698560e+002, 1.211464e+002
9.703381e+002, 1.221207e+002
9.708202e+002, 1.232448e+002
9.713023e+002, 1.246138e+002
9.717844e+002, 1.261431e+002
9.722665e+002, 1.277836e+002
9.727487e+002, 1.295426e+002
9.732308e+002, 1.314716e+002
9.737129e+002, 1.335148e+002
9.741950e+002, 1.355563e+002
9.746771e+002, 1.375475e+002
9.751592e+002, 1.394208e+002
9.756414e+002, 1.411376e+002
9.761235e+002, 1.426695e+002
9.766056e+002, 1.439709e+002
9.770877e+002, 1.450688e+002
9.775698e+002, 1.459693e+002
9.780519e+002, 1.467145e+002
9.785341e+002, 1.475060e+002
9.790162e+002, 1.484697e+002
9.794983e+002, 1.494282e+002
9.799804e+002, 1.500962e+002
9.804625e+002, 1.505443e+002
9.809446e+002, 1.510353e+002
9.814268e+002, 1.515705e+002
9.819089e+002, 1.521364e+002
9.823910e+002, 1.527295e+002
9.828731e+002, 1.532453e+002
9.833552e+002, 1.536084e+002
9.838373e+002, 1.538001e+002
9.843195e+002, 1.537250e+002
9.848016e+002, 1.533679e+002
9.852837e+002, 1.530685e+002
9.857658e+002, 1.528123e+002
9.862479e+002, 1.528121e+002
9.867300e+002, 1.532587e+002
9.872122e+002, 1.536389e+002
9.876943e+002, 1.533899e+002
9.881764e+002, 1.526428e+002
9.886585e+002, 1.521290e+002
9.891406e+002, 1.519617e+002
9.896227e+002, 1.517072e+002
9.901049e+002, 1.514189e+002
9.905870e+002, 1.508955e+002
9.910691e+002, 1.498369e+002
9.915512e+002, 1.487138e+002
9.920333e+002, 1.481563e+002
9.925154e+002, 1.481437e+002
9.929976e+002, 1.479031e+002
9.934797e+002, 1.472185e+002
9.939618e+002, 1.466367e+002
9.944439e+002, 1.465215e+002
9.949260e+002, 1.461363e+002
9.954081e+002, 1.449480e+002
9.958903e+002, 1.433832e+002
9.963724e+002, 1.419483e+002
9.968545e+002, 1.406858e+002
9.973366e+002, 1.396518e+002
9.978187e+002, 1.391846e+002
9.983008e+002, 1.384944e+002
9.987830e+002, 1.372261e+002
9.992651e+002, 1.357825e+002
9.997472e+002, 1.344449e+002
1.000229e+003, 1.331462e+002
1.000711e+003, 1.317441e+002
1.001194e+003, 1.302134e+002
1.001676e+003, 1.285101e+002
1.002158e+003, 1.263835e+002
1.002640e+003, 1.243551e+002
1.003122e+003, 1.228517e+002
1.003604e+003, 1.214997e+002
1.004086e+003, 1.198898e+002
1.004568e+003, 1.180906e+002
1.005050e+003, 1.164035e+002
1.005533e+003, 1.149174e+002
1.006015e+003, 1.132932e+002
1.006497e+003, 1.111206e+002
1.006979e+003, 1.088718e+002
1.007461e+003, 1.069845e+002
1.007943e+003, 1.053364e+002
1.008425e+003, 1.038027e+002
1.008907e+003, 1.023158e+002
1.009390e+003, 1.008303e+002
1.009872e+003, 9.931679e+001
1.010354e+003, 9.769236e+001
1.010836e+003, 9.572269e+001
1.011318e+003, 9.367875e+001
1.011800e+003, 9.192127e+001
1.012282e+003, 9.047791e+001
1.012764e+003, 8.954495e+001
1.013246e+003, 8.903844e+001
1.013729e+003, 8.841416e+001
1.014211e+003, 8.738107e+001
1.014693e+003, 8.613760e+001
1.015175e+003, 8.483105e+001
1.015657e+003, 8.354790e+001
1.016139e+003, 8.260207e+001
1.016621e+003, 8.192844e+001
1.017103e+003, 8.117590e+001
1.017586e+003, 8.028562e+001
1.018068e+003, 7.946874e+001
1.018550e+003, 7.886825e+001
1.019032e+003, 7.833699e+001
1.019514e+003, 7.762218e+001
1.019996e+003, 7.675607e+001
1.020478e+003, 7.598049e+001
1.020960e+003, 7.529351e+001
1.021442e+003, 7.473491e+001
1.021925e+003, 7.433435e+001
1.022407e+003, 7.370558e+001
1.022889e+003, 7.252906e+001
1.023371e+003, 7.116692e+001
1.023853e+003, 7.042027e+001
1.024335e+003, 7.029897e+001
1.024817e+003, 6.969958e+001
1.025299e+003, 6.853406e+001
1.025781e+003, 6.757686e+001
1.026264e+003, 6.704597e+001
1.026746e+003, 6.662154e+001
1.027228e+003, 6.608884e+001
1.027710e+003, 6.546272e+001
1.028192e+003, 6.476421e+001
1.028674e+003, 6.398501e+001
1.029156e+003, 6.321122e+001
1.029638e+003, 6.240371e+001
1.030120e+003, 6.176345e+001
1.030603e+003, 6.141842e+001
1.031085e+003, 6.107924e+001
1.031567e+003, 6.050579e+001
1.032049e+003, 5.979142e+001
1.032531e+003, 5.919333e+001
1.033013e+003, 5.877035e+001
1.033495e+003, 5.816129e+001
1.033977e+003, 5.710679e+001
1.034460e+003, 5.645063e+001
1.034942e+003, 5.672408e+001
1.035424e+003, 5.699138e+001
1.035906e+003, 5.643740e+001
1.036388e+003, 5.534983e+001
1.036870e+003, 5.454323e+001
1.037352e+003, 5.407642e+001
1.037834e+003, 5.370172e+001
1.038317e+003, 5.352397e+001
1.038799e+003, 5.327659e+001
1.039281e+003, 5.278720e+001
1.039763e+003, 5.231908e+001
1.040245e+003, 5.212161e+001
1.040727e+003, 5.209253e+001
1.041209e+003, 5.193141e+001
1.041691e+003, 5.158998e+001
1.042173e+003, 5.127196e+001
1.042656e+003, 5.098891e+001
1.043138e+003, 5.071412e+001
1.043620e+003, 5.044635e+001
1.044102e+003, 5.017909e+001
1.044584e+003, 4.992546e+001
1.045066e+003, 4.966518e+001
1.045548e+003, 4.932690e+001
1.046030e+003, 4.884843e+001
1.046512e+003, 4.852344e+001
1.046995e+003, 4.861028e+001
1.047477e+003, 4.855368e+001
1.047959e+003, 4.806944e+001
1.048441e+003, 4.748991e+001
1.048923e+003, 4.703935e+001
1.049405e+003, 4.671048e+001
1.049887e+003, 4.644354e+001
1.050369e+003, 4.621655e+001
1.050852e+003, 4.613103e+001
1.051334e+003, 4.638154e+001
1.051816e+003, 4.654604e+001
1.052298e+003, 4.640486e+001
1.052780e+003, 4.618861e+001
1.053262e+003, 4.611015e+001
1.053744e+003, 4.609975e+001
1.054226e+003, 4.597997e+001
1.054708e+003, 4.571877e+001
1.055191e+003, 4.537590e+001
1.055673e+003, 4.476152e+001
1.056155e+003, 4.433569e+001
1.056637e+003, 4.447240e+001
1.057119e+003, 4.469269e+001
1.057601e+003, 4.456716e+001
1.058083e+003, 4.422472e+001
1.058565e+003, 4.398666e+001
1.059047e+003, 4.391756e+001
1.059530e+003, 4.387721e+001
1.060012e+003, 4.395526e+001
1.060494e+003, 4.387801e+001
1.060976e+003, 4.325835e+001
1.061458e+003, 4.268639e+001
1.061940e+003, 4.281569e+001
1.062422e+003, 4.330179e+001
1.062904e+003, 4.339394e+001
1.063387e+003, 4.295122e+001
1.063869e+003, 4.253259e+001
1.064351e+003, 4.229267e+001
1.064833e+003, 4.218961e+001
1.065315e+003, 4.234542e+001
1.065797e+003, 4.249941e+001
1.066279e+003, 4.236689e+001
1.066761e+003, 4.210160e+001
1.067244e+003, 4.205175e+001
1.067726e+003, 4.225617e+001
1.068208e+003, 4.229541e+001
1.068690e+003, 4.180154e+001
1.069172e+003, 4.137337e+001
1.069654e+003, 4.133124e+001
1.070136e+003, 4.141747e+001
1.070618e+003, 4.146504e+001
1.071100e+003, 4.147553e+001
1.071583e+003, 4.147183e+001
1.072065e+003, 4.146214e+001
1.072547e+003, 4.147340e+001
1.073029e+003, 4.159772e+001
1.073511e+003, 4.160497e+001
1.073993e+003, 4.120001e+001
1.074475e+003, 4.082215e+001
1.074957e+003, 4.085485e+001
1.075439e+003, 4.111397e+001
1.075922e+003, 4.138195e+001
1.076404e+003, 4.158257e+001
1.076886e+003, 4.156067e+001
1.077368e+003, 4.111725e+001
1.077850e+003, 4.076713e+001
1.078332e+003, 4.084768e+001
1.078814e+003, 4.100409e+001
1.079297e+003, 4.105499e+001
1.079779e+003, 4.097562e+001
1.080261e+003, 4.063774e+001
1.080743e+003, 4.014287e+001
1.081225e+003, 3.993819e+001
1.081707e+003, 4.026998e+001
1.082189e+003, 4.057305e+001
1.082671e+003, 4.058582e+001
1.083153e+003, 4.049086e+001
1.083635e+003, 4.033894e+001
1.084118e+003, 4.019269e+001
1.084600e+003, 4.012478e+001
1.085082e+003, 4.012117e+001
1.085564e+003, 4.011610e+001
1.086046e+003, 4.009005e+001
1.086528e+003, 4.006751e+001
1.087010e+003, 4.010154e+001
1.087492e+003, 4.009122e+001
1.087975e+003, 3.991322e+001
1.088457e+003, 3.971759e+001
1.088939e+003, 3.965508e+001
1.089421e+003, 3.970385e+001
1.089903e+003, 3.978611e+001
1.090385e+003, 3.988877e+001
1.090867e+003, 3.996029e+001
1.091349e+003, 4.001307e+001
1.091832e+003, 3.998874e+001
1.092314e+003, 3.972551e+001
1.092796e+003, 3.949718e+001
1.093278e+003, 3.963823e+001
1.093760e+003, 3.995121e+001
1.094242e+003, 4.001076e+001
1.094724e+003, 3.974986e+001
1.095206e+003, 3.955787e+001
1.095688e+003, 3.954229e+001
1.096171e+003, 3.963930e+001
1.096653e+003, 4.006654e+001
1.097135e+003, 4.035132e+001
1.097617e+003, 3.997918e+001
1.098099e+003, 3.935586e+001
1.098581e+003, 3.910324e+001
1.099063e+003, 3.926127e+001
1.099545e+003, 3.942846e+001
1.100027e+003, 3.955961e+001
1.100510e+003, 3.960440e+001
1.100992e+003, 3.949088e+001
1.101474e+003, 3.935601e+001
1.101956e+003, 3.919822e+001
1.102438e+003, 3.911270e+001
1.102920e+003, 3.929481e+001
1.103402e+003, 3.966597e+001
1.103884e+003, 3.980867e+001
1.104367e+003, 3.955387e+001
1.104849e+003, 3.932887e+001
1.105331e+003, 3.919155e+001
1.105813e+003, 3.911669e+001
1.106295e+003, 3.913988e+001
1.106777e+003, 3.918263e+001
1.107259e+003, 3.919427e+001
1.107741e+003, 3.916634e+001
1.108224e+003, 3.905641e+001
1.108706e+003, 3.879372e+001
1.109188e+003, 3.872548e+001
1.109670e+003, 3.906686e+001
1.110152e+003, 3.934898e+001
1.110634e+003, 3.944436e+001
1.111116e+003, 3.946836e+001
1.111598e+003, 3.953419e+001
1.112080e+003, 3.956905e+001
1.112563e+003, 3.937419e+001
1.113045e+003, 3.889545e+001
1.113527e+003, 3.868046e+001
1.114009e+003, 3.895436e+001
1.114491e+003, 3.912724e+001
1.114973e+003, 3.917863e+001
1.115455e+003, 3.906767e+001
1.115937e+003, 3.864997e+001
1.116419e+003, 3.816658e+001
1.116902e+003, 3.794515e+001
1.117384e+003, 3.796278e+001
1.117866e+003, 3.793188e+001
1.118348e+003, 3.781520e+001
1.118830e+003, 3.773732e+001
1.119312e+003, 3.771309e+001
1.119794e+003, 3.771203e+001
1.120276e+003, 3.776345e+001
1.120759e+003, 3.776144e+001
1.121241e+003, 3.754590e+001
1.121723e+003, 3.722896e+001
1.122205e+003, 3.724596e+001
1.122687e+003, 3.773717e+001
1.123169e+003, 3.787549e+001
1.123651e+003, 3.751298e+001
1.124133e+003, 3.730970e+001
1.124615e+003, 3.749083e+001
1.125098e+003, 3.766680e+001
1.125580e+003, 3.755082e+001
1.126062e+003, 3.729553e+001
1.126544e+003, 3.720897e+001
1.127026e+003, 3.728587e+001
1.127508e+003, 3.721975e+001
1.127990e+003, 3.697540e+001
1.128472e+003, 3.691470e+001
1.128954e+003, 3.711749e+001
1.129437e+003, 3.732272e+001
1.129919e+003, 3.740387e+001
1.130401e+003, 3.743694e+001
1.130883e+003, 3.755088e+001
1.131365e+003, 3.765608e+001
1.131847e+003, 3.722232e+001
1.132329e+003, 3.630833e+001
1.132811e+003, 3.622851e+001
1.133294e+003, 3.705367e+001
1.133776e+003, 3.768372e+001
1.134258e+003, 3.775225e+001
1.134740e+003, 3.755326e+001
1.135222e+003, 3.729929e+001
1.135704e+003, 3.707555e+001
1.136186e+003, 3.709688e+001
1.136668e+003, 3.729092e+001
1.137151e+003, 3.742857e+001
1.137633e+003, 3.747218e+001
1.138115e+003, 3.714584e+001
1.138597e+003, 3.648204e+001
1.139079e+003, 3.615597e+001
1.139561e+003, 3.655121e+001
1.140043e+003, 3.712661e+001
1.140525e+003, 3.724565e+001
1.141007e+003, 3.709425e+001
1.141490e+003, 3.695483e+001
1.141972e+003, 3.685142e+001
1.142454e+003, 3.686287e+001
1.142936e+003, 3.696456e+001
1.143418e+003, 3.707318e+001
1.143900e+003, 3.714838e+001
1.144382e+003, 3.710557e+001
1.144864e+003, 3.680259e+001
1.145346e+003, 3.650908e+001
1.145829e+003, 3.662224e+001
1.146311e+003, 3.683028e+001
1.146793e+003, 3.665606e+001
1.147275e+003, 3.629454e+001
1.147757e+003, 3.622393e+001
1.148239e+003, 3.644864e+001
1.148721e+003, 3.655015e+001
1.149203e+003, 3.633325e+001
1.149686e+003, 3.600761e+001
1.150168e+003, 3.555813e+001
1.150650e+003, 3.521849e+001
1.151132e+003, 3.524916e+001
1.151614e+003, 3.541447e+001
1.152096e+003, 3.548033e+001
1.152578e+003, 3.543757e+001
1.153060e+003, 3.530984e+001
1.153542e+003, 3.509729e+001
1.154025e+003, 3.499587e+001
1.154507e+003, 3.525072e+001
1.154989e+003, 3.537949e+001
1.155471e+003, 3.512798e+001
1.155953e+003, 3.478838e+001
1.156435e+003, 3.449590e+001
1.156917e+003, 3.426500e+001
1.157399e+003, 3.409527e+001
1.157881e+003, 3.398872e+001
1.158364e+003, 3.396019e+001
1.158846e+003, 3.408751e+001
1.159328e+003, 3.414662e+001
1.159810e+003, 3.410449e+001
1.160292e+003, 3.401907e+001
1.160774e+003, 3.396354e+001
1.161256e+003, 3.380521e+001
1.161738e+003, 3.334336e+001
1.162221e+003, 3.274963e+001
1.162703e+003, 3.245148e+001
1.163185e+003, 3.249123e+001
1.163667e+003, 3.248881e+001
1.164149e+003, 3.246544e+001
1.164631e+003, 3.231665e+001
1.165113e+003, 3.195579e+001
1.165595e+003, 3.168101e+001
1.166078e+003, 3.166293e+001
1.166560e+003, 3.174616e+001
1.167042e+003, 3.174120e+001
1.167524e+003, 3.166608e+001
1.168006e+003, 3.158937e+001
1.168488e+003, 3.150728e+001
1.168970e+003, 3.158748e+001
1.169452e+003, 3.185150e+001
1.169934e+003, 3.176657e+001
1.170417e+003, 3.116865e+001
1.170899e+003, 3.056965e+001
1.171381e+003, 3.034234e+001
1.171863e+003, 3.034104e+001
1.172345e+003, 3.036208e+001
1.172827e+003, 3.039585e+001
1.173309e+003, 3.039408e+001
1.173791e+003, 3.037444e+001
1.174273e+003, 3.044147e+001
1.174756e+003, 3.057457e+001
1.175238e+003, 3.058841e+001
1.175720e+003, 3.041665e+001
1.176202e+003, 3.020894e+001
1.176684e+003, 3.008118e+001
1.177166e+003, 3.000827e+001
1.177648e+003, 3.000684e+001
1.178130e+003, 3.000340e+001
1.178613e+003, 2.981683e+001
1.179095e+003, 2.957107e+001
1.179577e+003, 2.959602e+001
1.180059e+003, 2.985546e+001
1.180541e+003, 2.991828e+001
1.181023e+003, 2.956107e+001
1.181505e+003, 2.923215e+001
1.181987e+003, 2.924026e+001
1.182469e+003, 2.932360e+001
1.182952e+003, 2.932333e+001
1.183434e+003, 2.929978e+001
1.183916e+003, 2.928572e+001
1.184398e+003, 2.931092e+001
1.184880e+003, 2.947870e+001
1.185362e+003, 2.978975e+001
1.185844e+003, 2.989098e+001
1.186326e+003, 2.942077e+001
1.186808e+003, 2.916889e+001
1.187291e+003, 2.959385e+001
1.187773e+003, 2.986559e+001
1.188255e+003, 2.938443e+001
1.188737e+003, 2.879010e+001
1.189219e+003, 2.870679e+001
1.189701e+003, 2.899572e+001
1.190183e+003, 2.924002e+001
1.190665e+003, 2.944673e+001
1.191148e+003, 2.958432e+001
1.191630e+003, 2.969074e+001
1.192112e+003, 2.959692e+001
1.192594e+003, 2.918950e+001
1.193076e+003, 2.882633e+001
1.193558e+003, 2.868497e+001
1.194040e+003, 2.871125e+001
1.194522e+003, 2.887690e+001
1.195005e+003, 2.910852e+001
1.195487e+003, 2.906517e+001
1.195969e+003, 2.875975e+001
1.196451e+003, 2.852142e+001
1.196933e+003, 2.836735e+001
1.197415e+003, 2.824389e+001
1.197897e+003, 2.814363e+001
1.198379e+003, 2.826374e+001
1.198861e+003, 2.875476e+001
1.199344e+003, 2.923019e+001
1.199826e+003, 2.906574e+001
1.200308e+003, 2.858542e+001
1.200790e+003, 2.847810e+001
1.201272e+003, 2.857201e+001
1.201754e+003, 2.841402e+001
1.202236e+003, 2.809876e+001
1.202718e+003, 2.813223e+001
1.203200e+003, 2.859409e+001
1.203683e+003, 2.891330e+001
1.204165e+003, 2.869784e+001
1.204647e+003, 2.838485e+001
1.205129e+003, 2.823826e+001
1.205611e+003, 2.820188e+001
1.206093e+003, 2.830064e+001
1.206575e+003, 2.842920e+001
1.207057e+003, 2.840467e+001
1.207540e+003, 2.831236e+001
1.208022e+003, 2.849255e+001
1.208504e+003, 2.906021e+001
1.208986e+003, 2.925418e+001
1.209468e+003, 2.844409e+001
1.209950e+003, 2.791634e+001
1.210432e+003, 2.819987e+001
1.210914e+003, 2.853665e+001
1.211396e+003, 2.854661e+001
1.211879e+003, 2.841773e+001
1.212361e+003, 2.832906e+001
1.212843e+003, 2.826914e+001
1.213325e+003, 2.819419e+001
1.213807e+003, 2.810451e+001
1.214289e+003, 2.798026e+001
1.214771e+003, 2.777172e+001
1.215253e+003, 2.775939e+001
1.215735e+003, 2.804760e+001
1.216218e+003, 2.829839e+001
1.216700e+003, 2.833046e+001
1.217182e+003, 2.822680e+001
1.217664e+003, 2.806032e+001
1.218146e+003, 2.788810e+001
1.218628e+003, 2.795010e+001
1.219110e+003, 2.817334e+001
1.219592e+003, 2.811867e+001
1.220075e+003, 2.784047e+001
1.220557e+003, 2.781215e+001
1.221039e+003, 2.808315e+001
1.221521e+003, 2.815063e+001
1.222003e+003, 2.772500e+001
1.222485e+003, 2.727992e+001
1.222967e+003, 2.730417e+001
1.223449e+003, 2.755269e+001
1.223932e+003, 2.783901e+001
1.224414e+003, 2.810416e+001
1.224896e+003, 2.832238e+001
1.225378e+003, 2.843844e+001
1.225860e+003, 2.829353e+001
1.226342e+003, 2.792111e+001
1.226824e+003, 2.766309e+001
1.227306e+003, 2.764578e+001
1.227788e+003, 2.772403e+001
1.228271e+003, 2.798910e+001
1.228753e+003, 2.815567e+001
1.229235e+003, 2.798344e+001
1.229717e+003, 2.778007e+001
1.230199e+003, 2.779162e+001
1.230681e+003, 2.794141e+001
1.231163e+003, 2.812477e+001
1.231645e+003, 2.833563e+001
1.232127e+003, 2.828605e+001
1.232610e+003, 2.781864e+001
1.233092e+003, 2.759826e+001
1.233574e+003, 2.774941e+001
1.234056e+003, 2.779677e+001
1.234538e+003, 2.757186e+001
1.235020e+003, 2.730719e+001
1.235502e+003, 2.714858e+001
1.235984e+003, 2.717326e+001
1.236467e+003, 2.765436e+001
1.236949e+003, 2.836801e+001
1.237431e+003, 2.819139e+001
1.237913e+003, 2.736926e+001
1.238395e+003, 2.697997e+001
1.238877e+003, 2.707625e+001
1.239359e+003, 2.735920e+001
1.239841e+003, 2.769101e+001
1.240323e+003, 2.782024e+001
1.240806e+003, 2.752141e+001
1.241288e+003, 2.729873e+001
1.241770e+003, 2.787778e+001
1.242252e+003, 2.851142e+001
1.242734e+003, 2.837743e+001
1.243216e+003, 2.792841e+001
1.243698e+003, 2.766000e+001
1.244180e+003, 2.759339e+001
1.244662e+003, 2.768107e+001
1.245145e+003, 2.789359e+001
1.245627e+003, 2.800881e+001
1.246109e+003, 2.790083e+001
1.246591e+003, 2.781845e+001
1.247073e+003, 2.783817e+001
1.247555e+003, 2.784186e+001
1.248037e+003, 2.772743e+001
1.248519e+003, 2.766926e+001
1.249002e+003, 2.788230e+001
1.249484e+003, 2.813537e+001
1.249966e+003, 2.794359e+001
1.250448e+003, 2.735440e+001
1.250930e+003, 2.723696e+001
1.251412e+003, 2.764828e+001
1.251894e+003, 2.791711e+001
1.252376e+003, 2.799175e+001
1.252859e+003, 2.795861e+001
1.253341e+003, 2.784452e+001
1.253823e+003, 2.768829e+001
1.254305e+003, 2.751343e+001
1.254787e+003, 2.734023e+001
1.255269e+003, 2.711745e+001
1.255751e+003, 2.697607e+001
1.256233e+003, 2.731297e+001
1.256715e+003, 2.782505e+001
1.257198e+003, 2.790413e+001
1.257680e+003, 2.766902e+001
1.258162e+003, 2.755694e+001
1.258644e+003, 2.763778e+001
1.259126e+003, 2.766265e+001
1.259608e+003, 2.748689e+001
1.260090e+003, 2.740113e+001
1.260572e+003, 2.769085e+001
1.261054e+003, 2.790446e+001
1.261537e+003, 2.774765e+001
1.262019e+003, 2.751280e+001
1.262501e+003, 2.735572e+001
1.262983e+003, 2.731163e+001
1.263465e+003, 2.748127e+001
1.263947e+003, 2.781709e+001
1.264429e+003, 2.794364e+001
1.264911e+003, 2.777590e+001
1.265394e+003, 2.770100e+001
1.265876e+003, 2.775849e+001
1.266358e+003, 2.770367e+001
1.266840e+003, 2.744946e+001
1.267322e+003, 2.734124e+001
1.267804e+003, 2.758798e+001
1.268286e+003, 2.790022e+001
1.268768e+003, 2.794011e+001
1.269250e+003, 2.777025e+001
1.269733e+003, 2.737781e+001
1.270215e+003, 2.695569e+001
1.270697e+003, 2.713160e+001
1.271179e+003, 2.766069e+001
1.271661e+003, 2.778192e+001
1.272143e+003, 2.749233e+001
1.272625e+003, 2.737209e+001
1.273107e+003, 2.763840e+001
1.273589e+003, 2.789838e+001
1.274072e+003, 2.792214e+001
1.274554e+003, 2.787401e+001
1.275036e+003, 2.780325e+001
1.275518e+003, 2.772436e+001
1.276000e+003, 2.758055e+001
1.276482e+003, 2.748581e+001
1.276964e+003, 2.767238e+001
1.277446e+003, 2.799950e+001
1.277929e+003, 2.796166e+001
1.278411e+003, 2.749172e+001
1.278893e+003, 2.737718e+001
1.279375e+003, 2.775875e+001
1.279857e+003, 2.796209e+001
1.280339e+003, 2.788631e+001
1.280821e+003, 2.780307e+001
1.281303e+003, 2.780276e+001
1.281786e+003, 2.789542e+001
1.282268e+003, 2.808636e+001
##END=



