##NAMES=Dondoellite
##RRUFFID=R140175
##IDEAL CHEMISTRY=Ca_2_Fe^2+^(PO_4_)_2_&#183;2H_2_O
##LOCALITY=Messel mine, Messel, Darmstadt, Hesse, Germany
##OWNER=RRUFF
##SOURCE=Rock Currier
##DESCRIPTION=Pale greenish white hemispherical or sheaflike aggregates of lamellar crystals, associated with anapaite (R141081). The cell parameters do not match messelite, but may be a related phase, perhaps a polytype. Needs more work.
##STATUS=The identification of this mineral is confirmed by single-crystal X-ray diffraction and chemical analysis.
##URL=rruff.info/R140175
##MEASURED CHEMISTRY=Ca_1.98_(Fe_0.88_Mg_0.09_)(P_1.01_O_4_)_2_Â·2H_2_O ; trace amount of Mn
1.218849e+002, 4.367284e+003
1.223670e+002, 4.404843e+003
1.228491e+002, 4.438723e+003
1.233312e+002, 4.468149e+003
1.238134e+002, 4.493219e+003
1.242955e+002, 4.515448e+003
1.247776e+002, 4.533500e+003
1.252597e+002, 4.549351e+003
1.257418e+002, 4.567088e+003
1.262239e+002, 4.590011e+003
1.267061e+002, 4.615449e+003
1.271882e+002, 4.637141e+003
1.276703e+002, 4.654719e+003
1.281524e+002, 4.673811e+003
1.286345e+002, 4.702063e+003
1.291167e+002, 4.737825e+003
1.295988e+002, 4.773619e+003
1.300809e+002, 4.806606e+003
1.305630e+002, 4.836924e+003
1.310451e+002, 4.864409e+003
1.315272e+002, 4.888191e+003
1.320094e+002, 4.911173e+003
1.324915e+002, 4.938003e+003
1.329736e+002, 4.968667e+003
1.334557e+002, 5.000411e+003
1.339378e+002, 5.031894e+003
1.344199e+002, 5.063049e+003
1.349021e+002, 5.092199e+003
1.353842e+002, 5.118407e+003
1.358663e+002, 5.143013e+003
1.363484e+002, 5.171116e+003
1.368305e+002, 5.203476e+003
1.373126e+002, 5.234552e+003
1.377948e+002, 5.259979e+003
1.382769e+002, 5.278914e+003
1.387590e+002, 5.297474e+003
1.392411e+002, 5.316184e+003
1.397232e+002, 5.334813e+003
1.402053e+002, 5.351708e+003
1.406875e+002, 5.367496e+003
1.411696e+002, 5.381008e+003
1.416517e+002, 5.390760e+003
1.421338e+002, 5.395206e+003
1.426159e+002, 5.401403e+003
1.430980e+002, 5.412177e+003
1.435802e+002, 5.426835e+003
1.440623e+002, 5.435450e+003
1.445444e+002, 5.435327e+003
1.450265e+002, 5.432697e+003
1.455086e+002, 5.432514e+003
1.459907e+002, 5.436322e+003
1.464729e+002, 5.440491e+003
1.469550e+002, 5.444854e+003
1.474371e+002, 5.449466e+003
1.479192e+002, 5.453389e+003
1.484013e+002, 5.455606e+003
1.488834e+002, 5.457667e+003
1.493656e+002, 5.461043e+003
1.498477e+002, 5.467265e+003
1.503298e+002, 5.472944e+003
1.508119e+002, 5.477329e+003
1.512940e+002, 5.480180e+003
1.517761e+002, 5.482644e+003
1.522583e+002, 5.483407e+003
1.527404e+002, 5.484176e+003
1.532225e+002, 5.486781e+003
1.537046e+002, 5.492942e+003
1.541867e+002, 5.499611e+003
1.546688e+002, 5.506245e+003
1.551510e+002, 5.513104e+003
1.556331e+002, 5.519423e+003
1.561152e+002, 5.523637e+003
1.565973e+002, 5.527696e+003
1.570794e+002, 5.534156e+003
1.575615e+002, 5.541136e+003
1.580437e+002, 5.552803e+003
1.585258e+002, 5.572098e+003
1.590079e+002, 5.602056e+003
1.594900e+002, 5.631381e+003
1.599721e+002, 5.653977e+003
1.604542e+002, 5.673983e+003
1.609364e+002, 5.698641e+003
1.614185e+002, 5.735518e+003
1.619006e+002, 5.774096e+003
1.623827e+002, 5.808175e+003
1.628648e+002, 5.835113e+003
1.633469e+002, 5.861115e+003
1.638291e+002, 5.894881e+003
1.643112e+002, 5.930051e+003
1.647933e+002, 5.952706e+003
1.652754e+002, 5.956735e+003
1.657575e+002, 5.945745e+003
1.662396e+002, 5.920370e+003
1.667218e+002, 5.874255e+003
1.672039e+002, 5.826431e+003
1.676860e+002, 5.787782e+003
1.681681e+002, 5.757157e+003
1.686502e+002, 5.729451e+003
1.691323e+002, 5.700215e+003
1.696145e+002, 5.673609e+003
1.700966e+002, 5.654485e+003
1.705787e+002, 5.646651e+003
1.710608e+002, 5.642507e+003
1.715429e+002, 5.633701e+003
1.720250e+002, 5.621993e+003
1.725072e+002, 5.616114e+003
1.729893e+002, 5.624599e+003
1.734714e+002, 5.641172e+003
1.739535e+002, 5.657384e+003
1.744356e+002, 5.671046e+003
1.749177e+002, 5.683287e+003
1.753999e+002, 5.694005e+003
1.758820e+002, 5.703732e+003
1.763641e+002, 5.715933e+003
1.768462e+002, 5.733444e+003
1.773283e+002, 5.755412e+003
1.778104e+002, 5.780331e+003
1.782926e+002, 5.807538e+003
1.787747e+002, 5.837478e+003
1.792568e+002, 5.872070e+003
1.797389e+002, 5.910876e+003
1.802210e+002, 5.950360e+003
1.807031e+002, 5.988782e+003
1.811853e+002, 6.025230e+003
1.816674e+002, 6.056422e+003
1.821495e+002, 6.081604e+003
1.826316e+002, 6.100562e+003
1.831137e+002, 6.112390e+003
1.835958e+002, 6.117156e+003
1.840780e+002, 6.114768e+003
1.845601e+002, 6.103274e+003
1.850422e+002, 6.083998e+003
1.855243e+002, 6.061414e+003
1.860064e+002, 6.034958e+003
1.864885e+002, 6.006831e+003
1.869707e+002, 5.983938e+003
1.874528e+002, 5.966354e+003
1.879349e+002, 5.951231e+003
1.884170e+002, 5.936861e+003
1.888991e+002, 5.922978e+003
1.893812e+002, 5.906931e+003
1.898634e+002, 5.885250e+003
1.903455e+002, 5.860845e+003
1.908276e+002, 5.844835e+003
1.913097e+002, 5.837807e+003
1.917918e+002, 5.835444e+003
1.922739e+002, 5.832947e+003
1.927561e+002, 5.830294e+003
1.932382e+002, 5.829933e+003
1.937203e+002, 5.833690e+003
1.942024e+002, 5.840485e+003
1.946845e+002, 5.845059e+003
1.951666e+002, 5.847383e+003
1.956488e+002, 5.846791e+003
1.961309e+002, 5.840252e+003
1.966130e+002, 5.827008e+003
1.970951e+002, 5.817877e+003
1.975772e+002, 5.818013e+003
1.980593e+002, 5.826361e+003
1.985415e+002, 5.831032e+003
1.990236e+002, 5.831428e+003
1.995057e+002, 5.830158e+003
1.999878e+002, 5.830247e+003
2.004699e+002, 5.831891e+003
2.009520e+002, 5.834933e+003
2.014342e+002, 5.839084e+003
2.019163e+002, 5.844563e+003
2.023984e+002, 5.853744e+003
2.028805e+002, 5.867379e+003
2.033626e+002, 5.883674e+003
2.038447e+002, 5.899715e+003
2.043269e+002, 5.914849e+003
2.048090e+002, 5.933366e+003
2.052911e+002, 5.957790e+003
2.057732e+002, 5.988372e+003
2.062553e+002, 6.015029e+003
2.067375e+002, 6.036542e+003
2.072196e+002, 6.055631e+003
2.077017e+002, 6.077126e+003
2.081838e+002, 6.102900e+003
2.086659e+002, 6.123774e+003
2.091480e+002, 6.135833e+003
2.096302e+002, 6.138549e+003
2.101123e+002, 6.139302e+003
2.105944e+002, 6.138275e+003
2.110765e+002, 6.134854e+003
2.115586e+002, 6.127411e+003
2.120407e+002, 6.114185e+003
2.125229e+002, 6.101690e+003
2.130050e+002, 6.092055e+003
2.134871e+002, 6.085503e+003
2.139692e+002, 6.079678e+003
2.144513e+002, 6.074479e+003
2.149334e+002, 6.070118e+003
2.154156e+002, 6.067295e+003
2.158977e+002, 6.067309e+003
2.163798e+002, 6.065679e+003
2.168619e+002, 6.060104e+003
2.173440e+002, 6.049688e+003
2.178261e+002, 6.043522e+003
2.183083e+002, 6.043337e+003
2.187904e+002, 6.045872e+003
2.192725e+002, 6.046725e+003
2.197546e+002, 6.045665e+003
2.202367e+002, 6.043687e+003
2.207188e+002, 6.040952e+003
2.212010e+002, 6.037347e+003
2.216831e+002, 6.033989e+003
2.221652e+002, 6.029888e+003
2.226473e+002, 6.027093e+003
2.231294e+002, 6.029059e+003
2.236115e+002, 6.038775e+003
2.240937e+002, 6.047378e+003
2.245758e+002, 6.052579e+003
2.250579e+002, 6.054055e+003
2.255400e+002, 6.054063e+003
2.260221e+002, 6.051896e+003
2.265042e+002, 6.048862e+003
2.269864e+002, 6.047134e+003
2.274685e+002, 6.048891e+003
2.279506e+002, 6.047512e+003
2.284327e+002, 6.040178e+003
2.289148e+002, 6.025553e+003
2.293969e+002, 6.013856e+003
2.298791e+002, 6.005345e+003
2.303612e+002, 5.999325e+003
2.308433e+002, 5.995516e+003
2.313254e+002, 5.996234e+003
2.318075e+002, 5.994536e+003
2.322896e+002, 5.987505e+003
2.327718e+002, 5.974125e+003
2.332539e+002, 5.965353e+003
2.337360e+002, 5.964380e+003
2.342181e+002, 5.965408e+003
2.347002e+002, 5.961247e+003
2.351823e+002, 5.947267e+003
2.356645e+002, 5.936874e+003
2.361466e+002, 5.934405e+003
2.366287e+002, 5.940897e+003
2.371108e+002, 5.943906e+003
2.375929e+002, 5.941960e+003
2.380750e+002, 5.938132e+003
2.385572e+002, 5.935298e+003
2.390393e+002, 5.932647e+003
2.395214e+002, 5.932764e+003
2.400035e+002, 5.936224e+003
2.404856e+002, 5.943133e+003
2.409677e+002, 5.952639e+003
2.414499e+002, 5.965728e+003
2.419320e+002, 5.980359e+003
2.424141e+002, 5.995271e+003
2.428962e+002, 6.012787e+003
2.433783e+002, 6.025469e+003
2.438604e+002, 6.028951e+003
2.443426e+002, 6.023111e+003
2.448247e+002, 6.027501e+003
2.453068e+002, 6.049881e+003
2.457889e+002, 6.073916e+003
2.462710e+002, 6.085123e+003
2.467531e+002, 6.076488e+003
2.472353e+002, 6.068745e+003
2.477174e+002, 6.065885e+003
2.481995e+002, 6.067545e+003
2.486816e+002, 6.065417e+003
2.491637e+002, 6.057586e+003
2.496458e+002, 6.048539e+003
2.501280e+002, 6.041981e+003
2.506101e+002, 6.038979e+003
2.510922e+002, 6.036679e+003
2.515743e+002, 6.034850e+003
2.520564e+002, 6.033651e+003
2.525385e+002, 6.033688e+003
2.530207e+002, 6.035469e+003
2.535028e+002, 6.037978e+003
2.539849e+002, 6.039937e+003
2.544670e+002, 6.039368e+003
2.549491e+002, 6.042996e+003
2.554312e+002, 6.052989e+003
2.559134e+002, 6.067688e+003
2.563955e+002, 6.079097e+003
2.568776e+002, 6.085362e+003
2.573597e+002, 6.090632e+003
2.578418e+002, 6.098216e+003
2.583239e+002, 6.111046e+003
2.588061e+002, 6.117221e+003
2.592882e+002, 6.112579e+003
2.597703e+002, 6.101048e+003
2.602524e+002, 6.098318e+003
2.607345e+002, 6.108420e+003
2.612166e+002, 6.120120e+003
2.616988e+002, 6.127313e+003
2.621809e+002, 6.128499e+003
2.626630e+002, 6.130382e+003
2.631451e+002, 6.133674e+003
2.636272e+002, 6.137954e+003
2.641093e+002, 6.141784e+003
2.645915e+002, 6.145253e+003
2.650736e+002, 6.148627e+003
2.655557e+002, 6.152737e+003
2.660378e+002, 6.158661e+003
2.665199e+002, 6.160412e+003
2.670020e+002, 6.155471e+003
2.674842e+002, 6.148325e+003
2.679663e+002, 6.149241e+003
2.684484e+002, 6.160629e+003
2.689305e+002, 6.172841e+003
2.694126e+002, 6.180477e+003
2.698947e+002, 6.181764e+003
2.703769e+002, 6.190190e+003
2.708590e+002, 6.208686e+003
2.713411e+002, 6.230328e+003
2.718232e+002, 6.241796e+003
2.723053e+002, 6.239853e+003
2.727874e+002, 6.239654e+003
2.732696e+002, 6.248817e+003
2.737517e+002, 6.268180e+003
2.742338e+002, 6.277528e+003
2.747159e+002, 6.273428e+003
2.751980e+002, 6.265801e+003
2.756801e+002, 6.269203e+003
2.761623e+002, 6.285474e+003
2.766444e+002, 6.301943e+003
2.771265e+002, 6.314326e+003
2.776086e+002, 6.323208e+003
2.780907e+002, 6.334704e+003
2.785728e+002, 6.349875e+003
2.790550e+002, 6.365293e+003
2.795371e+002, 6.376714e+003
2.800192e+002, 6.383922e+003
2.805013e+002, 6.391398e+003
2.809834e+002, 6.400347e+003
2.814655e+002, 6.410623e+003
2.819477e+002, 6.421021e+003
2.824298e+002, 6.431238e+003
2.829119e+002, 6.442636e+003
2.833940e+002, 6.457142e+003
2.838761e+002, 6.474650e+003
2.843582e+002, 6.491362e+003
2.848404e+002, 6.506542e+003
2.853225e+002, 6.520182e+003
2.858046e+002, 6.533488e+003
2.862867e+002, 6.546655e+003
2.867688e+002, 6.555536e+003
2.872509e+002, 6.553470e+003
2.877331e+002, 6.542024e+003
2.882152e+002, 6.535963e+003
2.886973e+002, 6.538905e+003
2.891794e+002, 6.546864e+003
2.896615e+002, 6.552988e+003
2.901436e+002, 6.557298e+003
2.906258e+002, 6.557376e+003
2.911079e+002, 6.550313e+003
2.915900e+002, 6.537355e+003
2.920721e+002, 6.523052e+003
2.925542e+002, 6.507246e+003
2.930363e+002, 6.492393e+003
2.935185e+002, 6.484641e+003
2.940006e+002, 6.482970e+003
2.944827e+002, 6.478589e+003
2.949648e+002, 6.462676e+003
2.954469e+002, 6.440208e+003
2.959290e+002, 6.426126e+003
2.964112e+002, 6.422642e+003
2.968933e+002, 6.421235e+003
2.973754e+002, 6.409386e+003
2.978575e+002, 6.390111e+003
2.983396e+002, 6.374366e+003
2.988217e+002, 6.370116e+003
2.993039e+002, 6.372203e+003
2.997860e+002, 6.371569e+003
3.002681e+002, 6.367792e+003
3.007502e+002, 6.363777e+003
3.012323e+002, 6.363657e+003
3.017144e+002, 6.365595e+003
3.021966e+002, 6.365161e+003
3.026787e+002, 6.356588e+003
3.031608e+002, 6.347026e+003
3.036429e+002, 6.346966e+003
3.041250e+002, 6.355960e+003
3.046071e+002, 6.364949e+003
3.050893e+002, 6.363831e+003
3.055714e+002, 6.358526e+003
3.060535e+002, 6.358965e+003
3.065356e+002, 6.372972e+003
3.070177e+002, 6.388808e+003
3.074998e+002, 6.395424e+003
3.079820e+002, 6.394018e+003
3.084641e+002, 6.390599e+003
3.089462e+002, 6.384117e+003
3.094283e+002, 6.379575e+003
3.099104e+002, 6.383671e+003
3.103925e+002, 6.402640e+003
3.108747e+002, 6.422065e+003
3.113568e+002, 6.431601e+003
3.118389e+002, 6.433614e+003
3.123210e+002, 6.434679e+003
3.128031e+002, 6.436022e+003
3.132852e+002, 6.438995e+003
3.137674e+002, 6.445384e+003
3.142495e+002, 6.456784e+003
3.147316e+002, 6.467362e+003
3.152137e+002, 6.473765e+003
3.156958e+002, 6.477390e+003
3.161779e+002, 6.480618e+003
3.166601e+002, 6.485012e+003
3.171422e+002, 6.488734e+003
3.176243e+002, 6.490402e+003
3.181064e+002, 6.489528e+003
3.185885e+002, 6.489050e+003
3.190706e+002, 6.490426e+003
3.195528e+002, 6.492611e+003
3.200349e+002, 6.494408e+003
3.205170e+002, 6.496802e+003
3.209991e+002, 6.497545e+003
3.214812e+002, 6.494301e+003
3.219633e+002, 6.486976e+003
3.224455e+002, 6.483036e+003
3.229276e+002, 6.487224e+003
3.234097e+002, 6.493505e+003
3.238918e+002, 6.497352e+003
3.243739e+002, 6.493276e+003
3.248560e+002, 6.491991e+003
3.253382e+002, 6.497477e+003
3.258203e+002, 6.508318e+003
3.263024e+002, 6.514946e+003
3.267845e+002, 6.513683e+003
3.272666e+002, 6.510233e+003
3.277488e+002, 6.507301e+003
3.282309e+002, 6.505746e+003
3.287130e+002, 6.503565e+003
3.291951e+002, 6.500249e+003
3.296772e+002, 6.496318e+003
3.301594e+002, 6.493135e+003
3.306415e+002, 6.491919e+003
3.311236e+002, 6.490134e+003
3.316057e+002, 6.486269e+003
3.320878e+002, 6.478128e+003
3.325699e+002, 6.474989e+003
3.330521e+002, 6.479673e+003
3.335342e+002, 6.487659e+003
3.340163e+002, 6.492457e+003
3.344984e+002, 6.493145e+003
3.349805e+002, 6.492417e+003
3.354626e+002, 6.489982e+003
3.359448e+002, 6.485652e+003
3.364269e+002, 6.486218e+003
3.369090e+002, 6.493575e+003
3.373911e+002, 6.503001e+003
3.378732e+002, 6.509784e+003
3.383553e+002, 6.513323e+003
3.388375e+002, 6.516271e+003
3.393196e+002, 6.518157e+003
3.398017e+002, 6.519797e+003
3.402838e+002, 6.526050e+003
3.407659e+002, 6.537964e+003
3.412480e+002, 6.550330e+003
3.417302e+002, 6.560955e+003
3.422123e+002, 6.569841e+003
3.426944e+002, 6.571002e+003
3.431765e+002, 6.561035e+003
3.436586e+002, 6.547038e+003
3.441407e+002, 6.545088e+003
3.446229e+002, 6.555434e+003
3.451050e+002, 6.566980e+003
3.455871e+002, 6.574603e+003
3.460692e+002, 6.578666e+003
3.465513e+002, 6.579654e+003
3.470334e+002, 6.577299e+003
3.475156e+002, 6.574091e+003
3.479977e+002, 6.573325e+003
3.484798e+002, 6.574677e+003
3.489619e+002, 6.576100e+003
3.494440e+002, 6.575982e+003
3.499261e+002, 6.575642e+003
3.504083e+002, 6.578297e+003
3.508904e+002, 6.583877e+003
3.513725e+002, 6.589470e+003
3.518546e+002, 6.590909e+003
3.523367e+002, 6.590499e+003
3.528188e+002, 6.593585e+003
3.533010e+002, 6.603918e+003
3.537831e+002, 6.615337e+003
3.542652e+002, 6.620478e+003
3.547473e+002, 6.620375e+003
3.552294e+002, 6.619950e+003
3.557115e+002, 6.622608e+003
3.561937e+002, 6.626511e+003
3.566758e+002, 6.629830e+003
3.571579e+002, 6.632497e+003
3.576400e+002, 6.634437e+003
3.581221e+002, 6.635217e+003
3.586042e+002, 6.635462e+003
3.590864e+002, 6.636275e+003
3.595685e+002, 6.639901e+003
3.600506e+002, 6.643166e+003
3.605327e+002, 6.643073e+003
3.610148e+002, 6.638851e+003
3.614969e+002, 6.636944e+003
3.619791e+002, 6.640544e+003
3.624612e+002, 6.647591e+003
3.629433e+002, 6.655884e+003
3.634254e+002, 6.666396e+003
3.639075e+002, 6.676245e+003
3.643896e+002, 6.683655e+003
3.648718e+002, 6.688792e+003
3.653539e+002, 6.695069e+003
3.658360e+002, 6.704837e+003
3.663181e+002, 6.714530e+003
3.668002e+002, 6.722088e+003
3.672823e+002, 6.722525e+003
3.677645e+002, 6.726653e+003
3.682466e+002, 6.740612e+003
3.687287e+002, 6.759114e+003
3.692108e+002, 6.767262e+003
3.696929e+002, 6.755568e+003
3.701750e+002, 6.743561e+003
3.706572e+002, 6.738132e+003
3.711393e+002, 6.741691e+003
3.716214e+002, 6.743892e+003
3.721035e+002, 6.743876e+003
3.725856e+002, 6.743371e+003
3.730677e+002, 6.744749e+003
3.735499e+002, 6.749243e+003
3.740320e+002, 6.753263e+003
3.745141e+002, 6.755392e+003
3.749962e+002, 6.755999e+003
3.754783e+002, 6.760952e+003
3.759604e+002, 6.772849e+003
3.764426e+002, 6.783533e+003
3.769247e+002, 6.784403e+003
3.774068e+002, 6.773555e+003
3.778889e+002, 6.768461e+003
3.783710e+002, 6.772960e+003
3.788531e+002, 6.782908e+003
3.793353e+002, 6.787226e+003
3.798174e+002, 6.785160e+003
3.802995e+002, 6.785507e+003
3.807816e+002, 6.794816e+003
3.812637e+002, 6.811585e+003
3.817458e+002, 6.825828e+003
3.822280e+002, 6.837119e+003
3.827101e+002, 6.845892e+003
3.831922e+002, 6.849779e+003
3.836743e+002, 6.850594e+003
3.841564e+002, 6.857316e+003
3.846385e+002, 6.878789e+003
3.851207e+002, 6.905743e+003
3.856028e+002, 6.921026e+003
3.860849e+002, 6.925076e+003
3.865670e+002, 6.926001e+003
3.870491e+002, 6.930151e+003
3.875313e+002, 6.935546e+003
3.880134e+002, 6.938454e+003
3.884955e+002, 6.936165e+003
3.889776e+002, 6.934647e+003
3.894597e+002, 6.939805e+003
3.899418e+002, 6.950239e+003
3.904240e+002, 6.961825e+003
3.909061e+002, 6.975193e+003
3.913882e+002, 6.987142e+003
3.918703e+002, 6.993014e+003
3.923524e+002, 6.990341e+003
3.928345e+002, 6.992884e+003
3.933167e+002, 7.010988e+003
3.937988e+002, 7.037105e+003
3.942809e+002, 7.061415e+003
3.947630e+002, 7.083844e+003
3.952451e+002, 7.101314e+003
3.957272e+002, 7.109038e+003
3.962094e+002, 7.107853e+003
3.966915e+002, 7.113272e+003
3.971736e+002, 7.134982e+003
3.976557e+002, 7.159901e+003
3.981378e+002, 7.180105e+003
3.986199e+002, 7.189321e+003
3.991021e+002, 7.200397e+003
3.995842e+002, 7.214302e+003
4.000663e+002, 7.230263e+003
4.005484e+002, 7.246215e+003
4.010305e+002, 7.258604e+003
4.015126e+002, 7.275550e+003
4.019948e+002, 7.301862e+003
4.024769e+002, 7.340603e+003
4.029590e+002, 7.370201e+003
4.034411e+002, 7.386063e+003
4.039232e+002, 7.398077e+003
4.044053e+002, 7.417815e+003
4.048875e+002, 7.447835e+003
4.053696e+002, 7.477095e+003
4.058517e+002, 7.503073e+003
4.063338e+002, 7.526903e+003
4.068159e+002, 7.553609e+003
4.072980e+002, 7.582794e+003
4.077802e+002, 7.617236e+003
4.082623e+002, 7.660640e+003
4.087444e+002, 7.712437e+003
4.092265e+002, 7.761717e+003
4.097086e+002, 7.807163e+003
4.101907e+002, 7.851131e+003
4.106729e+002, 7.897459e+003
4.111550e+002, 7.945902e+003
4.116371e+002, 7.994251e+003
4.121192e+002, 8.039005e+003
4.126013e+002, 8.082995e+003
4.130834e+002, 8.135769e+003
4.135656e+002, 8.196951e+003
4.140477e+002, 8.250821e+003
4.145298e+002, 8.280741e+003
4.150119e+002, 8.295600e+003
4.154940e+002, 8.311157e+003
4.159761e+002, 8.334587e+003
4.164583e+002, 8.355438e+003
4.169404e+002, 8.363946e+003
4.174225e+002, 8.362591e+003
4.179046e+002, 8.358069e+003
4.183867e+002, 8.357028e+003
4.188688e+002, 8.352202e+003
4.193510e+002, 8.339002e+003
4.198331e+002, 8.316809e+003
4.203152e+002, 8.286961e+003
4.207973e+002, 8.241916e+003
4.212794e+002, 8.192290e+003
4.217615e+002, 8.150087e+003
4.222437e+002, 8.125020e+003
4.227258e+002, 8.100706e+003
4.232079e+002, 8.071132e+003
4.236900e+002, 8.037111e+003
4.241721e+002, 8.008845e+003
4.246542e+002, 7.988786e+003
4.251364e+002, 7.973036e+003
4.256185e+002, 7.959951e+003
4.261006e+002, 7.954100e+003
4.265827e+002, 7.942241e+003
4.270648e+002, 7.920167e+003
4.275469e+002, 7.893974e+003
4.280291e+002, 7.875209e+003
4.285112e+002, 7.866306e+003
4.289933e+002, 7.859358e+003
4.294754e+002, 7.852431e+003
4.299575e+002, 7.845481e+003
4.304396e+002, 7.838555e+003
4.309218e+002, 7.831418e+003
4.314039e+002, 7.824905e+003
4.318860e+002, 7.822263e+003
4.323681e+002, 7.823645e+003
4.328502e+002, 7.815614e+003
4.333323e+002, 7.793353e+003
4.338145e+002, 7.765163e+003
4.342966e+002, 7.747657e+003
4.347787e+002, 7.740162e+003
4.352608e+002, 7.734133e+003
4.357429e+002, 7.724528e+003
4.362250e+002, 7.713021e+003
4.367072e+002, 7.703014e+003
4.371893e+002, 7.694590e+003
4.376714e+002, 7.688284e+003
4.381535e+002, 7.686298e+003
4.386356e+002, 7.686636e+003
4.391177e+002, 7.685974e+003
4.395999e+002, 7.684375e+003
4.400820e+002, 7.680216e+003
4.405641e+002, 7.669374e+003
4.410462e+002, 7.654138e+003
4.415283e+002, 7.642590e+003
4.420104e+002, 7.639022e+003
4.424926e+002, 7.640626e+003
4.429747e+002, 7.647243e+003
4.434568e+002, 7.661142e+003
4.439389e+002, 7.670872e+003
4.444210e+002, 7.670165e+003
4.449031e+002, 7.664031e+003
4.453853e+002, 7.658432e+003
4.458674e+002, 7.655408e+003
4.463495e+002, 7.651651e+003
4.468316e+002, 7.646213e+003
4.473137e+002, 7.639022e+003
4.477958e+002, 7.631275e+003
4.482780e+002, 7.624808e+003
4.487601e+002, 7.615913e+003
4.492422e+002, 7.602212e+003
4.497243e+002, 7.580206e+003
4.502064e+002, 7.562215e+003
4.506885e+002, 7.550313e+003
4.511707e+002, 7.540505e+003
4.516528e+002, 7.525944e+003
4.521349e+002, 7.505520e+003
4.526170e+002, 7.485618e+003
4.530991e+002, 7.467979e+003
4.535812e+002, 7.452666e+003
4.540634e+002, 7.441209e+003
4.545455e+002, 7.433862e+003
4.550276e+002, 7.428179e+003
4.555097e+002, 7.422384e+003
4.559918e+002, 7.416556e+003
4.564739e+002, 7.410823e+003
4.569561e+002, 7.404315e+003
4.574382e+002, 7.399860e+003
4.579203e+002, 7.403527e+003
4.584024e+002, 7.412723e+003
4.588845e+002, 7.419561e+003
4.593666e+002, 7.419081e+003
4.598488e+002, 7.414562e+003
4.603309e+002, 7.407497e+003
4.608130e+002, 7.398276e+003
4.612951e+002, 7.392558e+003
4.617772e+002, 7.399699e+003
4.622593e+002, 7.409461e+003
4.627415e+002, 7.411082e+003
4.632236e+002, 7.396194e+003
4.637057e+002, 7.383628e+003
4.641878e+002, 7.383301e+003
4.646699e+002, 7.390468e+003
4.651520e+002, 7.395938e+003
4.656342e+002, 7.397520e+003
4.661163e+002, 7.397118e+003
4.665984e+002, 7.394192e+003
4.670805e+002, 7.388132e+003
4.675626e+002, 7.385583e+003
4.680447e+002, 7.389692e+003
4.685269e+002, 7.394804e+003
4.690090e+002, 7.396977e+003
4.694911e+002, 7.394362e+003
4.699732e+002, 7.392268e+003
4.704553e+002, 7.390772e+003
4.709374e+002, 7.389971e+003
4.714196e+002, 7.391170e+003
4.719017e+002, 7.395892e+003
4.723838e+002, 7.396742e+003
4.728659e+002, 7.389218e+003
4.733480e+002, 7.374343e+003
4.738301e+002, 7.362556e+003
4.743123e+002, 7.353556e+003
4.747944e+002, 7.349341e+003
4.752765e+002, 7.353994e+003
4.757586e+002, 7.365715e+003
4.762407e+002, 7.377690e+003
4.767228e+002, 7.390563e+003
4.772050e+002, 7.398987e+003
4.776871e+002, 7.390448e+003
4.781692e+002, 7.370219e+003
4.786513e+002, 7.355098e+003
4.791334e+002, 7.357462e+003
4.796155e+002, 7.366772e+003
4.800977e+002, 7.374128e+003
4.805798e+002, 7.379046e+003
4.810619e+002, 7.381357e+003
4.815440e+002, 7.377670e+003
4.820261e+002, 7.372966e+003
4.825082e+002, 7.372018e+003
4.829904e+002, 7.379903e+003
4.834725e+002, 7.385721e+003
4.839546e+002, 7.384402e+003
4.844367e+002, 7.379073e+003
4.849188e+002, 7.376387e+003
4.854009e+002, 7.380157e+003
4.858831e+002, 7.383930e+003
4.863652e+002, 7.386056e+003
4.868473e+002, 7.386475e+003
4.873294e+002, 7.386575e+003
4.878115e+002, 7.384777e+003
4.882936e+002, 7.384569e+003
4.887758e+002, 7.389120e+003
4.892579e+002, 7.400366e+003
4.897400e+002, 7.409414e+003
4.902221e+002, 7.415194e+003
4.907042e+002, 7.418892e+003
4.911863e+002, 7.422232e+003
4.916685e+002, 7.425126e+003
4.921506e+002, 7.428867e+003
4.926327e+002, 7.434497e+003
4.931148e+002, 7.441259e+003
4.935970e+002, 7.445610e+003
4.940791e+002, 7.447593e+003
4.945612e+002, 7.450579e+003
4.950433e+002, 7.460169e+003
4.955254e+002, 7.472166e+003
4.960075e+002, 7.477183e+003
4.964897e+002, 7.470763e+003
4.969718e+002, 7.465761e+003
4.974539e+002, 7.476306e+003
4.979360e+002, 7.496116e+003
4.984181e+002, 7.513456e+003
4.989002e+002, 7.525386e+003
4.993824e+002, 7.531900e+003
4.998645e+002, 7.530472e+003
5.003466e+002, 7.522042e+003
5.008287e+002, 7.515679e+003
5.013108e+002, 7.513127e+003
5.017929e+002, 7.514257e+003
5.022751e+002, 7.519649e+003
5.027572e+002, 7.533953e+003
5.032393e+002, 7.543756e+003
5.037214e+002, 7.548363e+003
5.042035e+002, 7.548642e+003
5.046856e+002, 7.544801e+003
5.051678e+002, 7.532447e+003
5.056499e+002, 7.525189e+003
5.061320e+002, 7.526770e+003
5.066141e+002, 7.535584e+003
5.070962e+002, 7.543556e+003
5.075783e+002, 7.550985e+003
5.080605e+002, 7.556029e+003
5.085426e+002, 7.555742e+003
5.090247e+002, 7.550902e+003
5.095068e+002, 7.550530e+003
5.099889e+002, 7.555514e+003
5.104710e+002, 7.561713e+003
5.109532e+002, 7.564520e+003
5.114353e+002, 7.564742e+003
5.119174e+002, 7.564721e+003
5.123995e+002, 7.565251e+003
5.128816e+002, 7.565904e+003
5.133637e+002, 7.567355e+003
5.138458e+002, 7.568891e+003
5.143279e+002, 7.567995e+003
5.148101e+002, 7.560136e+003
5.152922e+002, 7.551921e+003
5.157743e+002, 7.547415e+003
5.162564e+002, 7.547031e+003
5.167385e+002, 7.550907e+003
5.172206e+002, 7.565458e+003
5.177028e+002, 7.580771e+003
5.181849e+002, 7.588787e+003
5.186670e+002, 7.574323e+003
5.191491e+002, 7.569996e+003
5.196312e+002, 7.583996e+003
5.201133e+002, 7.607943e+003
5.205955e+002, 7.623915e+003
5.210776e+002, 7.627075e+003
5.215597e+002, 7.630655e+003
5.220418e+002, 7.638496e+003
5.225239e+002, 7.650394e+003
5.230060e+002, 7.662929e+003
5.234882e+002, 7.676654e+003
5.239703e+002, 7.688776e+003
5.244524e+002, 7.695931e+003
5.249345e+002, 7.698620e+003
5.254166e+002, 7.704224e+003
5.258987e+002, 7.714805e+003
5.263809e+002, 7.723747e+003
5.268630e+002, 7.718306e+003
5.273451e+002, 7.703509e+003
5.278272e+002, 7.695450e+003
5.283093e+002, 7.705550e+003
5.287914e+002, 7.721013e+003
5.292736e+002, 7.728647e+003
5.297557e+002, 7.730067e+003
5.302378e+002, 7.731773e+003
5.307199e+002, 7.738537e+003
5.312020e+002, 7.746232e+003
5.316841e+002, 7.751935e+003
5.321663e+002, 7.755127e+003
5.326484e+002, 7.757942e+003
5.331305e+002, 7.759792e+003
5.336126e+002, 7.762166e+003
5.340947e+002, 7.766508e+003
5.345768e+002, 7.774079e+003
5.350590e+002, 7.781937e+003
5.355411e+002, 7.789715e+003
5.360232e+002, 7.797501e+003
5.365053e+002, 7.805659e+003
5.369874e+002, 7.814455e+003
5.374695e+002, 7.822067e+003
5.379517e+002, 7.826429e+003
5.384338e+002, 7.828055e+003
5.389159e+002, 7.835917e+003
5.393980e+002, 7.850930e+003
5.398801e+002, 7.866068e+003
5.403622e+002, 7.874217e+003
5.408444e+002, 7.877068e+003
5.413265e+002, 7.881974e+003
5.418086e+002, 7.890493e+003
5.422907e+002, 7.899564e+003
5.427728e+002, 7.904240e+003
5.432549e+002, 7.906987e+003
5.437371e+002, 7.912958e+003
5.442192e+002, 7.925245e+003
5.447013e+002, 7.940905e+003
5.451834e+002, 7.960927e+003
5.456655e+002, 7.983758e+003
5.461476e+002, 8.002105e+003
5.466298e+002, 8.010326e+003
5.471119e+002, 8.015626e+003
5.475940e+002, 8.021052e+003
5.480761e+002, 8.026256e+003
5.485582e+002, 8.034279e+003
5.490403e+002, 8.046445e+003
5.495225e+002, 8.060707e+003
5.500046e+002, 8.075587e+003
5.504867e+002, 8.092207e+003
5.509688e+002, 8.106677e+003
5.514509e+002, 8.118530e+003
5.519330e+002, 8.127979e+003
5.524152e+002, 8.136267e+003
5.528973e+002, 8.143922e+003
5.533794e+002, 8.145645e+003
5.538615e+002, 8.136031e+003
5.543436e+002, 8.119734e+003
5.548257e+002, 8.113833e+003
5.553079e+002, 8.118195e+003
5.557900e+002, 8.124751e+003
5.562721e+002, 8.128505e+003
5.567542e+002, 8.130177e+003
5.572363e+002, 8.131457e+003
5.577184e+002, 8.132988e+003
5.582006e+002, 8.131505e+003
5.586827e+002, 8.121285e+003
5.591648e+002, 8.107815e+003
5.596469e+002, 8.097860e+003
5.601290e+002, 8.100423e+003
5.606111e+002, 8.099619e+003
5.610933e+002, 8.085687e+003
5.615754e+002, 8.064224e+003
5.620575e+002, 8.050729e+003
5.625396e+002, 8.054259e+003
5.630217e+002, 8.058821e+003
5.635038e+002, 8.060041e+003
5.639860e+002, 8.057739e+003
5.644681e+002, 8.056651e+003
5.649502e+002, 8.057428e+003
5.654323e+002, 8.058197e+003
5.659144e+002, 8.056794e+003
5.663965e+002, 8.052837e+003
5.668787e+002, 8.052384e+003
5.673608e+002, 8.055905e+003
5.678429e+002, 8.062718e+003
5.683250e+002, 8.074180e+003
5.688071e+002, 8.088771e+003
5.692892e+002, 8.099271e+003
5.697714e+002, 8.102041e+003
5.702535e+002, 8.101333e+003
5.707356e+002, 8.101328e+003
5.712177e+002, 8.102038e+003
5.716998e+002, 8.103556e+003
5.721819e+002, 8.102975e+003
5.726641e+002, 8.105396e+003
5.731462e+002, 8.116071e+003
5.736283e+002, 8.135437e+003
5.741104e+002, 8.152886e+003
5.745926e+002, 8.165665e+003
5.750747e+002, 8.175246e+003
5.755568e+002, 8.182688e+003
5.760389e+002, 8.187413e+003
5.765211e+002, 8.190827e+003
5.770032e+002, 8.191242e+003
5.774853e+002, 8.191717e+003
5.779674e+002, 8.197295e+003
5.784495e+002, 8.210606e+003
5.789316e+002, 8.219646e+003
5.794138e+002, 8.219678e+003
5.798959e+002, 8.215915e+003
5.803780e+002, 8.225044e+003
5.808601e+002, 8.246939e+003
5.813422e+002, 8.266009e+003
5.818243e+002, 8.268851e+003
5.823065e+002, 8.264130e+003
5.827886e+002, 8.269357e+003
5.832707e+002, 8.284652e+003
5.837528e+002, 8.306735e+003
5.842349e+002, 8.343869e+003
5.847170e+002, 8.381154e+003
5.851992e+002, 8.399795e+003
5.856813e+002, 8.389660e+003
5.861634e+002, 8.383219e+003
5.866455e+002, 8.398203e+003
5.871276e+002, 8.423241e+003
5.876097e+002, 8.444311e+003
5.880919e+002, 8.457354e+003
5.885740e+002, 8.468375e+003
5.890561e+002, 8.475690e+003
5.895382e+002, 8.481953e+003
5.900203e+002, 8.496012e+003
5.905024e+002, 8.523357e+003
5.909846e+002, 8.546509e+003
5.914667e+002, 8.556385e+003
5.919488e+002, 8.555468e+003
5.924309e+002, 8.566685e+003
5.929130e+002, 8.591326e+003
5.933951e+002, 8.618343e+003
5.938773e+002, 8.636073e+003
5.943594e+002, 8.649150e+003
5.948415e+002, 8.671865e+003
5.953236e+002, 8.706041e+003
5.958057e+002, 8.744266e+003
5.962878e+002, 8.780713e+003
5.967700e+002, 8.816422e+003
5.972521e+002, 8.852686e+003
5.977342e+002, 8.892100e+003
5.982163e+002, 8.929195e+003
5.986984e+002, 8.964592e+003
5.991805e+002, 8.995286e+003
5.996627e+002, 9.016527e+003
6.001448e+002, 9.028813e+003
6.006269e+002, 9.029792e+003
6.011090e+002, 9.021086e+003
6.015911e+002, 9.002179e+003
6.020732e+002, 8.962622e+003
6.025554e+002, 8.893568e+003
6.030375e+002, 8.820938e+003
6.035196e+002, 8.757813e+003
6.040017e+002, 8.704659e+003
6.044838e+002, 8.655943e+003
6.049659e+002, 8.612554e+003
6.054481e+002, 8.571603e+003
6.059302e+002, 8.526487e+003
6.064123e+002, 8.481025e+003
6.068944e+002, 8.449629e+003
6.073765e+002, 8.438033e+003
6.078586e+002, 8.431205e+003
6.083408e+002, 8.413396e+003
6.088229e+002, 8.389529e+003
6.093050e+002, 8.369029e+003
6.097871e+002, 8.354627e+003
6.102692e+002, 8.345102e+003
6.107513e+002, 8.343775e+003
6.112335e+002, 8.347588e+003
6.117156e+002, 8.345721e+003
6.121977e+002, 8.325549e+003
6.126798e+002, 8.309810e+003
6.131619e+002, 8.307844e+003
6.136440e+002, 8.320542e+003
6.141262e+002, 8.326936e+003
6.146083e+002, 8.325154e+003
6.150904e+002, 8.320525e+003
6.155725e+002, 8.316056e+003
6.160546e+002, 8.311733e+003
6.165367e+002, 8.308798e+003
6.170189e+002, 8.307712e+003
6.175010e+002, 8.306330e+003
6.179831e+002, 8.300874e+003
6.184652e+002, 8.293071e+003
6.189473e+002, 8.287915e+003
6.194294e+002, 8.287119e+003
6.199116e+002, 8.288709e+003
6.203937e+002, 8.292420e+003
6.208758e+002, 8.297165e+003
6.213579e+002, 8.300697e+003
6.218400e+002, 8.302229e+003
6.223221e+002, 8.302337e+003
6.228043e+002, 8.301889e+003
6.232864e+002, 8.300537e+003
6.237685e+002, 8.295703e+003
6.242506e+002, 8.279494e+003
6.247327e+002, 8.268222e+003
6.252148e+002, 8.269748e+003
6.256970e+002, 8.285692e+003
6.261791e+002, 8.293952e+003
6.266612e+002, 8.292695e+003
6.271433e+002, 8.288085e+003
6.276254e+002, 8.284181e+003
6.281075e+002, 8.281010e+003
6.285897e+002, 8.279256e+003
6.290718e+002, 8.279115e+003
6.295539e+002, 8.280097e+003
6.300360e+002, 8.283896e+003
6.305181e+002, 8.288338e+003
6.310002e+002, 8.288198e+003
6.314824e+002, 8.278583e+003
6.319645e+002, 8.270048e+003
6.324466e+002, 8.270398e+003
6.329287e+002, 8.277222e+003
6.334108e+002, 8.285563e+003
6.338929e+002, 8.297833e+003
6.343751e+002, 8.307248e+003
6.348572e+002, 8.307701e+003
6.353393e+002, 8.301393e+003
6.358214e+002, 8.305835e+003
6.363035e+002, 8.329668e+003
6.367856e+002, 8.349520e+003
6.372678e+002, 8.353539e+003
6.377499e+002, 8.341518e+003
6.382320e+002, 8.336548e+003
6.387141e+002, 8.339377e+003
6.391962e+002, 8.344291e+003
6.396783e+002, 8.349097e+003
6.401605e+002, 8.352452e+003
6.406426e+002, 8.348279e+003
6.411247e+002, 8.335197e+003
6.416068e+002, 8.321496e+003
6.420889e+002, 8.312736e+003
6.425710e+002, 8.309157e+003
6.430532e+002, 8.311802e+003
6.435353e+002, 8.326053e+003
6.440174e+002, 8.338601e+003
6.444995e+002, 8.341310e+003
6.449816e+002, 8.339419e+003
6.454637e+002, 8.342150e+003
6.459459e+002, 8.360466e+003
6.464280e+002, 8.371076e+003
6.469101e+002, 8.366374e+003
6.473922e+002, 8.350869e+003
6.478743e+002, 8.343186e+003
6.483564e+002, 8.344188e+003
6.488386e+002, 8.348855e+003
6.493207e+002, 8.356013e+003
6.498028e+002, 8.364967e+003
6.502849e+002, 8.371897e+003
6.507670e+002, 8.376881e+003
6.512491e+002, 8.382035e+003
6.517313e+002, 8.392498e+003
6.522134e+002, 8.402831e+003
6.526955e+002, 8.403125e+003
6.531776e+002, 8.391653e+003
6.536597e+002, 8.381992e+003
6.541418e+002, 8.384337e+003
6.546240e+002, 8.390984e+003
6.551061e+002, 8.394667e+003
6.555882e+002, 8.390398e+003
6.560703e+002, 8.389685e+003
6.565524e+002, 8.396537e+003
6.570345e+002, 8.406240e+003
6.575167e+002, 8.413383e+003
6.579988e+002, 8.417256e+003
6.584809e+002, 8.419769e+003
6.589630e+002, 8.420632e+003
6.594451e+002, 8.420592e+003
6.599272e+002, 8.421618e+003
6.604094e+002, 8.423670e+003
6.608915e+002, 8.425536e+003
6.613736e+002, 8.427438e+003
6.618557e+002, 8.428607e+003
6.623378e+002, 8.426811e+003
6.628199e+002, 8.423023e+003
6.633021e+002, 8.420841e+003
6.637842e+002, 8.425533e+003
6.642663e+002, 8.430425e+003
6.647484e+002, 8.427951e+003
6.652305e+002, 8.417962e+003
6.657126e+002, 8.416646e+003
6.661948e+002, 8.436388e+003
6.666769e+002, 8.458945e+003
6.671590e+002, 8.474918e+003
6.676411e+002, 8.483318e+003
6.681232e+002, 8.486425e+003
6.686053e+002, 8.479805e+003
6.690875e+002, 8.474505e+003
6.695696e+002, 8.484211e+003
6.700517e+002, 8.507954e+003
6.705338e+002, 8.520115e+003
6.710159e+002, 8.515545e+003
6.714980e+002, 8.506646e+003
6.719802e+002, 8.511565e+003
6.724623e+002, 8.523994e+003
6.729444e+002, 8.529361e+003
6.734265e+002, 8.520744e+003
6.739086e+002, 8.508619e+003
6.743907e+002, 8.498617e+003
6.748729e+002, 8.490646e+003
6.753550e+002, 8.484436e+003
6.758371e+002, 8.484045e+003
6.763192e+002, 8.481593e+003
6.768013e+002, 8.471666e+003
6.772834e+002, 8.458178e+003
6.777656e+002, 8.456509e+003
6.782477e+002, 8.472884e+003
6.787298e+002, 8.486714e+003
6.792119e+002, 8.488188e+003
6.796940e+002, 8.480251e+003
6.801761e+002, 8.480869e+003
6.806583e+002, 8.490069e+003
6.811404e+002, 8.501830e+003
6.816225e+002, 8.514247e+003
6.821046e+002, 8.525254e+003
6.825867e+002, 8.528906e+003
6.830688e+002, 8.524795e+003
6.835510e+002, 8.523393e+003
6.840331e+002, 8.537035e+003
6.845152e+002, 8.552579e+003
6.849973e+002, 8.557753e+003
6.854794e+002, 8.545538e+003
6.859615e+002, 8.538771e+003
6.864437e+002, 8.548013e+003
6.869258e+002, 8.559832e+003
6.874079e+002, 8.563244e+003
6.878900e+002, 8.555032e+003
6.883721e+002, 8.547971e+003
6.888542e+002, 8.542489e+003
6.893364e+002, 8.539797e+003
6.898185e+002, 8.543786e+003
6.903006e+002, 8.553522e+003
6.907827e+002, 8.560640e+003
6.912648e+002, 8.563077e+003
6.917469e+002, 8.561511e+003
6.922291e+002, 8.552537e+003
6.927112e+002, 8.540189e+003
6.931933e+002, 8.533926e+003
6.936754e+002, 8.542929e+003
6.941575e+002, 8.553808e+003
6.946396e+002, 8.560351e+003
6.951218e+002, 8.563346e+003
6.956039e+002, 8.566371e+003
6.960860e+002, 8.572660e+003
6.965681e+002, 8.575559e+003
6.970502e+002, 8.571920e+003
6.975323e+002, 8.562743e+003
6.980145e+002, 8.557273e+003
6.984966e+002, 8.555813e+003
6.989787e+002, 8.557325e+003
6.994608e+002, 8.563126e+003
6.999429e+002, 8.571822e+003
7.004250e+002, 8.577963e+003
7.009072e+002, 8.581647e+003
7.013893e+002, 8.581943e+003
7.018714e+002, 8.574443e+003
7.023535e+002, 8.565268e+003
7.028356e+002, 8.560364e+003
7.033177e+002, 8.560370e+003
7.037999e+002, 8.565620e+003
7.042820e+002, 8.583028e+003
7.047641e+002, 8.601217e+003
7.052462e+002, 8.610462e+003
7.057283e+002, 8.603159e+003
7.062104e+002, 8.602382e+003
7.066926e+002, 8.610799e+003
7.071747e+002, 8.621899e+003
7.076568e+002, 8.627376e+003
7.081389e+002, 8.626693e+003
7.086210e+002, 8.630301e+003
7.091031e+002, 8.640029e+003
7.095853e+002, 8.653059e+003
7.100674e+002, 8.670764e+003
7.105495e+002, 8.688616e+003
7.110316e+002, 8.694780e+003
7.115137e+002, 8.676744e+003
7.119958e+002, 8.659419e+003
7.124780e+002, 8.663121e+003
7.129601e+002, 8.678563e+003
7.134422e+002, 8.688166e+003
7.139243e+002, 8.683807e+003
7.144064e+002, 8.677934e+003
7.148885e+002, 8.672390e+003
7.153707e+002, 8.667578e+003
7.158528e+002, 8.664816e+003
7.163349e+002, 8.664584e+003
7.168170e+002, 8.664794e+003
7.172991e+002, 8.664140e+003
7.177813e+002, 8.663580e+003
7.182634e+002, 8.666914e+003
7.187455e+002, 8.673771e+003
7.192276e+002, 8.680699e+003
7.197097e+002, 8.685688e+003
7.201918e+002, 8.689600e+003
7.206740e+002, 8.693265e+003
7.211561e+002, 8.696643e+003
7.216382e+002, 8.699978e+003
7.221203e+002, 8.702367e+003
7.226024e+002, 8.705559e+003
7.230845e+002, 8.712313e+003
7.235667e+002, 8.724040e+003
7.240488e+002, 8.727379e+003
7.245309e+002, 8.717646e+003
7.250130e+002, 8.707153e+003
7.254951e+002, 8.703721e+003
7.259772e+002, 8.707666e+003
7.264594e+002, 8.711761e+003
7.269415e+002, 8.716209e+003
7.274236e+002, 8.719351e+003
7.279057e+002, 8.718471e+003
7.283878e+002, 8.715470e+003
7.288699e+002, 8.713160e+003
7.293521e+002, 8.711496e+003
7.298342e+002, 8.713529e+003
7.303163e+002, 8.724850e+003
7.307984e+002, 8.738830e+003
7.312805e+002, 8.748970e+003
7.317626e+002, 8.750027e+003
7.322448e+002, 8.754597e+003
7.327269e+002, 8.767352e+003
7.332090e+002, 8.780726e+003
7.336911e+002, 8.784811e+003
7.341732e+002, 8.776470e+003
7.346553e+002, 8.774998e+003
7.351375e+002, 8.784148e+003
7.356196e+002, 8.797240e+003
7.361017e+002, 8.804219e+003
7.365838e+002, 8.806515e+003
7.370659e+002, 8.809189e+003
7.375480e+002, 8.813285e+003
7.380302e+002, 8.818865e+003
7.385123e+002, 8.829379e+003
7.389944e+002, 8.840709e+003
7.394765e+002, 8.845767e+003
7.399586e+002, 8.838151e+003
7.404407e+002, 8.828988e+003
7.409229e+002, 8.817727e+003
7.414050e+002, 8.807481e+003
7.418871e+002, 8.806273e+003
7.423692e+002, 8.817744e+003
7.428513e+002, 8.828369e+003
7.433334e+002, 8.835695e+003
7.438156e+002, 8.839329e+003
7.442977e+002, 8.835717e+003
7.447798e+002, 8.825919e+003
7.452619e+002, 8.818545e+003
7.457440e+002, 8.819396e+003
7.462261e+002, 8.823681e+003
7.467083e+002, 8.826207e+003
7.471904e+002, 8.827539e+003
7.476725e+002, 8.830009e+003
7.481546e+002, 8.835660e+003
7.486367e+002, 8.841381e+003
7.491188e+002, 8.845854e+003
7.496010e+002, 8.849053e+003
7.500831e+002, 8.851579e+003
7.505652e+002, 8.852596e+003
7.510473e+002, 8.854604e+003
7.515294e+002, 8.858952e+003
7.520115e+002, 8.865308e+003
7.524937e+002, 8.871812e+003
7.529758e+002, 8.878514e+003
7.534579e+002, 8.883325e+003
7.539400e+002, 8.880900e+003
7.544221e+002, 8.877676e+003
7.549042e+002, 8.885304e+003
7.553864e+002, 8.903404e+003
7.558685e+002, 8.916398e+003
7.563506e+002, 8.908450e+003
7.568327e+002, 8.899521e+003
7.573148e+002, 8.903774e+003
7.577969e+002, 8.925666e+003
7.582791e+002, 8.938446e+003
7.587612e+002, 8.938585e+003
7.592433e+002, 8.935031e+003
7.597254e+002, 8.931760e+003
7.602075e+002, 8.928685e+003
7.606896e+002, 8.933630e+003
7.611718e+002, 8.947689e+003
7.616539e+002, 8.959936e+003
7.621360e+002, 8.959369e+003
7.626181e+002, 8.951467e+003
7.631002e+002, 8.943605e+003
7.635823e+002, 8.936511e+003
7.640645e+002, 8.933381e+003
7.645466e+002, 8.941605e+003
7.650287e+002, 8.951053e+003
7.655108e+002, 8.952030e+003
7.659929e+002, 8.935313e+003
7.664750e+002, 8.932256e+003
7.669572e+002, 8.951280e+003
7.674393e+002, 8.972896e+003
7.679214e+002, 8.977101e+003
7.684035e+002, 8.963486e+003
7.688856e+002, 8.957307e+003
7.693677e+002, 8.961305e+003
7.698499e+002, 8.968182e+003
7.703320e+002, 8.969457e+003
7.708141e+002, 8.968352e+003
7.712962e+002, 8.971461e+003
7.717783e+002, 8.981832e+003
7.722604e+002, 8.990373e+003
7.727426e+002, 8.989822e+003
7.732247e+002, 8.986269e+003
7.737068e+002, 8.986066e+003
7.741889e+002, 8.992402e+003
7.746710e+002, 8.998357e+003
7.751531e+002, 9.004146e+003
7.756353e+002, 9.009467e+003
7.761174e+002, 9.014338e+003
7.765995e+002, 9.018802e+003
7.770816e+002, 9.020943e+003
7.775637e+002, 9.020237e+003
7.780458e+002, 9.018567e+003
7.785280e+002, 9.016524e+003
7.790101e+002, 9.015510e+003
7.794922e+002, 9.018381e+003
7.799743e+002, 9.027766e+003
7.804564e+002, 9.037313e+003
7.809385e+002, 9.044365e+003
7.814207e+002, 9.049773e+003
7.819028e+002, 9.054652e+003
7.823849e+002, 9.059191e+003
7.828670e+002, 9.062589e+003
7.833491e+002, 9.064236e+003
7.838312e+002, 9.065054e+003
7.843134e+002, 9.065842e+003
7.847955e+002, 9.066645e+003
7.852776e+002, 9.070197e+003
7.857597e+002, 9.077896e+003
7.862418e+002, 9.086281e+003
7.867239e+002, 9.092721e+003
7.872061e+002, 9.096518e+003
7.876882e+002, 9.096140e+003
7.881703e+002, 9.083765e+003
7.886524e+002, 9.077397e+003
7.891345e+002, 9.089575e+003
7.896166e+002, 9.110197e+003
7.900988e+002, 9.121773e+003
7.905809e+002, 9.119213e+003
7.910630e+002, 9.118344e+003
7.915451e+002, 9.121130e+003
7.920272e+002, 9.127041e+003
7.925093e+002, 9.136293e+003
7.929915e+002, 9.148386e+003
7.934736e+002, 9.158248e+003
7.939557e+002, 9.164589e+003
7.944378e+002, 9.167823e+003
7.949199e+002, 9.164771e+003
7.954020e+002, 9.159405e+003
7.958842e+002, 9.159100e+003
7.963663e+002, 9.170908e+003
7.968484e+002, 9.182151e+003
7.973305e+002, 9.188528e+003
7.978126e+002, 9.192186e+003
7.982947e+002, 9.196787e+003
7.987769e+002, 9.202647e+003
7.992590e+002, 9.208329e+003
7.997411e+002, 9.214654e+003
8.002232e+002, 9.218943e+003
8.007053e+002, 9.213521e+003
8.011874e+002, 9.201211e+003
8.016696e+002, 9.193386e+003
8.021517e+002, 9.195947e+003
8.026338e+002, 9.201932e+003
8.031159e+002, 9.208470e+003
8.035980e+002, 9.213994e+003
8.040801e+002, 9.215728e+003
8.045623e+002, 9.207694e+003
8.050444e+002, 9.202768e+003
8.055265e+002, 9.203908e+003
8.060086e+002, 9.208791e+003
8.064907e+002, 9.213759e+003
8.069728e+002, 9.219122e+003
8.074550e+002, 9.221025e+003
8.079371e+002, 9.216718e+003
8.084192e+002, 9.211773e+003
8.089013e+002, 9.216717e+003
8.093834e+002, 9.228396e+003
8.098655e+002, 9.238554e+003
8.103477e+002, 9.242380e+003
8.108298e+002, 9.246142e+003
8.113119e+002, 9.255056e+003
8.117940e+002, 9.265885e+003
8.122761e+002, 9.273129e+003
8.127582e+002, 9.275348e+003
8.132404e+002, 9.275055e+003
8.137225e+002, 9.271924e+003
8.142046e+002, 9.267158e+003
8.146867e+002, 9.262317e+003
8.151688e+002, 9.257607e+003
8.156509e+002, 9.254466e+003
8.161331e+002, 9.252818e+003
8.166152e+002, 9.254206e+003
8.170973e+002, 9.263330e+003
8.175794e+002, 9.276397e+003
8.180615e+002, 9.286540e+003
8.185436e+002, 9.290901e+003
8.190258e+002, 9.292369e+003
8.195079e+002, 9.287903e+003
8.199900e+002, 9.282408e+003
8.204721e+002, 9.284016e+003
8.209542e+002, 9.297225e+003
8.214363e+002, 9.305174e+003
8.219185e+002, 9.305283e+003
8.224006e+002, 9.300044e+003
8.228827e+002, 9.290139e+003
8.233648e+002, 9.277611e+003
8.238469e+002, 9.273027e+003
8.243290e+002, 9.281728e+003
8.248112e+002, 9.291597e+003
8.252933e+002, 9.292016e+003
8.257754e+002, 9.287478e+003
8.262575e+002, 9.284070e+003
8.267396e+002, 9.283162e+003
8.272217e+002, 9.284181e+003
8.277039e+002, 9.287943e+003
8.281860e+002, 9.293064e+003
8.286681e+002, 9.297584e+003
8.291502e+002, 9.301134e+003
8.296323e+002, 9.307563e+003
8.301144e+002, 9.318026e+003
8.305966e+002, 9.328327e+003
8.310787e+002, 9.330420e+003
8.315608e+002, 9.329080e+003
8.320429e+002, 9.335144e+003
8.325250e+002, 9.354002e+003
8.330071e+002, 9.370106e+003
8.334893e+002, 9.375367e+003
8.339714e+002, 9.373824e+003
8.344535e+002, 9.369438e+003
8.349356e+002, 9.360572e+003
8.354177e+002, 9.353086e+003
8.358998e+002, 9.346025e+003
8.363820e+002, 9.342834e+003
8.368641e+002, 9.350042e+003
8.373462e+002, 9.365834e+003
8.378283e+002, 9.377218e+003
8.383104e+002, 9.382874e+003
8.387925e+002, 9.384131e+003
8.392747e+002, 9.379789e+003
8.397568e+002, 9.372949e+003
8.402389e+002, 9.365850e+003
8.407210e+002, 9.356928e+003
8.412031e+002, 9.354549e+003
8.416852e+002, 9.365763e+003
8.421674e+002, 9.378569e+003
8.426495e+002, 9.384961e+003
8.431316e+002, 9.383383e+003
8.436137e+002, 9.383190e+003
8.440958e+002, 9.383965e+003
8.445779e+002, 9.387489e+003
8.450601e+002, 9.401186e+003
8.455422e+002, 9.416901e+003
8.460243e+002, 9.417130e+003
8.465064e+002, 9.400452e+003
8.469885e+002, 9.385811e+003
8.474706e+002, 9.387458e+003
8.479528e+002, 9.391613e+003
8.484349e+002, 9.387857e+003
8.489170e+002, 9.374205e+003
8.493991e+002, 9.370177e+003
8.498812e+002, 9.379568e+003
8.503633e+002, 9.389948e+003
8.508455e+002, 9.392840e+003
8.513276e+002, 9.390070e+003
8.518097e+002, 9.392085e+003
8.522918e+002, 9.398428e+003
8.527739e+002, 9.404968e+003
8.532560e+002, 9.406997e+003
8.537382e+002, 9.409131e+003
8.542203e+002, 9.417459e+003
8.547024e+002, 9.431045e+003
8.551845e+002, 9.437937e+003
8.556666e+002, 9.428494e+003
8.561487e+002, 9.420540e+003
8.566309e+002, 9.419990e+003
8.571130e+002, 9.425625e+003
8.575951e+002, 9.431154e+003
8.580772e+002, 9.436763e+003
8.585593e+002, 9.441160e+003
8.590414e+002, 9.443795e+003
8.595236e+002, 9.445250e+003
8.600057e+002, 9.446326e+003
8.604878e+002, 9.447027e+003
8.609699e+002, 9.447004e+003
8.614520e+002, 9.446130e+003
8.619341e+002, 9.444620e+003
8.624163e+002, 9.439683e+003
8.628984e+002, 9.434347e+003
8.633805e+002, 9.438055e+003
8.638626e+002, 9.453967e+003
8.643447e+002, 9.466229e+003
8.648268e+002, 9.470420e+003
8.653090e+002, 9.469162e+003
8.657911e+002, 9.462684e+003
8.662732e+002, 9.454416e+003
8.667553e+002, 9.455506e+003
8.672374e+002, 9.477518e+003
8.677195e+002, 9.498583e+003
8.682017e+002, 9.505221e+003
8.686838e+002, 9.503205e+003
8.691659e+002, 9.501330e+003
8.696480e+002, 9.501128e+003
8.701301e+002, 9.499701e+003
8.706122e+002, 9.496317e+003
8.710944e+002, 9.492681e+003
8.715765e+002, 9.492140e+003
8.720586e+002, 9.493929e+003
8.725407e+002, 9.492986e+003
8.730228e+002, 9.488120e+003
8.735049e+002, 9.482238e+003
8.739871e+002, 9.473126e+003
8.744692e+002, 9.466827e+003
8.749513e+002, 9.471783e+003
8.754334e+002, 9.498782e+003
8.759155e+002, 9.513694e+003
8.763976e+002, 9.506052e+003
8.768798e+002, 9.495364e+003
8.773619e+002, 9.497693e+003
8.778440e+002, 9.513548e+003
8.783261e+002, 9.525693e+003
8.788082e+002, 9.533567e+003
8.792903e+002, 9.537935e+003
8.797725e+002, 9.538416e+003
8.802546e+002, 9.536411e+003
8.807367e+002, 9.531765e+003
8.812188e+002, 9.524420e+003
8.817009e+002, 9.522698e+003
8.821830e+002, 9.536049e+003
8.826652e+002, 9.549346e+003
8.831473e+002, 9.553561e+003
8.836294e+002, 9.549294e+003
8.841115e+002, 9.556326e+003
8.845936e+002, 9.576545e+003
8.850757e+002, 9.594645e+003
8.855579e+002, 9.598698e+003
8.860400e+002, 9.596309e+003
8.865221e+002, 9.602166e+003
8.870042e+002, 9.614353e+003
8.874863e+002, 9.625299e+003
8.879684e+002, 9.632921e+003
8.884506e+002, 9.636769e+003
8.889327e+002, 9.633576e+003
8.894148e+002, 9.626294e+003
8.898969e+002, 9.625201e+003
8.903790e+002, 9.632584e+003
8.908611e+002, 9.638100e+003
8.913433e+002, 9.638829e+003
8.918254e+002, 9.636713e+003
8.923075e+002, 9.633876e+003
8.927896e+002, 9.631275e+003
8.932717e+002, 9.631986e+003
8.937538e+002, 9.640670e+003
8.942360e+002, 9.647574e+003
8.947181e+002, 9.643661e+003
8.952002e+002, 9.636123e+003
8.956823e+002, 9.635914e+003
8.961644e+002, 9.647857e+003
8.966465e+002, 9.657210e+003
8.971287e+002, 9.662595e+003
8.976108e+002, 9.666273e+003
8.980929e+002, 9.669716e+003
8.985750e+002, 9.673641e+003
8.990571e+002, 9.681252e+003
8.995392e+002, 9.693399e+003
9.000214e+002, 9.706096e+003
9.005035e+002, 9.717892e+003
9.009856e+002, 9.727862e+003
9.014677e+002, 9.734791e+003
9.019498e+002, 9.736881e+003
9.024319e+002, 9.740835e+003
9.029141e+002, 9.747087e+003
9.033962e+002, 9.754219e+003
9.038784e+002, 9.760615e+003
9.043605e+002, 9.766765e+003
9.048426e+002, 9.778398e+003
9.053247e+002, 9.795233e+003
9.058068e+002, 9.810431e+003
9.062889e+002, 9.821265e+003
9.067711e+002, 9.827379e+003
9.072532e+002, 9.823600e+003
9.077353e+002, 9.812498e+003
9.082174e+002, 9.814336e+003
9.086995e+002, 9.842028e+003
9.091816e+002, 9.866726e+003
9.096638e+002, 9.879486e+003
9.101459e+002, 9.884294e+003
9.106280e+002, 9.892510e+003
9.111101e+002, 9.903895e+003
9.115922e+002, 9.915877e+003
9.120743e+002, 9.926842e+003
9.125565e+002, 9.939176e+003
9.130386e+002, 9.955026e+003
9.135207e+002, 9.973857e+003
9.140028e+002, 9.994986e+003
9.144849e+002, 1.002051e+004
9.149670e+002, 1.004496e+004
9.154492e+002, 1.006650e+004
9.159313e+002, 1.008825e+004
9.164134e+002, 1.011324e+004
9.168955e+002, 1.014167e+004
9.173776e+002, 1.017673e+004
9.178597e+002, 1.021944e+004
9.183419e+002, 1.026460e+004
9.188240e+002, 1.030898e+004
9.193061e+002, 1.035211e+004
9.197882e+002, 1.039113e+004
9.202703e+002, 1.042256e+004
9.207524e+002, 1.046672e+004
9.212346e+002, 1.053387e+004
9.217167e+002, 1.060390e+004
9.221988e+002, 1.066428e+004
9.226809e+002, 1.071608e+004
9.231630e+002, 1.077887e+004
9.236451e+002, 1.085305e+004
9.241273e+002, 1.093401e+004
9.246094e+002, 1.102118e+004
9.250915e+002, 1.111196e+004
9.255736e+002, 1.120702e+004
9.260557e+002, 1.130370e+004
9.265378e+002, 1.139383e+004
9.270200e+002, 1.147560e+004
9.275021e+002, 1.154971e+004
9.279842e+002, 1.161720e+004
9.284663e+002, 1.167717e+004
9.289484e+002, 1.173094e+004
9.294305e+002, 1.177788e+004
9.299127e+002, 1.180387e+004
9.303948e+002, 1.180056e+004
9.308769e+002, 1.178254e+004
9.313590e+002, 1.176974e+004
9.318411e+002, 1.175061e+004
9.323232e+002, 1.170776e+004
9.328054e+002, 1.161670e+004
9.332875e+002, 1.153503e+004
9.337696e+002, 1.146879e+004
9.342517e+002, 1.141239e+004
9.347338e+002, 1.136039e+004
9.352159e+002, 1.131283e+004
9.356981e+002, 1.127765e+004
9.361802e+002, 1.125522e+004
9.366623e+002, 1.124947e+004
9.371444e+002, 1.126591e+004
9.376265e+002, 1.129920e+004
9.381086e+002, 1.134437e+004
9.385908e+002, 1.140120e+004
9.390729e+002, 1.147026e+004
9.395550e+002, 1.154746e+004
9.400371e+002, 1.164045e+004
9.405192e+002, 1.175207e+004
9.410013e+002, 1.188098e+004
9.414835e+002, 1.202649e+004
9.419656e+002, 1.218782e+004
9.424477e+002, 1.234512e+004
9.429298e+002, 1.250119e+004
9.434119e+002, 1.263638e+004
9.438940e+002, 1.274658e+004
9.443762e+002, 1.282166e+004
9.448583e+002, 1.283983e+004
9.453404e+002, 1.277522e+004
9.458225e+002, 1.268346e+004
9.463046e+002, 1.256790e+004
9.467867e+002, 1.242855e+004
9.472689e+002, 1.225607e+004
9.477510e+002, 1.205719e+004
9.482331e+002, 1.187452e+004
9.487152e+002, 1.171421e+004
9.491973e+002, 1.157303e+004
9.496794e+002, 1.145088e+004
9.501616e+002, 1.134474e+004
9.506437e+002, 1.125216e+004
9.511258e+002, 1.117497e+004
9.516079e+002, 1.110869e+004
9.520900e+002, 1.105571e+004
9.525721e+002, 1.100822e+004
9.530543e+002, 1.095979e+004
9.535364e+002, 1.091357e+004
9.540185e+002, 1.088795e+004
9.545006e+002, 1.087970e+004
9.549827e+002, 1.086688e+004
9.554648e+002, 1.083116e+004
9.559470e+002, 1.079322e+004
9.564291e+002, 1.076022e+004
9.569112e+002, 1.073526e+004
9.573933e+002, 1.072754e+004
9.578754e+002, 1.074691e+004
9.583575e+002, 1.075649e+004
9.588397e+002, 1.074723e+004
9.593218e+002, 1.073058e+004
9.598039e+002, 1.072293e+004
9.602860e+002, 1.072256e+004
9.607681e+002, 1.072688e+004
9.612502e+002, 1.073743e+004
9.617324e+002, 1.074317e+004
9.622145e+002, 1.074058e+004
9.626966e+002, 1.072853e+004
9.631787e+002, 1.070380e+004
9.636608e+002, 1.066352e+004
9.641429e+002, 1.063191e+004
9.646251e+002, 1.061079e+004
9.651072e+002, 1.059177e+004
9.655893e+002, 1.056814e+004
9.660714e+002, 1.054321e+004
9.665535e+002, 1.052644e+004
9.670356e+002, 1.051499e+004
9.675178e+002, 1.049335e+004
9.679999e+002, 1.044046e+004
9.684820e+002, 1.039156e+004
9.689641e+002, 1.036085e+004
9.694462e+002, 1.034268e+004
9.699283e+002, 1.032331e+004
9.704105e+002, 1.030212e+004
9.708926e+002, 1.028719e+004
9.713747e+002, 1.028146e+004
9.718568e+002, 1.027903e+004
9.723389e+002, 1.027261e+004
9.728210e+002, 1.026454e+004
9.733032e+002, 1.025873e+004
9.737853e+002, 1.025788e+004
9.742674e+002, 1.025402e+004
9.747495e+002, 1.024045e+004
9.752316e+002, 1.022901e+004
9.757137e+002, 1.022912e+004
9.761959e+002, 1.024070e+004
9.766780e+002, 1.024627e+004
9.771601e+002, 1.024580e+004
9.776422e+002, 1.024479e+004
9.781243e+002, 1.024812e+004
9.786064e+002, 1.025159e+004
9.790886e+002, 1.025067e+004
9.795707e+002, 1.024631e+004
9.800528e+002, 1.024336e+004
9.805349e+002, 1.024259e+004
9.810170e+002, 1.024388e+004
9.814991e+002, 1.024887e+004
9.819813e+002, 1.025401e+004
9.824634e+002, 1.025108e+004
9.829455e+002, 1.024192e+004
9.834276e+002, 1.023414e+004
9.839097e+002, 1.023031e+004
9.843918e+002, 1.022589e+004
9.848740e+002, 1.021600e+004
9.853561e+002, 1.020506e+004
9.858382e+002, 1.019643e+004
9.863203e+002, 1.018816e+004
9.868024e+002, 1.019298e+004
9.872845e+002, 1.021545e+004
9.877667e+002, 1.023545e+004
9.882488e+002, 1.023424e+004
9.887309e+002, 1.022177e+004
9.892130e+002, 1.022204e+004
9.896951e+002, 1.023274e+004
9.901772e+002, 1.024094e+004
9.906594e+002, 1.023480e+004
9.911415e+002, 1.023140e+004
9.916236e+002, 1.024108e+004
9.921057e+002, 1.025648e+004
9.925878e+002, 1.026087e+004
9.930699e+002, 1.025277e+004
9.935521e+002, 1.024963e+004
9.940342e+002, 1.025559e+004
9.945163e+002, 1.026462e+004
9.949984e+002, 1.027336e+004
9.954805e+002, 1.027904e+004
9.959626e+002, 1.027577e+004
9.964448e+002, 1.025785e+004
9.969269e+002, 1.025051e+004
9.974090e+002, 1.026317e+004
9.978911e+002, 1.027910e+004
9.983732e+002, 1.028975e+004
9.988553e+002, 1.029565e+004
9.993375e+002, 1.030167e+004
9.998196e+002, 1.030755e+004
1.000302e+003, 1.031029e+004
1.000784e+003, 1.030237e+004
1.001266e+003, 1.029647e+004
1.001748e+003, 1.030683e+004
1.002230e+003, 1.032558e+004
1.002712e+003, 1.033033e+004
1.003194e+003, 1.031042e+004
1.003677e+003, 1.030172e+004
1.004159e+003, 1.031055e+004
1.004641e+003, 1.032707e+004
1.005123e+003, 1.033939e+004
1.005605e+003, 1.034891e+004
1.006087e+003, 1.035965e+004
1.006569e+003, 1.037262e+004
1.007051e+003, 1.038310e+004
1.007533e+003, 1.038750e+004
1.008016e+003, 1.039001e+004
1.008498e+003, 1.039158e+004
1.008980e+003, 1.039266e+004
1.009462e+003, 1.040371e+004
1.009944e+003, 1.042563e+004
1.010426e+003, 1.044402e+004
1.010908e+003, 1.045049e+004
1.011390e+003, 1.045147e+004
1.011872e+003, 1.045222e+004
1.012355e+003, 1.045376e+004
1.012837e+003, 1.045801e+004
1.013319e+003, 1.046671e+004
1.013801e+003, 1.047758e+004
1.014283e+003, 1.049380e+004
1.014765e+003, 1.050752e+004
1.015247e+003, 1.050616e+004
1.015729e+003, 1.049365e+004
1.016212e+003, 1.049383e+004
1.016694e+003, 1.050850e+004
1.017176e+003, 1.052325e+004
1.017658e+003, 1.052938e+004
1.018140e+003, 1.053098e+004
1.018622e+003, 1.052954e+004
1.019104e+003, 1.052563e+004
1.019586e+003, 1.052331e+004
1.020068e+003, 1.052371e+004
1.020551e+003, 1.052052e+004
1.021033e+003, 1.051081e+004
1.021515e+003, 1.049806e+004
1.021997e+003, 1.048531e+004
1.022479e+003, 1.047444e+004
1.022961e+003, 1.046968e+004
1.023443e+003, 1.047536e+004
1.023925e+003, 1.048034e+004
1.024407e+003, 1.048231e+004
1.024890e+003, 1.048219e+004
1.025372e+003, 1.048016e+004
1.025854e+003, 1.047623e+004
1.026336e+003, 1.047215e+004
1.026818e+003, 1.046789e+004
1.027300e+003, 1.046347e+004
1.027782e+003, 1.045428e+004
1.028264e+003, 1.044897e+004
1.028747e+003, 1.045740e+004
1.029229e+003, 1.047618e+004
1.029711e+003, 1.049165e+004
1.030193e+003, 1.050385e+004
1.030675e+003, 1.051007e+004
1.031157e+003, 1.050758e+004
1.031639e+003, 1.050417e+004
1.032121e+003, 1.051437e+004
1.032604e+003, 1.053177e+004
1.033086e+003, 1.054028e+004
1.033568e+003, 1.053588e+004
1.034050e+003, 1.053313e+004
1.034532e+003, 1.054215e+004
1.035014e+003, 1.055084e+004
1.035496e+003, 1.055284e+004
1.035978e+003, 1.054849e+004
1.036460e+003, 1.054010e+004
1.036943e+003, 1.052789e+004
1.037425e+003, 1.051894e+004
1.037907e+003, 1.051876e+004
1.038389e+003, 1.052088e+004
1.038871e+003, 1.052003e+004
1.039353e+003, 1.051697e+004
1.039835e+003, 1.051293e+004
1.040317e+003, 1.050664e+004
1.040799e+003, 1.050224e+004
1.041282e+003, 1.049984e+004
1.041764e+003, 1.049928e+004
1.042246e+003, 1.050156e+004
1.042728e+003, 1.050530e+004
1.043210e+003, 1.050866e+004
1.043692e+003, 1.051096e+004
1.044174e+003, 1.050622e+004
1.044656e+003, 1.047815e+004
1.045139e+003, 1.045724e+004
1.045621e+003, 1.046084e+004
1.046103e+003, 1.047941e+004
1.046585e+003, 1.048758e+004
1.047067e+003, 1.048526e+004
1.047549e+003, 1.047978e+004
1.048031e+003, 1.047231e+004
1.048513e+003, 1.046551e+004
1.048995e+003, 1.046024e+004
1.049478e+003, 1.045845e+004
1.049960e+003, 1.046342e+004
1.050442e+003, 1.047860e+004
1.050924e+003, 1.048935e+004
1.051406e+003, 1.049440e+004
1.051888e+003, 1.049775e+004
1.052370e+003, 1.050093e+004
1.052852e+003, 1.050427e+004
1.053334e+003, 1.050794e+004
1.053817e+003, 1.051239e+004
1.054299e+003, 1.051947e+004
1.054781e+003, 1.053335e+004
1.055263e+003, 1.054535e+004
1.055745e+003, 1.055178e+004
1.056227e+003, 1.055550e+004
1.056709e+003, 1.055984e+004
1.057191e+003, 1.056478e+004
1.057674e+003, 1.056624e+004
1.058156e+003, 1.056368e+004
1.058638e+003, 1.056314e+004
1.059120e+003, 1.057447e+004
1.059602e+003, 1.058610e+004
1.060084e+003, 1.058564e+004
1.060566e+003, 1.057458e+004
1.061048e+003, 1.057288e+004
1.061531e+003, 1.058616e+004
1.062013e+003, 1.059485e+004
1.062495e+003, 1.059350e+004
1.062977e+003, 1.058644e+004
1.063459e+003, 1.057460e+004
1.063941e+003, 1.056389e+004
1.064423e+003, 1.056871e+004
1.064905e+003, 1.059921e+004
1.065387e+003, 1.061863e+004
1.065870e+003, 1.060178e+004
1.066352e+003, 1.058486e+004
1.066834e+003, 1.058715e+004
1.067316e+003, 1.060578e+004
1.067798e+003, 1.062058e+004
1.068280e+003, 1.063162e+004
1.068762e+003, 1.063979e+004
1.069244e+003, 1.064440e+004
1.069727e+003, 1.064751e+004
1.070209e+003, 1.064957e+004
1.070691e+003, 1.065120e+004
1.071173e+003, 1.065320e+004
1.071655e+003, 1.065514e+004
1.072137e+003, 1.066030e+004
1.072619e+003, 1.066985e+004
1.073101e+003, 1.067784e+004
1.073583e+003, 1.067569e+004
1.074066e+003, 1.067071e+004
1.074548e+003, 1.067442e+004
1.075030e+003, 1.068579e+004
1.075512e+003, 1.069209e+004
1.075994e+003, 1.068340e+004
1.076476e+003, 1.067993e+004
1.076958e+003, 1.068728e+004
1.077440e+003, 1.070003e+004
1.077922e+003, 1.070881e+004
1.078405e+003, 1.071451e+004
1.078887e+003, 1.071960e+004
1.079369e+003, 1.072434e+004
1.079851e+003, 1.073046e+004
1.080333e+003, 1.074042e+004
1.080815e+003, 1.075072e+004
1.081297e+003, 1.075888e+004
1.081779e+003, 1.076517e+004
1.082262e+003, 1.077067e+004
1.082744e+003, 1.077547e+004
1.083226e+003, 1.078562e+004
1.083708e+003, 1.080837e+004
1.084190e+003, 1.083033e+004
1.084672e+003, 1.083408e+004
1.085154e+003, 1.083081e+004
1.085636e+003, 1.083792e+004
1.086119e+003, 1.086384e+004
1.086601e+003, 1.088357e+004
1.087083e+003, 1.089624e+004
1.087565e+003, 1.090603e+004
1.088047e+003, 1.091205e+004
1.088529e+003, 1.091966e+004
1.089011e+003, 1.094009e+004
1.089493e+003, 1.097122e+004
1.089975e+003, 1.100376e+004
1.090458e+003, 1.103405e+004
1.090940e+003, 1.106646e+004
1.091422e+003, 1.110298e+004
1.091904e+003, 1.114016e+004
1.092386e+003, 1.116825e+004
1.092868e+003, 1.119139e+004
1.093350e+003, 1.122876e+004
1.093832e+003, 1.128299e+004
1.094314e+003, 1.134057e+004
1.094797e+003, 1.139911e+004
1.095279e+003, 1.145241e+004
1.095761e+003, 1.149379e+004
1.096243e+003, 1.152654e+004
1.096725e+003, 1.157029e+004
1.097207e+003, 1.162540e+004
1.097689e+003, 1.167113e+004
1.098171e+003, 1.170384e+004
1.098654e+003, 1.171766e+004
1.099136e+003, 1.169866e+004
1.099618e+003, 1.166245e+004
1.100100e+003, 1.162623e+004
1.100582e+003, 1.159372e+004
1.101064e+003, 1.155261e+004
1.101546e+003, 1.149964e+004
1.102028e+003, 1.144944e+004
1.102510e+003, 1.141466e+004
1.102993e+003, 1.138268e+004
1.103475e+003, 1.132486e+004
1.103957e+003, 1.125256e+004
1.104439e+003, 1.119173e+004
1.104921e+003, 1.115987e+004
1.105403e+003, 1.112878e+004
1.105885e+003, 1.109490e+004
1.106367e+003, 1.106307e+004
1.106849e+003, 1.103996e+004
1.107332e+003, 1.102327e+004
1.107814e+003, 1.100125e+004
1.108296e+003, 1.097491e+004
1.108778e+003, 1.095595e+004
1.109260e+003, 1.096154e+004
1.109742e+003, 1.096308e+004
1.110224e+003, 1.094323e+004
1.110706e+003, 1.091581e+004
1.111189e+003, 1.090737e+004
1.111671e+003, 1.091689e+004
1.112153e+003, 1.090802e+004
1.112635e+003, 1.087384e+004
1.113117e+003, 1.084507e+004
1.113599e+003, 1.085168e+004
1.114081e+003, 1.086996e+004
1.114563e+003, 1.088226e+004
1.115046e+003, 1.088845e+004
1.115528e+003, 1.089526e+004
1.116010e+003, 1.090240e+004
1.116492e+003, 1.091181e+004
1.116974e+003, 1.092476e+004
1.117456e+003, 1.093744e+004
1.117938e+003, 1.094534e+004
1.118420e+003, 1.094953e+004
1.118902e+003, 1.095071e+004
1.119385e+003, 1.094728e+004
1.119867e+003, 1.094684e+004
1.120349e+003, 1.095078e+004
1.120831e+003, 1.095352e+004
1.121313e+003, 1.095155e+004
1.121795e+003, 1.094685e+004
1.122277e+003, 1.094279e+004
1.122759e+003, 1.093970e+004
1.123241e+003, 1.093835e+004
1.123724e+003, 1.094107e+004
1.124206e+003, 1.094335e+004
1.124688e+003, 1.094763e+004
1.125170e+003, 1.094832e+004
1.125652e+003, 1.093824e+004
1.126134e+003, 1.092070e+004
1.126616e+003, 1.091058e+004
1.127098e+003, 1.090791e+004
1.127581e+003, 1.091047e+004
1.128063e+003, 1.092393e+004
1.128545e+003, 1.093463e+004
1.129027e+003, 1.093530e+004
1.129509e+003, 1.093100e+004
1.129991e+003, 1.092630e+004
1.130473e+003, 1.092118e+004
1.130955e+003, 1.092170e+004
1.131438e+003, 1.092824e+004
1.131920e+003, 1.093733e+004
1.132402e+003, 1.094854e+004
1.132884e+003, 1.095907e+004
1.133366e+003, 1.096496e+004
1.133848e+003, 1.096844e+004
1.134330e+003, 1.097893e+004
1.134812e+003, 1.099768e+004
1.135294e+003, 1.101281e+004
1.135776e+003, 1.102147e+004
1.136259e+003, 1.102782e+004
1.136741e+003, 1.103654e+004
1.137223e+003, 1.104504e+004
1.137705e+003, 1.105036e+004
1.138187e+003, 1.105193e+004
1.138669e+003, 1.105430e+004
1.139151e+003, 1.105755e+004
1.139633e+003, 1.106187e+004
1.140116e+003, 1.106809e+004
1.140598e+003, 1.107390e+004
1.141080e+003, 1.107498e+004
1.141562e+003, 1.107371e+004
1.142044e+003, 1.107442e+004
1.142526e+003, 1.107978e+004
1.143008e+003, 1.108027e+004
1.143490e+003, 1.107241e+004
1.143973e+003, 1.106636e+004
1.144455e+003, 1.106751e+004
1.144937e+003, 1.107438e+004
1.145419e+003, 1.108821e+004
1.145901e+003, 1.110460e+004
1.146383e+003, 1.111224e+004
1.146865e+003, 1.110084e+004
1.147347e+003, 1.109007e+004
1.147829e+003, 1.108171e+004
1.148312e+003, 1.107645e+004
1.148794e+003, 1.107419e+004
1.149276e+003, 1.107541e+004
1.149758e+003, 1.108484e+004
1.150240e+003, 1.110079e+004
1.150722e+003, 1.111424e+004
1.151204e+003, 1.111936e+004
1.151686e+003, 1.112270e+004
1.152168e+003, 1.112505e+004
1.152651e+003, 1.112792e+004
1.153133e+003, 1.113490e+004
1.153615e+003, 1.114502e+004
1.154097e+003, 1.114665e+004
1.154579e+003, 1.113935e+004
1.155061e+003, 1.113224e+004
1.155543e+003, 1.113014e+004
1.156025e+003, 1.113083e+004
1.156508e+003, 1.113444e+004
1.156990e+003, 1.113945e+004
1.157472e+003, 1.114187e+004
1.157954e+003, 1.114164e+004
1.158436e+003, 1.114980e+004
1.158918e+003, 1.116846e+004
1.159400e+003, 1.118807e+004
1.159882e+003, 1.120206e+004
1.160365e+003, 1.121300e+004
1.160847e+003, 1.122363e+004
1.161329e+003, 1.123308e+004
1.161811e+003, 1.123565e+004
1.162293e+003, 1.123078e+004
1.162775e+003, 1.122580e+004
1.163257e+003, 1.122282e+004
1.163739e+003, 1.121902e+004
1.164221e+003, 1.120778e+004
1.164703e+003, 1.119686e+004
1.165186e+003, 1.119611e+004
1.165668e+003, 1.120692e+004
1.166150e+003, 1.121137e+004
1.166632e+003, 1.120871e+004
1.167114e+003, 1.120375e+004
1.167596e+003, 1.119516e+004
1.168078e+003, 1.119179e+004
1.168560e+003, 1.121274e+004
1.169043e+003, 1.124235e+004
1.169525e+003, 1.125851e+004
1.170007e+003, 1.125353e+004
1.170489e+003, 1.124946e+004
1.170971e+003, 1.124467e+004
1.171453e+003, 1.124697e+004
1.171935e+003, 1.126455e+004
1.172417e+003, 1.128637e+004
1.172900e+003, 1.129131e+004
1.173382e+003, 1.128864e+004
1.173864e+003, 1.129585e+004
1.174346e+003, 1.132810e+004
1.174828e+003, 1.134707e+004
1.175310e+003, 1.134992e+004
1.175792e+003, 1.134569e+004
1.176274e+003, 1.133382e+004
1.176756e+003, 1.132293e+004
1.177239e+003, 1.133556e+004
1.177721e+003, 1.136264e+004
1.178203e+003, 1.138084e+004
1.178685e+003, 1.137909e+004
1.179167e+003, 1.137272e+004
1.179649e+003, 1.136200e+004
1.180131e+003, 1.134969e+004
1.180613e+003, 1.133466e+004
1.181095e+003, 1.132156e+004
1.181578e+003, 1.132486e+004
1.182060e+003, 1.134077e+004
1.182542e+003, 1.135124e+004
1.183024e+003, 1.134164e+004
1.183506e+003, 1.133769e+004
1.183988e+003, 1.134372e+004
1.184470e+003, 1.135498e+004
1.184952e+003, 1.136818e+004
1.185435e+003, 1.138154e+004
1.185917e+003, 1.139033e+004
1.186399e+003, 1.139441e+004
1.186881e+003, 1.139710e+004
1.187363e+003, 1.139288e+004
1.187845e+003, 1.139707e+004
1.188327e+003, 1.141585e+004
1.188809e+003, 1.143936e+004
1.189292e+003, 1.145408e+004
1.189774e+003, 1.146110e+004
1.190256e+003, 1.146286e+004
1.190738e+003, 1.145970e+004
1.191220e+003, 1.145678e+004
1.191702e+003, 1.145358e+004
1.192184e+003, 1.145507e+004
1.192666e+003, 1.146451e+004
1.193148e+003, 1.147755e+004
1.193630e+003, 1.148632e+004
1.194113e+003, 1.149143e+004
1.194595e+003, 1.149378e+004
1.195077e+003, 1.149337e+004
1.195559e+003, 1.149454e+004
1.196041e+003, 1.150603e+004
1.196523e+003, 1.151092e+004
1.197005e+003, 1.149885e+004
1.197487e+003, 1.147912e+004
1.197970e+003, 1.147906e+004
1.198452e+003, 1.149337e+004
1.198934e+003, 1.150182e+004
1.199416e+003, 1.149791e+004
1.199898e+003, 1.149592e+004
1.200380e+003, 1.150530e+004
1.200862e+003, 1.151444e+004
1.201344e+003, 1.151662e+004
1.201827e+003, 1.151478e+004
1.202309e+003, 1.152217e+004
1.202791e+003, 1.153559e+004
1.203273e+003, 1.154139e+004
1.203755e+003, 1.153361e+004
1.204237e+003, 1.152471e+004
1.204719e+003, 1.152048e+004
1.205201e+003, 1.151715e+004
1.205683e+003, 1.151215e+004
1.206166e+003, 1.150675e+004
1.206648e+003, 1.150593e+004
1.207130e+003, 1.150939e+004
1.207612e+003, 1.151611e+004
1.208094e+003, 1.152899e+004
1.208576e+003, 1.153779e+004
1.209058e+003, 1.153379e+004
1.209540e+003, 1.152803e+004
1.210022e+003, 1.152647e+004
1.210505e+003, 1.152894e+004
1.210987e+003, 1.153656e+004
1.211469e+003, 1.154801e+004
1.211951e+003, 1.155698e+004
1.212433e+003, 1.155778e+004
1.212915e+003, 1.156041e+004
1.213397e+003, 1.156979e+004
1.213879e+003, 1.158115e+004
1.214362e+003, 1.159193e+004
1.214844e+003, 1.160174e+004
1.215326e+003, 1.160699e+004
1.215808e+003, 1.160868e+004
1.216290e+003, 1.161222e+004
1.216772e+003, 1.162511e+004
1.217254e+003, 1.163351e+004
1.217736e+003, 1.162987e+004
1.218219e+003, 1.162365e+004
1.218701e+003, 1.162279e+004
1.219183e+003, 1.162647e+004
1.219665e+003, 1.162967e+004
1.220147e+003, 1.163227e+004
1.220629e+003, 1.163421e+004
1.221111e+003, 1.163283e+004
1.221593e+003, 1.163507e+004
1.222075e+003, 1.164868e+004
1.222557e+003, 1.166015e+004
1.223040e+003, 1.165240e+004
1.223522e+003, 1.163025e+004
1.224004e+003, 1.161568e+004
1.224486e+003, 1.160919e+004
1.224968e+003, 1.160917e+004
1.225450e+003, 1.162088e+004
1.225932e+003, 1.163116e+004
1.226414e+003, 1.163758e+004
1.226897e+003, 1.164049e+004
1.227379e+003, 1.163722e+004
1.227861e+003, 1.163081e+004
1.228343e+003, 1.163459e+004
1.228825e+003, 1.164731e+004
1.229307e+003, 1.165682e+004
1.229789e+003, 1.165585e+004
1.230271e+003, 1.165285e+004
1.230754e+003, 1.164891e+004
1.231236e+003, 1.164529e+004
1.231718e+003, 1.164244e+004
1.232200e+003, 1.164154e+004
1.232682e+003, 1.164806e+004
1.233164e+003, 1.166122e+004
1.233646e+003, 1.167152e+004
1.234128e+003, 1.166926e+004
1.234610e+003, 1.167322e+004
1.235093e+003, 1.169083e+004
1.235575e+003, 1.170890e+004
1.236057e+003, 1.170390e+004
1.236539e+003, 1.168752e+004
1.237021e+003, 1.168738e+004
1.237503e+003, 1.170411e+004
1.237985e+003, 1.172044e+004
1.238467e+003, 1.172954e+004
1.238949e+003, 1.173991e+004
1.239432e+003, 1.175475e+004
1.239914e+003, 1.176735e+004
1.240396e+003, 1.176247e+004
1.240878e+003, 1.175116e+004
1.241360e+003, 1.175694e+004
1.241842e+003, 1.178023e+004
1.242324e+003, 1.179582e+004
1.242806e+003, 1.179179e+004
1.243289e+003, 1.179526e+004
1.243771e+003, 1.181328e+004
1.244253e+003, 1.183518e+004
1.244735e+003, 1.184789e+004
1.245217e+003, 1.185504e+004
1.245699e+003, 1.186395e+004
1.246181e+003, 1.187455e+004
1.246663e+003, 1.187304e+004
1.247146e+003, 1.185070e+004
1.247628e+003, 1.184073e+004
1.248110e+003, 1.185272e+004
1.248592e+003, 1.187009e+004
1.249074e+003, 1.187232e+004
1.249556e+003, 1.186770e+004
1.250038e+003, 1.186452e+004
1.250520e+003, 1.186411e+004
1.251002e+003, 1.187014e+004
1.251484e+003, 1.188565e+004
1.251967e+003, 1.189356e+004
1.252449e+003, 1.188865e+004
1.252931e+003, 1.188083e+004
1.253413e+003, 1.188004e+004
1.253895e+003, 1.188251e+004
1.254377e+003, 1.188338e+004
1.254859e+003, 1.188316e+004
1.255341e+003, 1.189088e+004
1.255824e+003, 1.190786e+004
1.256306e+003, 1.192042e+004
1.256788e+003, 1.192486e+004
1.257270e+003, 1.192603e+004
1.257752e+003, 1.192483e+004
1.258234e+003, 1.192513e+004
1.258716e+003, 1.193145e+004
1.259198e+003, 1.194253e+004
1.259681e+003, 1.195458e+004
1.260163e+003, 1.196771e+004
1.260645e+003, 1.196860e+004
1.261127e+003, 1.195227e+004
1.261609e+003, 1.193704e+004
1.262091e+003, 1.194057e+004
1.262573e+003, 1.194683e+004
1.263055e+003, 1.194370e+004
1.263537e+003, 1.193479e+004
1.264020e+003, 1.193365e+004
1.264502e+003, 1.193947e+004
1.264984e+003, 1.194627e+004
1.265466e+003, 1.195299e+004
1.265948e+003, 1.195840e+004
1.266430e+003, 1.196232e+004
1.266912e+003, 1.196378e+004
1.267394e+003, 1.196174e+004
1.267876e+003, 1.195747e+004
1.268359e+003, 1.195239e+004
1.268841e+003, 1.194801e+004
1.269323e+003, 1.195221e+004
1.269805e+003, 1.196819e+004
1.270287e+003, 1.197874e+004
1.270769e+003, 1.196932e+004
1.271251e+003, 1.196249e+004
1.271733e+003, 1.196726e+004
1.272216e+003, 1.197737e+004
1.272698e+003, 1.197736e+004
1.273180e+003, 1.197240e+004
1.273662e+003, 1.197588e+004
1.274144e+003, 1.199195e+004
1.274626e+003, 1.200020e+004
1.275108e+003, 1.199269e+004
1.275590e+003, 1.198733e+004
1.276073e+003, 1.199121e+004
1.276555e+003, 1.199753e+004
1.277037e+003, 1.199009e+004
1.277519e+003, 1.197974e+004
1.278001e+003, 1.198512e+004
1.278483e+003, 1.201031e+004
1.278965e+003, 1.203132e+004
1.279447e+003, 1.204663e+004
1.279929e+003, 1.205675e+004
1.280411e+003, 1.206115e+004
1.280894e+003, 1.206141e+004
1.281376e+003, 1.205459e+004
1.281858e+003, 1.204791e+004
1.282340e+003, 1.205249e+004
1.282822e+003, 1.206824e+004
1.283304e+003, 1.207151e+004
1.283786e+003, 1.206081e+004
1.284268e+003, 1.205545e+004
1.284751e+003, 1.206219e+004
1.285233e+003, 1.206966e+004
1.285715e+003, 1.207000e+004
1.286197e+003, 1.206442e+004
1.286679e+003, 1.204766e+004
1.287161e+003, 1.202596e+004
1.287643e+003, 1.203147e+004
1.288125e+003, 1.206148e+004
1.288608e+003, 1.207734e+004
1.289090e+003, 1.206783e+004
1.289572e+003, 1.205729e+004
1.290054e+003, 1.206212e+004
1.290536e+003, 1.206890e+004
1.291018e+003, 1.206895e+004
1.291500e+003, 1.206649e+004
1.291982e+003, 1.207585e+004
1.292464e+003, 1.209309e+004
1.292947e+003, 1.210358e+004
1.293429e+003, 1.210381e+004
1.293911e+003, 1.210341e+004
1.294393e+003, 1.210374e+004
1.294875e+003, 1.210681e+004
1.295357e+003, 1.211241e+004
1.295839e+003, 1.212107e+004
1.296321e+003, 1.213954e+004
1.296803e+003, 1.216194e+004
1.297286e+003, 1.217622e+004
1.297768e+003, 1.218023e+004
1.298250e+003, 1.218017e+004
1.298732e+003, 1.217484e+004
1.299214e+003, 1.217163e+004
1.299696e+003, 1.217333e+004
1.300178e+003, 1.217722e+004
##END=



