##NAMES=Edwindavisite
##RRUFFID=R230005
##IDEAL CHEMISTRY=Cu^2+^((C_2_)^6+^O_4_)(N^3-^H_3_)
##LOCALITY=125' Level, Rowley mine, Maricopa County, Arizona, USA
##OWNER=RRUFF
##SOURCE=Joe Marty
##DESCRIPTION=Radiating clusters of bladed or prismatic grass-green crystals, associated with blue ammineite. Type sample
##STATUS=The identification of this mineral is confirmed by single-crystal X-ray diffraction and chemical analysis.
##URL=rruff.info/R230005
8.803156e+001, 0.000000e+000
8.851367e+001, 1.254804e+003
8.899579e+001, 1.257571e+003
8.947791e+001, 1.259616e+003
8.996002e+001, 1.260572e+003
9.044214e+001, 1.261605e+003
9.092426e+001, 1.270179e+003
9.140637e+001, 1.279599e+003
9.188849e+001, 1.274017e+003
9.237061e+001, 1.247187e+003
9.285272e+001, 1.204923e+003
9.333484e+001, 1.153627e+003
9.381696e+001, 1.092855e+003
9.429907e+001, 1.031917e+003
9.478119e+001, 9.769388e+002
9.526331e+001, 9.290806e+002
9.574542e+001, 8.906729e+002
9.622754e+001, 8.640436e+002
9.670966e+001, 8.478488e+002
9.719177e+001, 8.354733e+002
9.767389e+001, 8.271979e+002
9.815601e+001, 8.219305e+002
9.863812e+001, 8.187225e+002
9.912024e+001, 8.180049e+002
9.960236e+001, 8.171705e+002
1.000845e+002, 8.141241e+002
1.005666e+002, 8.076569e+002
1.010487e+002, 8.059274e+002
1.015308e+002, 8.095694e+002
1.020129e+002, 8.175867e+002
1.024950e+002, 8.270169e+002
1.029772e+002, 8.374115e+002
1.034593e+002, 8.499471e+002
1.039414e+002, 8.655864e+002
1.044235e+002, 8.846677e+002
1.049056e+002, 9.058322e+002
1.053877e+002, 9.308190e+002
1.058699e+002, 9.589006e+002
1.063520e+002, 9.815320e+002
1.068341e+002, 9.998461e+002
1.073162e+002, 1.012307e+003
1.077983e+002, 1.017840e+003
1.082804e+002, 1.014212e+003
1.087626e+002, 1.006627e+003
1.092447e+002, 9.943449e+002
1.097268e+002, 9.765226e+002
1.102089e+002, 9.610965e+002
1.106910e+002, 9.512567e+002
1.111731e+002, 9.428992e+002
1.116553e+002, 9.320322e+002
1.121374e+002, 9.177009e+002
1.126195e+002, 9.011974e+002
1.131016e+002, 8.816324e+002
1.135837e+002, 8.574342e+002
1.140658e+002, 8.362115e+002
1.145480e+002, 8.207808e+002
1.150301e+002, 8.092697e+002
1.155122e+002, 7.991604e+002
1.159943e+002, 7.903874e+002
1.164764e+002, 7.819924e+002
1.169585e+002, 7.731403e+002
1.174407e+002, 7.626471e+002
1.179228e+002, 7.536323e+002
1.184049e+002, 7.482538e+002
1.188870e+002, 7.456858e+002
1.193691e+002, 7.436285e+002
1.198512e+002, 7.405371e+002
1.203334e+002, 7.374927e+002
1.208155e+002, 7.357419e+002
1.212976e+002, 7.366830e+002
1.217797e+002, 7.375994e+002
1.222618e+002, 7.359816e+002
1.227439e+002, 7.320889e+002
1.232261e+002, 7.277155e+002
1.237082e+002, 7.241443e+002
1.241903e+002, 7.209916e+002
1.246724e+002, 7.176569e+002
1.251545e+002, 7.135693e+002
1.256366e+002, 7.093849e+002
1.261188e+002, 7.061025e+002
1.266009e+002, 7.037279e+002
1.270830e+002, 7.017084e+002
1.275651e+002, 6.993842e+002
1.280472e+002, 6.969418e+002
1.285293e+002, 6.949821e+002
1.290115e+002, 6.941200e+002
1.294936e+002, 6.939379e+002
1.299757e+002, 6.929125e+002
1.304578e+002, 6.908214e+002
1.309399e+002, 6.888958e+002
1.314220e+002, 6.891458e+002
1.319042e+002, 6.915058e+002
1.323863e+002, 6.936771e+002
1.328684e+002, 6.939666e+002
1.333505e+002, 6.926544e+002
1.338326e+002, 6.934572e+002
1.343147e+002, 6.971061e+002
1.347969e+002, 7.018586e+002
1.352790e+002, 7.043469e+002
1.357611e+002, 7.042133e+002
1.362432e+002, 7.037010e+002
1.367253e+002, 7.040304e+002
1.372074e+002, 7.053344e+002
1.376896e+002, 7.065104e+002
1.381717e+002, 7.076688e+002
1.386538e+002, 7.085754e+002
1.391359e+002, 7.081889e+002
1.396180e+002, 7.057700e+002
1.401001e+002, 7.036464e+002
1.405823e+002, 7.036185e+002
1.410644e+002, 7.068802e+002
1.415465e+002, 7.086750e+002
1.420286e+002, 7.077355e+002
1.425107e+002, 7.047090e+002
1.429928e+002, 7.042685e+002
1.434750e+002, 7.083738e+002
1.439571e+002, 7.128746e+002
1.444392e+002, 7.143617e+002
1.449213e+002, 7.097645e+002
1.454034e+002, 7.073610e+002
1.458855e+002, 7.088354e+002
1.463677e+002, 7.142842e+002
1.468498e+002, 7.190724e+002
1.473319e+002, 7.221813e+002
1.478140e+002, 7.252164e+002
1.482961e+002, 7.295901e+002
1.487782e+002, 7.371426e+002
1.492604e+002, 7.439713e+002
1.497425e+002, 7.490522e+002
1.502246e+002, 7.518610e+002
1.507067e+002, 7.558127e+002
1.511888e+002, 7.611805e+002
1.516709e+002, 7.676283e+002
1.521531e+002, 7.748171e+002
1.526352e+002, 7.838046e+002
1.531173e+002, 7.924986e+002
1.535994e+002, 8.005131e+002
1.540815e+002, 8.079063e+002
1.545636e+002, 8.141870e+002
1.550458e+002, 8.174478e+002
1.555279e+002, 8.199144e+002
1.560100e+002, 8.246801e+002
1.564921e+002, 8.369767e+002
1.569742e+002, 8.480347e+002
1.574563e+002, 8.536294e+002
1.579385e+002, 8.509401e+002
1.584206e+002, 8.494935e+002
1.589027e+002, 8.527927e+002
1.593848e+002, 8.590975e+002
1.598669e+002, 8.651876e+002
1.603490e+002, 8.700020e+002
1.608312e+002, 8.743531e+002
1.613133e+002, 8.788303e+002
1.617954e+002, 8.837986e+002
1.622775e+002, 8.882765e+002
1.627596e+002, 8.913698e+002
1.632417e+002, 8.935643e+002
1.637238e+002, 8.961041e+002
1.642060e+002, 9.002625e+002
1.646881e+002, 9.045801e+002
1.651702e+002, 9.079595e+002
1.656523e+002, 9.099961e+002
1.661344e+002, 9.112911e+002
1.666165e+002, 9.119767e+002
1.670987e+002, 9.121532e+002
1.675808e+002, 9.121789e+002
1.680629e+002, 9.124537e+002
1.685450e+002, 9.126175e+002
1.690271e+002, 9.124363e+002
1.695092e+002, 9.126131e+002
1.699914e+002, 9.114865e+002
1.704735e+002, 9.067173e+002
1.709556e+002, 8.989476e+002
1.714377e+002, 8.914601e+002
1.719198e+002, 8.861758e+002
1.724019e+002, 8.825947e+002
1.728841e+002, 8.802539e+002
1.733662e+002, 8.806245e+002
1.738483e+002, 8.806128e+002
1.743304e+002, 8.763140e+002
1.748125e+002, 8.679867e+002
1.752946e+002, 8.589449e+002
1.757768e+002, 8.511467e+002
1.762589e+002, 8.443698e+002
1.767410e+002, 8.384208e+002
1.772231e+002, 8.333633e+002
1.777052e+002, 8.288556e+002
1.781873e+002, 8.242805e+002
1.786695e+002, 8.196306e+002
1.791516e+002, 8.156525e+002
1.796337e+002, 8.134396e+002
1.801158e+002, 8.125298e+002
1.805979e+002, 8.116588e+002
1.810800e+002, 8.105035e+002
1.815622e+002, 8.090424e+002
1.820443e+002, 8.066982e+002
1.825264e+002, 8.033314e+002
1.830085e+002, 8.007961e+002
1.834906e+002, 8.020020e+002
1.839727e+002, 8.060909e+002
1.844549e+002, 8.090986e+002
1.849370e+002, 8.093727e+002
1.854191e+002, 8.074117e+002
1.859012e+002, 8.043248e+002
1.863833e+002, 8.000023e+002
1.868654e+002, 7.953911e+002
1.873476e+002, 7.923565e+002
1.878297e+002, 7.905834e+002
1.883118e+002, 7.872250e+002
1.887939e+002, 7.800196e+002
1.892760e+002, 7.700104e+002
1.897581e+002, 7.624556e+002
1.902403e+002, 7.577476e+002
1.907224e+002, 7.537789e+002
1.912045e+002, 7.473619e+002
1.916866e+002, 7.385767e+002
1.921687e+002, 7.301400e+002
1.926508e+002, 7.234850e+002
1.931330e+002, 7.184193e+002
1.936151e+002, 7.128482e+002
1.940972e+002, 7.064898e+002
1.945793e+002, 7.003048e+002
1.950614e+002, 6.959918e+002
1.955435e+002, 6.936703e+002
1.960257e+002, 6.913886e+002
1.965078e+002, 6.880934e+002
1.969899e+002, 6.837762e+002
1.974720e+002, 6.803207e+002
1.979541e+002, 6.777956e+002
1.984362e+002, 6.759598e+002
1.989184e+002, 6.748531e+002
1.994005e+002, 6.747653e+002
1.998826e+002, 6.736619e+002
2.003647e+002, 6.697479e+002
2.008468e+002, 6.626412e+002
2.013289e+002, 6.585906e+002
2.018111e+002, 6.583303e+002
2.022932e+002, 6.601860e+002
2.027753e+002, 6.614437e+002
2.032574e+002, 6.621182e+002
2.037395e+002, 6.621422e+002
2.042216e+002, 6.612208e+002
2.047038e+002, 6.591351e+002
2.051859e+002, 6.575093e+002
2.056680e+002, 6.561148e+002
2.061501e+002, 6.554357e+002
2.066322e+002, 6.570087e+002
2.071143e+002, 6.617809e+002
2.075965e+002, 6.657576e+002
2.080786e+002, 6.665533e+002
2.085607e+002, 6.631312e+002
2.090428e+002, 6.618324e+002
2.095249e+002, 6.633394e+002
2.100070e+002, 6.664553e+002
2.104892e+002, 6.687291e+002
2.109713e+002, 6.700302e+002
2.114534e+002, 6.708461e+002
2.119355e+002, 6.712089e+002
2.124176e+002, 6.708082e+002
2.128997e+002, 6.712604e+002
2.133819e+002, 6.728333e+002
2.138640e+002, 6.751228e+002
2.143461e+002, 6.774534e+002
2.148282e+002, 6.801112e+002
2.153103e+002, 6.822318e+002
2.157924e+002, 6.832902e+002
2.162746e+002, 6.828000e+002
2.167567e+002, 6.827710e+002
2.172388e+002, 6.830642e+002
2.177209e+002, 6.838942e+002
2.182030e+002, 6.859689e+002
2.186851e+002, 6.900403e+002
2.191673e+002, 6.938792e+002
2.196494e+002, 6.962772e+002
2.201315e+002, 6.964249e+002
2.206136e+002, 6.975017e+002
2.210957e+002, 6.997637e+002
2.215778e+002, 7.028524e+002
2.220600e+002, 7.058087e+002
2.225421e+002, 7.085756e+002
2.230242e+002, 7.113771e+002
2.235063e+002, 7.142842e+002
2.239884e+002, 7.171060e+002
2.244705e+002, 7.205455e+002
2.249527e+002, 7.248530e+002
2.254348e+002, 7.297011e+002
2.259169e+002, 7.341093e+002
2.263990e+002, 7.378887e+002
2.268811e+002, 7.416192e+002
2.273632e+002, 7.454469e+002
2.278454e+002, 7.493040e+002
2.283275e+002, 7.534935e+002
2.288096e+002, 7.576183e+002
2.292917e+002, 7.622727e+002
2.297738e+002, 7.687733e+002
2.302559e+002, 7.781223e+002
2.307381e+002, 7.876796e+002
2.312202e+002, 7.962102e+002
2.317023e+002, 8.029891e+002
2.321844e+002, 8.105853e+002
2.326665e+002, 8.185123e+002
2.331486e+002, 8.274160e+002
2.336308e+002, 8.388809e+002
2.341129e+002, 8.542088e+002
2.345950e+002, 8.700443e+002
2.350771e+002, 8.852648e+002
2.355592e+002, 8.999635e+002
2.360413e+002, 9.137322e+002
2.365235e+002, 9.265565e+002
2.370056e+002, 9.385881e+002
2.374877e+002, 9.503638e+002
2.379698e+002, 9.622853e+002
2.384519e+002, 9.731283e+002
2.389340e+002, 9.825197e+002
2.394162e+002, 9.905529e+002
2.398983e+002, 9.969727e+002
2.403804e+002, 1.002735e+003
2.408625e+002, 1.006419e+003
2.413446e+002, 1.005324e+003
2.418267e+002, 9.979354e+002
2.423089e+002, 9.880973e+002
2.427910e+002, 9.767081e+002
2.432731e+002, 9.633505e+002
2.437552e+002, 9.498098e+002
2.442373e+002, 9.353890e+002
2.447194e+002, 9.211904e+002
2.452016e+002, 9.092415e+002
2.456837e+002, 9.008693e+002
2.461658e+002, 8.924156e+002
2.466479e+002, 8.826339e+002
2.471300e+002, 8.710303e+002
2.476121e+002, 8.602616e+002
2.480943e+002, 8.506086e+002
2.485764e+002, 8.416033e+002
2.490585e+002, 8.325666e+002
2.495406e+002, 8.233734e+002
2.500227e+002, 8.143481e+002
2.505048e+002, 8.055892e+002
2.509870e+002, 7.970497e+002
2.514691e+002, 7.889534e+002
2.519512e+002, 7.817330e+002
2.524333e+002, 7.745843e+002
2.529154e+002, 7.660148e+002
2.533975e+002, 7.545458e+002
2.538797e+002, 7.446522e+002
2.543618e+002, 7.382067e+002
2.548439e+002, 7.355277e+002
2.553260e+002, 7.312706e+002
2.558081e+002, 7.245546e+002
2.562902e+002, 7.171772e+002
2.567723e+002, 7.110833e+002
2.572545e+002, 7.065483e+002
2.577366e+002, 7.026298e+002
2.582187e+002, 6.992155e+002
2.587008e+002, 6.963237e+002
2.591829e+002, 6.934963e+002
2.596650e+002, 6.907858e+002
2.601472e+002, 6.880833e+002
2.606293e+002, 6.851699e+002
2.611114e+002, 6.818998e+002
2.615935e+002, 6.789312e+002
2.620756e+002, 6.764742e+002
2.625577e+002, 6.745106e+002
2.630399e+002, 6.725914e+002
2.635220e+002, 6.706486e+002
2.640041e+002, 6.688448e+002
2.644862e+002, 6.672324e+002
2.649683e+002, 6.657206e+002
2.654504e+002, 6.648473e+002
2.659326e+002, 6.652150e+002
2.664147e+002, 6.664135e+002
2.668968e+002, 6.651848e+002
2.673789e+002, 6.603031e+002
2.678610e+002, 6.555938e+002
2.683431e+002, 6.547244e+002
2.688253e+002, 6.588176e+002
2.693074e+002, 6.615112e+002
2.697895e+002, 6.615546e+002
2.702716e+002, 6.595612e+002
2.707537e+002, 6.580400e+002
2.712358e+002, 6.571977e+002
2.717180e+002, 6.562997e+002
2.722001e+002, 6.546892e+002
2.726822e+002, 6.522125e+002
2.731643e+002, 6.500341e+002
2.736464e+002, 6.480455e+002
2.741285e+002, 6.465999e+002
2.746107e+002, 6.471554e+002
2.750928e+002, 6.502157e+002
2.755749e+002, 6.532149e+002
2.760570e+002, 6.545005e+002
2.765391e+002, 6.539693e+002
2.770212e+002, 6.532120e+002
2.775034e+002, 6.522098e+002
2.779855e+002, 6.511981e+002
2.784676e+002, 6.508231e+002
2.789497e+002, 6.511633e+002
2.794318e+002, 6.515071e+002
2.799139e+002, 6.515220e+002
2.803961e+002, 6.512032e+002
2.808782e+002, 6.504254e+002
2.813603e+002, 6.489491e+002
2.818424e+002, 6.474583e+002
2.823245e+002, 6.474694e+002
2.828066e+002, 6.490601e+002
2.832888e+002, 6.502765e+002
2.837709e+002, 6.496708e+002
2.842530e+002, 6.475493e+002
2.847351e+002, 6.470578e+002
2.852172e+002, 6.485836e+002
2.856993e+002, 6.506354e+002
2.861815e+002, 6.507059e+002
2.866636e+002, 6.489301e+002
2.871457e+002, 6.480011e+002
2.876278e+002, 6.499598e+002
2.881099e+002, 6.538083e+002
2.885920e+002, 6.550829e+002
2.890742e+002, 6.534896e+002
2.895563e+002, 6.511181e+002
2.900384e+002, 6.503199e+002
2.905205e+002, 6.509012e+002
2.910026e+002, 6.515829e+002
2.914847e+002, 6.521235e+002
2.919669e+002, 6.523930e+002
2.924490e+002, 6.518262e+002
2.929311e+002, 6.503883e+002
2.934132e+002, 6.490068e+002
2.938953e+002, 6.485203e+002
2.943774e+002, 6.488023e+002
2.948596e+002, 6.494197e+002
2.953417e+002, 6.503315e+002
2.958238e+002, 6.514398e+002
2.963059e+002, 6.527575e+002
2.967880e+002, 6.542538e+002
2.972701e+002, 6.553759e+002
2.977523e+002, 6.555751e+002
2.982344e+002, 6.551024e+002
2.987165e+002, 6.544218e+002
2.991986e+002, 6.533926e+002
2.996807e+002, 6.525941e+002
3.001628e+002, 6.531318e+002
3.006450e+002, 6.547414e+002
3.011271e+002, 6.560077e+002
3.016092e+002, 6.557433e+002
3.020913e+002, 6.546436e+002
3.025734e+002, 6.536805e+002
3.030555e+002, 6.529398e+002
3.035377e+002, 6.525925e+002
3.040198e+002, 6.530470e+002
3.045019e+002, 6.540743e+002
3.049840e+002, 6.550586e+002
3.054661e+002, 6.551871e+002
3.059482e+002, 6.553143e+002
3.064304e+002, 6.565820e+002
3.069125e+002, 6.593173e+002
3.073946e+002, 6.619489e+002
3.078767e+002, 6.631013e+002
3.083588e+002, 6.633098e+002
3.088409e+002, 6.635219e+002
3.093231e+002, 6.637025e+002
3.098052e+002, 6.643544e+002
3.102873e+002, 6.662748e+002
3.107694e+002, 6.695940e+002
3.112515e+002, 6.723077e+002
3.117336e+002, 6.724856e+002
3.122158e+002, 6.716576e+002
3.126979e+002, 6.717266e+002
3.131800e+002, 6.746599e+002
3.136621e+002, 6.775958e+002
3.141442e+002, 6.786791e+002
3.146263e+002, 6.780368e+002
3.151085e+002, 6.778829e+002
3.155906e+002, 6.801036e+002
3.160727e+002, 6.827462e+002
3.165548e+002, 6.842074e+002
3.170369e+002, 6.823140e+002
3.175190e+002, 6.809739e+002
3.180012e+002, 6.817622e+002
3.184833e+002, 6.842679e+002
3.189654e+002, 6.867330e+002
3.194475e+002, 6.891503e+002
3.199296e+002, 6.910231e+002
3.204117e+002, 6.920151e+002
3.208939e+002, 6.915737e+002
3.213760e+002, 6.910198e+002
3.218581e+002, 6.901443e+002
3.223402e+002, 6.893072e+002
3.228223e+002, 6.893777e+002
3.233044e+002, 6.913455e+002
3.237866e+002, 6.935194e+002
3.242687e+002, 6.952595e+002
3.247508e+002, 6.963370e+002
3.252329e+002, 6.974595e+002
3.257150e+002, 6.995126e+002
3.261971e+002, 7.014520e+002
3.266793e+002, 7.016890e+002
3.271614e+002, 6.981002e+002
3.276435e+002, 6.951182e+002
3.281256e+002, 6.941229e+002
3.286077e+002, 6.956897e+002
3.290898e+002, 6.957981e+002
3.295720e+002, 6.935736e+002
3.300541e+002, 6.904917e+002
3.305362e+002, 6.879417e+002
3.310183e+002, 6.859601e+002
3.315004e+002, 6.843979e+002
3.319825e+002, 6.832347e+002
3.324647e+002, 6.824620e+002
3.329468e+002, 6.822145e+002
3.334289e+002, 6.829083e+002
3.339110e+002, 6.835400e+002
3.343931e+002, 6.831987e+002
3.348752e+002, 6.812255e+002
3.353573e+002, 6.803246e+002
3.358394e+002, 6.812484e+002
3.363216e+002, 6.832279e+002
3.368037e+002, 6.836013e+002
3.372858e+002, 6.817621e+002
3.377679e+002, 6.799598e+002
3.382500e+002, 6.797491e+002
3.387321e+002, 6.814938e+002
3.392143e+002, 6.815085e+002
3.396964e+002, 6.790363e+002
3.401785e+002, 6.758319e+002
3.406606e+002, 6.755892e+002
3.411427e+002, 6.787162e+002
3.416248e+002, 6.808691e+002
3.421070e+002, 6.794523e+002
3.425891e+002, 6.750481e+002
3.430712e+002, 6.730205e+002
3.435533e+002, 6.736027e+002
3.440354e+002, 6.754769e+002
3.445175e+002, 6.780216e+002
3.449997e+002, 6.810049e+002
3.454818e+002, 6.818507e+002
3.459639e+002, 6.783489e+002
3.464460e+002, 6.729282e+002
3.469281e+002, 6.724363e+002
3.474102e+002, 6.767563e+002
3.478924e+002, 6.814164e+002
3.483745e+002, 6.825416e+002
3.488566e+002, 6.810853e+002
3.493387e+002, 6.794120e+002
3.498208e+002, 6.777768e+002
3.503029e+002, 6.765620e+002
3.507851e+002, 6.766646e+002
3.512672e+002, 6.777965e+002
3.517493e+002, 6.787222e+002
3.522314e+002, 6.783859e+002
3.527135e+002, 6.775162e+002
3.531956e+002, 6.770787e+002
3.536778e+002, 6.772507e+002
3.541599e+002, 6.776562e+002
3.546420e+002, 6.780999e+002
3.551241e+002, 6.785400e+002
3.556062e+002, 6.788911e+002
3.560883e+002, 6.790584e+002
3.565705e+002, 6.791600e+002
3.570526e+002, 6.792607e+002
3.575347e+002, 6.793631e+002
3.580168e+002, 6.795049e+002
3.584989e+002, 6.792136e+002
3.589810e+002, 6.791602e+002
3.594632e+002, 6.800469e+002
3.599453e+002, 6.839373e+002
3.604274e+002, 6.870526e+002
3.609095e+002, 6.870780e+002
3.613916e+002, 6.846435e+002
3.618737e+002, 6.832198e+002
3.623559e+002, 6.852361e+002
3.628380e+002, 6.877794e+002
3.633201e+002, 6.889983e+002
3.638022e+002, 6.873598e+002
3.642843e+002, 6.863615e+002
3.647664e+002, 6.873842e+002
3.652486e+002, 6.894473e+002
3.657307e+002, 6.904590e+002
3.662128e+002, 6.883937e+002
3.666949e+002, 6.868297e+002
3.671770e+002, 6.871628e+002
3.676591e+002, 6.903177e+002
3.681413e+002, 6.924793e+002
3.686234e+002, 6.929348e+002
3.691055e+002, 6.927593e+002
3.695876e+002, 6.932351e+002
3.700697e+002, 6.955522e+002
3.705518e+002, 6.966071e+002
3.710340e+002, 6.951360e+002
3.715161e+002, 6.913281e+002
3.719982e+002, 6.897131e+002
3.724803e+002, 6.911978e+002
3.729624e+002, 6.935446e+002
3.734445e+002, 6.951417e+002
3.739267e+002, 6.957338e+002
3.744088e+002, 6.966876e+002
3.748909e+002, 6.985665e+002
3.753730e+002, 7.006139e+002
3.758551e+002, 7.003765e+002
3.763372e+002, 6.973503e+002
3.768194e+002, 6.943141e+002
3.773015e+002, 6.928282e+002
3.777836e+002, 6.928865e+002
3.782657e+002, 6.925710e+002
3.787478e+002, 6.915944e+002
3.792299e+002, 6.910016e+002
3.797121e+002, 6.928785e+002
3.801942e+002, 6.969778e+002
3.806763e+002, 7.000665e+002
3.811584e+002, 7.006138e+002
3.816405e+002, 6.994364e+002
3.821227e+002, 6.983788e+002
3.826048e+002, 6.974207e+002
3.830869e+002, 6.970804e+002
3.835690e+002, 6.984261e+002
3.840511e+002, 7.007150e+002
3.845332e+002, 7.021019e+002
3.850154e+002, 7.020685e+002
3.854975e+002, 7.011682e+002
3.859796e+002, 6.990866e+002
3.864617e+002, 6.964194e+002
3.869438e+002, 6.953420e+002
3.874259e+002, 6.985800e+002
3.879081e+002, 7.033276e+002
3.883902e+002, 7.064977e+002
3.888723e+002, 7.075564e+002
3.893544e+002, 7.081221e+002
3.898365e+002, 7.091894e+002
3.903186e+002, 7.104769e+002
3.908008e+002, 7.115522e+002
3.912829e+002, 7.126402e+002
3.917650e+002, 7.131542e+002
3.922471e+002, 7.123440e+002
3.927292e+002, 7.103208e+002
3.932113e+002, 7.088946e+002
3.936935e+002, 7.093387e+002
3.941756e+002, 7.102833e+002
3.946577e+002, 7.107338e+002
3.951398e+002, 7.102386e+002
3.956219e+002, 7.096278e+002
3.961040e+002, 7.084963e+002
3.965862e+002, 7.073173e+002
3.970683e+002, 7.073861e+002
3.975504e+002, 7.112433e+002
3.980325e+002, 7.142107e+002
3.985146e+002, 7.142262e+002
3.989967e+002, 7.096785e+002
3.994789e+002, 7.073307e+002
3.999610e+002, 7.084384e+002
4.004431e+002, 7.109346e+002
4.009252e+002, 7.123165e+002
4.014073e+002, 7.116022e+002
4.018894e+002, 7.116754e+002
4.023716e+002, 7.135036e+002
4.028537e+002, 7.167969e+002
4.033358e+002, 7.187025e+002
4.038179e+002, 7.188463e+002
4.043000e+002, 7.184833e+002
4.047821e+002, 7.184412e+002
4.052643e+002, 7.187549e+002
4.057464e+002, 7.192034e+002
4.062285e+002, 7.199139e+002
4.067106e+002, 7.205545e+002
4.071927e+002, 7.199871e+002
4.076748e+002, 7.181561e+002
4.081570e+002, 7.174890e+002
4.086391e+002, 7.202465e+002
4.091212e+002, 7.253291e+002
4.096033e+002, 7.278249e+002
4.100854e+002, 7.275270e+002
4.105675e+002, 7.263978e+002
4.110497e+002, 7.261107e+002
4.115318e+002, 7.265739e+002
4.120139e+002, 7.276444e+002
4.124960e+002, 7.298218e+002
4.129781e+002, 7.319608e+002
4.134602e+002, 7.320152e+002
4.139424e+002, 7.304537e+002
4.144245e+002, 7.295085e+002
4.149066e+002, 7.318345e+002
4.153887e+002, 7.348982e+002
4.158708e+002, 7.356407e+002
4.163529e+002, 7.329969e+002
4.168351e+002, 7.304962e+002
4.173172e+002, 7.311731e+002
4.177993e+002, 7.332348e+002
4.182814e+002, 7.339045e+002
4.187635e+002, 7.300446e+002
4.192456e+002, 7.265006e+002
4.197278e+002, 7.257050e+002
4.202099e+002, 7.276552e+002
4.206920e+002, 7.297807e+002
4.211741e+002, 7.323793e+002
4.216562e+002, 7.343303e+002
4.221383e+002, 7.348988e+002
4.226205e+002, 7.315582e+002
4.231026e+002, 7.298180e+002
4.235847e+002, 7.311727e+002
4.240668e+002, 7.343663e+002
4.245489e+002, 7.362705e+002
4.250310e+002, 7.359896e+002
4.255132e+002, 7.355380e+002
4.259953e+002, 7.354860e+002
4.264774e+002, 7.358398e+002
4.269595e+002, 7.366361e+002
4.274416e+002, 7.381935e+002
4.279237e+002, 7.397700e+002
4.284059e+002, 7.404597e+002
4.288880e+002, 7.399286e+002
4.293701e+002, 7.398515e+002
4.298522e+002, 7.406409e+002
4.303343e+002, 7.420489e+002
4.308164e+002, 7.432360e+002
4.312986e+002, 7.442136e+002
4.317807e+002, 7.448646e+002
4.322628e+002, 7.450795e+002
4.327449e+002, 7.448830e+002
4.332270e+002, 7.442237e+002
4.337091e+002, 7.429230e+002
4.341912e+002, 7.419333e+002
4.346733e+002, 7.430081e+002
4.351555e+002, 7.455815e+002
4.356376e+002, 7.475788e+002
4.361197e+002, 7.474313e+002
4.366018e+002, 7.467551e+002
4.370839e+002, 7.482138e+002
4.375660e+002, 7.515526e+002
4.380482e+002, 7.544269e+002
4.385303e+002, 7.548083e+002
4.390124e+002, 7.540968e+002
4.394945e+002, 7.538016e+002
4.399766e+002, 7.542650e+002
4.404587e+002, 7.551068e+002
4.409409e+002, 7.562885e+002
4.414230e+002, 7.576686e+002
4.419051e+002, 7.590227e+002
4.423872e+002, 7.602249e+002
4.428693e+002, 7.613983e+002
4.433514e+002, 7.627514e+002
4.438336e+002, 7.643234e+002
4.443157e+002, 7.652994e+002
4.447978e+002, 7.650070e+002
4.452799e+002, 7.643613e+002
4.457620e+002, 7.640103e+002
4.462441e+002, 7.644769e+002
4.467263e+002, 7.645688e+002
4.472084e+002, 7.634164e+002
4.476905e+002, 7.619599e+002
4.481726e+002, 7.630154e+002
4.486547e+002, 7.686376e+002
4.491368e+002, 7.731806e+002
4.496190e+002, 7.739008e+002
4.501011e+002, 7.701937e+002
4.505832e+002, 7.701694e+002
4.510653e+002, 7.752573e+002
4.515474e+002, 7.810249e+002
4.520295e+002, 7.823470e+002
4.525117e+002, 7.789054e+002
4.529938e+002, 7.766823e+002
4.534759e+002, 7.769341e+002
4.539580e+002, 7.789449e+002
4.544401e+002, 7.815378e+002
4.549222e+002, 7.846769e+002
4.554044e+002, 7.872885e+002
4.558865e+002, 7.877775e+002
4.563686e+002, 7.874152e+002
4.568507e+002, 7.897113e+002
4.573328e+002, 7.951367e+002
4.578149e+002, 8.004434e+002
4.582971e+002, 8.024447e+002
4.587792e+002, 8.022477e+002
4.592613e+002, 8.017106e+002
4.597434e+002, 8.008673e+002
4.602255e+002, 8.005486e+002
4.607076e+002, 8.013658e+002
4.611898e+002, 8.032253e+002
4.616719e+002, 8.058394e+002
4.621540e+002, 8.102386e+002
4.626361e+002, 8.144735e+002
4.631182e+002, 8.171183e+002
4.636003e+002, 8.175325e+002
4.640825e+002, 8.181059e+002
4.645646e+002, 8.209245e+002
4.650467e+002, 8.236237e+002
4.655288e+002, 8.235426e+002
4.660109e+002, 8.160391e+002
4.664930e+002, 8.107855e+002
4.669752e+002, 8.103143e+002
4.674573e+002, 8.136812e+002
4.679394e+002, 8.146213e+002
4.684215e+002, 8.114944e+002
4.689036e+002, 8.082346e+002
4.693857e+002, 8.068395e+002
4.698679e+002, 8.077758e+002
4.703500e+002, 8.087462e+002
4.708321e+002, 8.098968e+002
4.713142e+002, 8.108168e+002
4.717963e+002, 8.108568e+002
4.722784e+002, 8.099728e+002
4.727606e+002, 8.087932e+002
4.732427e+002, 8.074132e+002
4.737248e+002, 8.058878e+002
4.742069e+002, 8.040973e+002
4.746890e+002, 8.020707e+002
4.751711e+002, 8.008277e+002
4.756533e+002, 8.014720e+002
4.761354e+002, 8.033531e+002
4.766175e+002, 8.051068e+002
4.770996e+002, 8.065355e+002
4.775817e+002, 8.081666e+002
4.780638e+002, 8.110848e+002
4.785460e+002, 8.144702e+002
4.790281e+002, 8.169247e+002
4.795102e+002, 8.166932e+002
4.799923e+002, 8.163895e+002
4.804744e+002, 8.180929e+002
4.809565e+002, 8.213184e+002
4.814387e+002, 8.237127e+002
4.819208e+002, 8.232034e+002
4.824029e+002, 8.224099e+002
4.828850e+002, 8.229126e+002
4.833671e+002, 8.255233e+002
4.838492e+002, 8.277928e+002
4.843314e+002, 8.295759e+002
4.848135e+002, 8.307923e+002
4.852956e+002, 8.312919e+002
4.857777e+002, 8.299897e+002
4.862598e+002, 8.296774e+002
4.867419e+002, 8.312714e+002
4.872241e+002, 8.343179e+002
4.877062e+002, 8.362076e+002
4.881883e+002, 8.365349e+002
4.886704e+002, 8.366743e+002
4.891525e+002, 8.371006e+002
4.896346e+002, 8.377511e+002
4.901168e+002, 8.399893e+002
4.905989e+002, 8.441530e+002
4.910810e+002, 8.489914e+002
4.915631e+002, 8.530204e+002
4.920452e+002, 8.563397e+002
4.925273e+002, 8.596615e+002
4.930095e+002, 8.633014e+002
4.934916e+002, 8.669580e+002
4.939737e+002, 8.698314e+002
4.944558e+002, 8.721154e+002
4.949379e+002, 8.749598e+002
4.954200e+002, 8.795719e+002
4.959022e+002, 8.848483e+002
4.963843e+002, 8.894142e+002
4.968664e+002, 8.931235e+002
4.973485e+002, 8.967946e+002
4.978306e+002, 8.997834e+002
4.983127e+002, 9.035182e+002
4.987949e+002, 9.094875e+002
4.992770e+002, 9.199127e+002
4.997591e+002, 9.308063e+002
5.002412e+002, 9.415496e+002
5.007233e+002, 9.520463e+002
5.012054e+002, 9.616622e+002
5.016876e+002, 9.681458e+002
5.021697e+002, 9.757170e+002
5.026518e+002, 9.856686e+002
5.031339e+002, 9.981735e+002
5.036160e+002, 1.011744e+003
5.040981e+002, 1.026026e+003
5.045803e+002, 1.041673e+003
5.050624e+002, 1.059375e+003
5.055445e+002, 1.078996e+003
5.060266e+002, 1.100260e+003
5.065087e+002, 1.123194e+003
5.069908e+002, 1.147448e+003
5.074730e+002, 1.171542e+003
5.079551e+002, 1.195445e+003
5.084372e+002, 1.222282e+003
5.089193e+002, 1.254317e+003
5.094014e+002, 1.290675e+003
5.098835e+002, 1.328739e+003
5.103657e+002, 1.368662e+003
5.108478e+002, 1.409905e+003
5.113299e+002, 1.452570e+003
5.118120e+002, 1.496132e+003
5.122941e+002, 1.540495e+003
5.127762e+002, 1.587367e+003
5.132584e+002, 1.630813e+003
5.137405e+002, 1.670753e+003
5.142226e+002, 1.704260e+003
5.147047e+002, 1.726250e+003
5.151868e+002, 1.735031e+003
5.156689e+002, 1.731696e+003
5.161511e+002, 1.715305e+003
5.166332e+002, 1.686052e+003
5.171153e+002, 1.649099e+003
5.175974e+002, 1.600593e+003
5.180795e+002, 1.547720e+003
5.185616e+002, 1.494016e+003
5.190438e+002, 1.436734e+003
5.195259e+002, 1.384421e+003
5.200080e+002, 1.337995e+003
5.204901e+002, 1.295776e+003
5.209722e+002, 1.254928e+003
5.214543e+002, 1.215463e+003
5.219365e+002, 1.180538e+003
5.224186e+002, 1.151471e+003
5.229007e+002, 1.127114e+003
5.233828e+002, 1.104654e+003
5.238649e+002, 1.084021e+003
5.243470e+002, 1.064495e+003
5.248292e+002, 1.045538e+003
5.253113e+002, 1.027519e+003
5.257934e+002, 1.010005e+003
5.262755e+002, 9.928201e+002
5.267576e+002, 9.777909e+002
5.272397e+002, 9.672161e+002
5.277219e+002, 9.594875e+002
5.282040e+002, 9.521301e+002
5.286861e+002, 9.438920e+002
5.291682e+002, 9.365863e+002
5.296503e+002, 9.313735e+002
5.301324e+002, 9.278263e+002
5.306146e+002, 9.249016e+002
5.310967e+002, 9.234088e+002
5.315788e+002, 9.214059e+002
5.320609e+002, 9.174189e+002
5.325430e+002, 9.111967e+002
5.330251e+002, 9.069180e+002
5.335073e+002, 9.054094e+002
5.339894e+002, 9.054918e+002
5.344715e+002, 9.067847e+002
5.349536e+002, 9.104532e+002
5.354357e+002, 9.124699e+002
5.359178e+002, 9.120875e+002
5.364000e+002, 9.107609e+002
5.368821e+002, 9.107253e+002
5.373642e+002, 9.120674e+002
5.378463e+002, 9.138549e+002
5.383284e+002, 9.158392e+002
5.388105e+002, 9.180547e+002
5.392927e+002, 9.207850e+002
5.397748e+002, 9.239925e+002
5.402569e+002, 9.271583e+002
5.407390e+002, 9.304263e+002
5.412211e+002, 9.332856e+002
5.417032e+002, 9.346543e+002
5.421854e+002, 9.344103e+002
5.426675e+002, 9.336307e+002
5.431496e+002, 9.327155e+002
5.436317e+002, 9.319097e+002
5.441138e+002, 9.316266e+002
5.445959e+002, 9.330829e+002
5.450781e+002, 9.334344e+002
5.455602e+002, 9.311366e+002
5.460423e+002, 9.269430e+002
5.465244e+002, 9.224614e+002
5.470065e+002, 9.178278e+002
5.474886e+002, 9.131502e+002
5.479708e+002, 9.084014e+002
5.484529e+002, 9.035707e+002
5.489350e+002, 8.989419e+002
5.494171e+002, 8.943786e+002
5.498992e+002, 8.901874e+002
5.503813e+002, 8.865486e+002
5.508635e+002, 8.834280e+002
5.513456e+002, 8.813011e+002
5.518277e+002, 8.806006e+002
5.523098e+002, 8.799235e+002
5.527919e+002, 8.764281e+002
5.532740e+002, 8.706014e+002
5.537562e+002, 8.672990e+002
5.542383e+002, 8.687904e+002
5.547204e+002, 8.721827e+002
5.552025e+002, 8.729987e+002
5.556846e+002, 8.716588e+002
5.561667e+002, 8.699738e+002
5.566489e+002, 8.687306e+002
5.571310e+002, 8.677406e+002
5.576131e+002, 8.663588e+002
5.580952e+002, 8.645720e+002
5.585773e+002, 8.644749e+002
5.590594e+002, 8.699753e+002
5.595416e+002, 8.758264e+002
5.600237e+002, 8.777072e+002
5.605058e+002, 8.718068e+002
5.609879e+002, 8.673120e+002
5.614700e+002, 8.658830e+002
5.619521e+002, 8.662360e+002
5.624343e+002, 8.666710e+002
5.629164e+002, 8.667684e+002
5.633985e+002, 8.678317e+002
5.638806e+002, 8.706550e+002
5.643627e+002, 8.745786e+002
5.648448e+002, 8.766735e+002
5.653270e+002, 8.767298e+002
5.658091e+002, 8.761702e+002
5.662912e+002, 8.755067e+002
5.667733e+002, 8.748231e+002
5.672554e+002, 8.746060e+002
5.677375e+002, 8.748620e+002
5.682197e+002, 8.755570e+002
5.687018e+002, 8.762699e+002
5.691839e+002, 8.774855e+002
5.696660e+002, 8.804202e+002
5.701481e+002, 8.860109e+002
5.706302e+002, 8.914797e+002
5.711124e+002, 8.950820e+002
5.715945e+002, 8.970623e+002
5.720766e+002, 8.977263e+002
5.725587e+002, 8.951051e+002
5.730408e+002, 8.933302e+002
5.735229e+002, 8.944697e+002
5.740051e+002, 8.980917e+002
5.744872e+002, 9.008263e+002
5.749693e+002, 9.018973e+002
5.754514e+002, 9.025511e+002
5.759335e+002, 9.030877e+002
5.764156e+002, 9.033981e+002
5.768978e+002, 9.045166e+002
5.773799e+002, 9.069290e+002
5.778620e+002, 9.091898e+002
5.783441e+002, 9.096766e+002
5.788262e+002, 9.083745e+002
5.793083e+002, 9.075125e+002
5.797905e+002, 9.074772e+002
5.802726e+002, 9.077260e+002
5.807547e+002, 9.074467e+002
5.812368e+002, 9.067570e+002
5.817189e+002, 9.060643e+002
5.822010e+002, 9.057968e+002
5.826831e+002, 9.053929e+002
5.831652e+002, 9.041848e+002
5.836473e+002, 9.022985e+002
5.841295e+002, 9.002041e+002
5.846116e+002, 8.975818e+002
5.850937e+002, 8.952477e+002
5.855758e+002, 8.937962e+002
5.860579e+002, 8.933633e+002
5.865400e+002, 8.930762e+002
5.870222e+002, 8.928773e+002
5.875043e+002, 8.926714e+002
5.879864e+002, 8.923761e+002
5.884685e+002, 8.918057e+002
5.889506e+002, 8.915563e+002
5.894327e+002, 8.919406e+002
5.899149e+002, 8.923517e+002
5.903970e+002, 8.917664e+002
5.908791e+002, 8.900828e+002
5.913612e+002, 8.880779e+002
5.918433e+002, 8.855485e+002
5.923254e+002, 8.832490e+002
5.928076e+002, 8.834677e+002
5.932897e+002, 8.858970e+002
5.937718e+002, 8.880228e+002
5.942539e+002, 8.878138e+002
5.947360e+002, 8.867399e+002
5.952181e+002, 8.870853e+002
5.957003e+002, 8.888336e+002
5.961824e+002, 8.900404e+002
5.966645e+002, 8.885942e+002
5.971466e+002, 8.866787e+002
5.976287e+002, 8.862516e+002
5.981108e+002, 8.884337e+002
5.985930e+002, 8.901464e+002
5.990751e+002, 8.908528e+002
5.995572e+002, 8.906576e+002
6.000393e+002, 8.896966e+002
6.005214e+002, 8.872472e+002
6.010035e+002, 8.851922e+002
6.014857e+002, 8.833749e+002
6.019678e+002, 8.822313e+002
6.024499e+002, 8.836412e+002
6.029320e+002, 8.883076e+002
6.034141e+002, 8.914528e+002
6.038962e+002, 8.903511e+002
6.043784e+002, 8.864873e+002
6.048605e+002, 8.850042e+002
6.053426e+002, 8.858235e+002
6.058247e+002, 8.873713e+002
6.063068e+002, 8.891733e+002
6.067889e+002, 8.907528e+002
6.072711e+002, 8.912576e+002
6.077532e+002, 8.905475e+002
6.082353e+002, 8.895026e+002
6.087174e+002, 8.880560e+002
6.091995e+002, 8.868375e+002
6.096816e+002, 8.865446e+002
6.101638e+002, 8.882579e+002
6.106459e+002, 8.894911e+002
6.111280e+002, 8.890884e+002
6.116101e+002, 8.881091e+002
6.120922e+002, 8.883963e+002
6.125743e+002, 8.912964e+002
6.130565e+002, 8.930107e+002
6.135386e+002, 8.925139e+002
6.140207e+002, 8.903395e+002
6.145028e+002, 8.887121e+002
6.149849e+002, 8.877332e+002
6.154670e+002, 8.865974e+002
6.159492e+002, 8.841362e+002
6.164313e+002, 8.811718e+002
6.169134e+002, 8.811219e+002
6.173955e+002, 8.839395e+002
6.178776e+002, 8.869753e+002
6.183597e+002, 8.882760e+002
6.188419e+002, 8.884702e+002
6.193240e+002, 8.883317e+002
6.198061e+002, 8.879633e+002
6.202882e+002, 8.873362e+002
6.207703e+002, 8.863841e+002
6.212524e+002, 8.851904e+002
6.217346e+002, 8.838431e+002
6.222167e+002, 8.813461e+002
6.226988e+002, 8.799818e+002
6.231809e+002, 8.804830e+002
6.236630e+002, 8.820946e+002
6.241451e+002, 8.834700e+002
6.246273e+002, 8.846259e+002
6.251094e+002, 8.855573e+002
6.255915e+002, 8.865128e+002
6.260736e+002, 8.871760e+002
6.265557e+002, 8.852192e+002
6.270378e+002, 8.804714e+002
6.275200e+002, 8.776848e+002
6.280021e+002, 8.820807e+002
6.284842e+002, 8.899387e+002
6.289663e+002, 8.921149e+002
6.294484e+002, 8.885851e+002
6.299305e+002, 8.848876e+002
6.304127e+002, 8.855706e+002
6.308948e+002, 8.879897e+002
6.313769e+002, 8.895273e+002
6.318590e+002, 8.895653e+002
6.323411e+002, 8.892510e+002
6.328232e+002, 8.886014e+002
6.333054e+002, 8.879946e+002
6.337875e+002, 8.878251e+002
6.342696e+002, 8.878163e+002
6.347517e+002, 8.888102e+002
6.352338e+002, 8.916422e+002
6.357159e+002, 8.950844e+002
6.361981e+002, 8.963854e+002
6.366802e+002, 8.950790e+002
6.371623e+002, 8.938905e+002
6.376444e+002, 8.938068e+002
6.381265e+002, 8.942511e+002
6.386086e+002, 8.931232e+002
6.390908e+002, 8.906417e+002
6.395729e+002, 8.890288e+002
6.400550e+002, 8.902415e+002
6.405371e+002, 8.927487e+002
6.410192e+002, 8.945374e+002
6.415013e+002, 8.955834e+002
6.419835e+002, 8.968995e+002
6.424656e+002, 9.004514e+002
6.429477e+002, 9.035582e+002
6.434298e+002, 9.039208e+002
6.439119e+002, 9.000776e+002
6.443940e+002, 8.972919e+002
6.448762e+002, 8.969528e+002
6.453583e+002, 8.976111e+002
6.458404e+002, 8.983224e+002
6.463225e+002, 8.996254e+002
6.468046e+002, 8.993486e+002
6.472867e+002, 8.966388e+002
6.477689e+002, 8.933326e+002
6.482510e+002, 8.929733e+002
6.487331e+002, 8.954344e+002
6.492152e+002, 8.971462e+002
6.496973e+002, 8.968152e+002
6.501794e+002, 8.955301e+002
6.506616e+002, 8.946185e+002
6.511437e+002, 8.941512e+002
6.516258e+002, 8.943659e+002
6.521079e+002, 8.963070e+002
6.525900e+002, 8.982214e+002
6.530721e+002, 8.985270e+002
6.535543e+002, 8.974240e+002
6.540364e+002, 8.968463e+002
6.545185e+002, 8.978488e+002
6.550006e+002, 8.990695e+002
6.554827e+002, 8.995231e+002
6.559648e+002, 8.987202e+002
6.564470e+002, 9.004026e+002
6.569291e+002, 9.062837e+002
6.574112e+002, 9.118983e+002
6.578933e+002, 9.133331e+002
6.583754e+002, 9.104313e+002
6.588575e+002, 9.080107e+002
6.593397e+002, 9.062325e+002
6.598218e+002, 9.055276e+002
6.603039e+002, 9.071784e+002
6.607860e+002, 9.103263e+002
6.612681e+002, 9.126799e+002
6.617502e+002, 9.136793e+002
6.622324e+002, 9.137780e+002
6.627145e+002, 9.127859e+002
6.631966e+002, 9.112653e+002
6.636787e+002, 9.101548e+002
6.641608e+002, 9.091246e+002
6.646429e+002, 9.092660e+002
6.651251e+002, 9.120908e+002
6.656072e+002, 9.165415e+002
6.660893e+002, 9.186637e+002
6.665714e+002, 9.171219e+002
6.670535e+002, 9.154938e+002
6.675356e+002, 9.147093e+002
6.680178e+002, 9.147476e+002
6.684999e+002, 9.157297e+002
6.689820e+002, 9.177643e+002
6.694641e+002, 9.198087e+002
6.699462e+002, 9.213527e+002
6.704283e+002, 9.224017e+002
6.709105e+002, 9.232552e+002
6.713926e+002, 9.239025e+002
6.718747e+002, 9.233999e+002
6.723568e+002, 9.186931e+002
6.728389e+002, 9.137738e+002
6.733210e+002, 9.133054e+002
6.738032e+002, 9.193483e+002
6.742853e+002, 9.244178e+002
6.747674e+002, 9.257069e+002
6.752495e+002, 9.252460e+002
6.757316e+002, 9.248378e+002
6.762137e+002, 9.240963e+002
6.766959e+002, 9.242388e+002
6.771780e+002, 9.254603e+002
6.776601e+002, 9.273818e+002
6.781422e+002, 9.298921e+002
6.786243e+002, 9.331112e+002
6.791064e+002, 9.345223e+002
6.795886e+002, 9.331086e+002
6.800707e+002, 9.303771e+002
6.805528e+002, 9.287233e+002
6.810349e+002, 9.279704e+002
6.815170e+002, 9.276105e+002
6.819991e+002, 9.277908e+002
6.824813e+002, 9.279684e+002
6.829634e+002, 9.273446e+002
6.834455e+002, 9.262965e+002
6.839276e+002, 9.261844e+002
6.844097e+002, 9.285119e+002
6.848918e+002, 9.308418e+002
6.853740e+002, 9.320507e+002
6.858561e+002, 9.321828e+002
6.863382e+002, 9.330291e+002
6.868203e+002, 9.351249e+002
6.873024e+002, 9.368921e+002
6.877845e+002, 9.372979e+002
6.882667e+002, 9.363632e+002
6.887488e+002, 9.354688e+002
6.892309e+002, 9.345116e+002
6.897130e+002, 9.345361e+002
6.901951e+002, 9.382130e+002
6.906772e+002, 9.430865e+002
6.911594e+002, 9.435451e+002
6.916415e+002, 9.381722e+002
6.921236e+002, 9.338358e+002
6.926057e+002, 9.376051e+002
6.930878e+002, 9.436587e+002
6.935699e+002, 9.460539e+002
6.940521e+002, 9.404668e+002
6.945342e+002, 9.364645e+002
6.950163e+002, 9.357116e+002
6.954984e+002, 9.369002e+002
6.959805e+002, 9.389315e+002
6.964626e+002, 9.426205e+002
6.969448e+002, 9.443394e+002
6.974269e+002, 9.430294e+002
6.979090e+002, 9.402469e+002
6.983911e+002, 9.388322e+002
6.988732e+002, 9.386859e+002
6.993553e+002, 9.390266e+002
6.998375e+002, 9.395873e+002
7.003196e+002, 9.404837e+002
7.008017e+002, 9.424823e+002
7.012838e+002, 9.450035e+002
7.017659e+002, 9.464147e+002
7.022480e+002, 9.448470e+002
7.027302e+002, 9.430682e+002
7.032123e+002, 9.426042e+002
7.036944e+002, 9.432980e+002
7.041765e+002, 9.432795e+002
7.046586e+002, 9.409707e+002
7.051407e+002, 9.399523e+002
7.056229e+002, 9.421111e+002
7.061050e+002, 9.472256e+002
7.065871e+002, 9.498182e+002
7.070692e+002, 9.495933e+002
7.075513e+002, 9.483760e+002
7.080334e+002, 9.467693e+002
7.085156e+002, 9.451749e+002
7.089977e+002, 9.452278e+002
7.094798e+002, 9.469564e+002
7.099619e+002, 9.483454e+002
7.104440e+002, 9.470732e+002
7.109261e+002, 9.451831e+002
7.114083e+002, 9.448188e+002
7.118904e+002, 9.466903e+002
7.123725e+002, 9.484305e+002
7.128546e+002, 9.494965e+002
7.133367e+002, 9.501251e+002
7.138188e+002, 9.505347e+002
7.143010e+002, 9.508462e+002
7.147831e+002, 9.505320e+002
7.152652e+002, 9.491364e+002
7.157473e+002, 9.478231e+002
7.162294e+002, 9.483454e+002
7.167115e+002, 9.505262e+002
7.171937e+002, 9.519208e+002
7.176758e+002, 9.518377e+002
7.181579e+002, 9.515842e+002
7.186400e+002, 9.531078e+002
7.191221e+002, 9.555652e+002
7.196042e+002, 9.573836e+002
7.200864e+002, 9.573607e+002
7.205685e+002, 9.574550e+002
7.210506e+002, 9.596198e+002
7.215327e+002, 9.623706e+002
7.220148e+002, 9.628297e+002
7.224969e+002, 9.577365e+002
7.229791e+002, 9.542639e+002
7.234612e+002, 9.540182e+002
7.239433e+002, 9.559232e+002
7.244254e+002, 9.570316e+002
7.249075e+002, 9.573474e+002
7.253896e+002, 9.569130e+002
7.258718e+002, 9.553285e+002
7.263539e+002, 9.533514e+002
7.268360e+002, 9.526328e+002
7.273181e+002, 9.530155e+002
7.278002e+002, 9.537786e+002
7.282823e+002, 9.540828e+002
7.287645e+002, 9.549505e+002
7.292466e+002, 9.579819e+002
7.297287e+002, 9.627196e+002
7.302108e+002, 9.658201e+002
7.306929e+002, 9.642401e+002
7.311750e+002, 9.629448e+002
7.316572e+002, 9.645081e+002
7.321393e+002, 9.689500e+002
7.326214e+002, 9.698937e+002
7.331035e+002, 9.661227e+002
7.335856e+002, 9.624337e+002
7.340677e+002, 9.624613e+002
7.345499e+002, 9.653644e+002
7.350320e+002, 9.660330e+002
7.355141e+002, 9.644431e+002
7.359962e+002, 9.627130e+002
7.364783e+002, 9.630372e+002
7.369604e+002, 9.638552e+002
7.374426e+002, 9.628252e+002
7.379247e+002, 9.593229e+002
7.384068e+002, 9.575004e+002
7.388889e+002, 9.610541e+002
7.393710e+002, 9.653862e+002
7.398531e+002, 9.668267e+002
7.403353e+002, 9.634686e+002
7.408174e+002, 9.628405e+002
7.412995e+002, 9.661002e+002
7.417816e+002, 9.701102e+002
7.422637e+002, 9.715807e+002
7.427458e+002, 9.706639e+002
7.432280e+002, 9.706190e+002
7.437101e+002, 9.719525e+002
7.441922e+002, 9.732068e+002
7.446743e+002, 9.722547e+002
7.451564e+002, 9.702915e+002
7.456385e+002, 9.694368e+002
7.461207e+002, 9.706647e+002
7.466028e+002, 9.718427e+002
7.470849e+002, 9.717365e+002
7.475670e+002, 9.711349e+002
7.480491e+002, 9.709984e+002
7.485313e+002, 9.717729e+002
7.490134e+002, 9.725201e+002
7.494955e+002, 9.734395e+002
7.499776e+002, 9.740921e+002
7.504597e+002, 9.734362e+002
7.509418e+002, 9.714056e+002
7.514240e+002, 9.705882e+002
7.519061e+002, 9.719127e+002
7.523882e+002, 9.737610e+002
7.528703e+002, 9.738441e+002
7.533524e+002, 9.726467e+002
7.538345e+002, 9.712770e+002
7.543167e+002, 9.695560e+002
7.547988e+002, 9.685418e+002
7.552809e+002, 9.696916e+002
7.557630e+002, 9.718361e+002
7.562451e+002, 9.725728e+002
7.567272e+002, 9.696725e+002
7.572094e+002, 9.678301e+002
7.576915e+002, 9.677264e+002
7.581736e+002, 9.690720e+002
7.586557e+002, 9.715314e+002
7.591378e+002, 9.752721e+002
7.596199e+002, 9.782394e+002
7.601021e+002, 9.796517e+002
7.605842e+002, 9.799701e+002
7.610663e+002, 9.798374e+002
7.615484e+002, 9.792873e+002
7.620305e+002, 9.784233e+002
7.625126e+002, 9.761974e+002
7.629948e+002, 9.747205e+002
7.634769e+002, 9.766824e+002
7.639590e+002, 9.807748e+002
7.644411e+002, 9.817936e+002
7.649232e+002, 9.745570e+002
7.654053e+002, 9.696162e+002
7.658875e+002, 9.703138e+002
7.663696e+002, 9.753250e+002
7.668517e+002, 9.775067e+002
7.673338e+002, 9.765272e+002
7.678159e+002, 9.757646e+002
7.682980e+002, 9.775900e+002
7.687802e+002, 9.803051e+002
7.692623e+002, 9.796424e+002
7.697444e+002, 9.762983e+002
7.702265e+002, 9.736207e+002
7.707086e+002, 9.737090e+002
7.711907e+002, 9.748481e+002
7.716729e+002, 9.761324e+002
7.721550e+002, 9.774943e+002
7.726371e+002, 9.788893e+002
7.731192e+002, 9.806727e+002
7.736013e+002, 9.820255e+002
7.740834e+002, 9.827311e+002
7.745656e+002, 9.827809e+002
7.750477e+002, 9.818607e+002
7.755298e+002, 9.798617e+002
7.760119e+002, 9.779578e+002
7.764940e+002, 9.769825e+002
7.769761e+002, 9.765823e+002
7.774583e+002, 9.759212e+002
7.779404e+002, 9.750584e+002
7.784225e+002, 9.745269e+002
7.789046e+002, 9.747853e+002
7.793867e+002, 9.753768e+002
7.798688e+002, 9.762192e+002
7.803509e+002, 9.773304e+002
7.808330e+002, 9.777444e+002
7.813151e+002, 9.769598e+002
7.817972e+002, 9.761024e+002
7.822794e+002, 9.754671e+002
7.827615e+002, 9.750811e+002
7.832436e+002, 9.763794e+002
7.837257e+002, 9.795963e+002
7.842078e+002, 9.820602e+002
7.846899e+002, 9.812946e+002
7.851721e+002, 9.787289e+002
7.856542e+002, 9.761698e+002
7.861363e+002, 9.738354e+002
7.866184e+002, 9.734142e+002
7.871005e+002, 9.787765e+002
7.875826e+002, 9.840891e+002
7.880648e+002, 9.846115e+002
7.885469e+002, 9.789374e+002
7.890290e+002, 9.770846e+002
7.895111e+002, 9.817147e+002
7.899932e+002, 9.862239e+002
7.904753e+002, 9.862693e+002
7.909575e+002, 9.820308e+002
7.914396e+002, 9.810984e+002
7.919217e+002, 9.836155e+002
7.924038e+002, 9.861901e+002
7.928859e+002, 9.855697e+002
7.933680e+002, 9.836873e+002
7.938502e+002, 9.834608e+002
7.943323e+002, 9.850720e+002
7.948144e+002, 9.863888e+002
7.952965e+002, 9.866740e+002
7.957786e+002, 9.861385e+002
7.962607e+002, 9.843271e+002
7.967429e+002, 9.808199e+002
7.972250e+002, 9.800563e+002
7.977071e+002, 9.833468e+002
7.981892e+002, 9.866989e+002
7.986713e+002, 9.870905e+002
7.991534e+002, 9.849850e+002
7.996356e+002, 9.848504e+002
8.001177e+002, 9.867267e+002
8.005998e+002, 9.884929e+002
8.010819e+002, 9.884948e+002
8.015640e+002, 9.875392e+002
8.020461e+002, 9.862391e+002
8.025283e+002, 9.846320e+002
8.030104e+002, 9.835422e+002
8.034925e+002, 9.832565e+002
8.039746e+002, 9.835704e+002
8.044567e+002, 9.845209e+002
8.049388e+002, 9.862313e+002
8.054210e+002, 9.871340e+002
8.059031e+002, 9.870031e+002
8.063852e+002, 9.868392e+002
8.068673e+002, 9.877114e+002
8.073494e+002, 9.891188e+002
8.078315e+002, 9.888667e+002
8.083137e+002, 9.870261e+002
8.087958e+002, 9.858595e+002
8.092779e+002, 9.887244e+002
8.097600e+002, 9.916483e+002
8.102421e+002, 9.904750e+002
8.107242e+002, 9.844568e+002
8.112064e+002, 9.813488e+002
8.116885e+002, 9.847870e+002
8.121706e+002, 9.884561e+002
8.126527e+002, 9.893195e+002
8.131348e+002, 9.873625e+002
8.136169e+002, 9.864505e+002
8.140991e+002, 9.866249e+002
8.145812e+002, 9.873356e+002
8.150633e+002, 9.886920e+002
8.155454e+002, 9.901087e+002
8.160275e+002, 9.902591e+002
8.165096e+002, 9.892318e+002
8.169918e+002, 9.883782e+002
8.174739e+002, 9.886418e+002
8.179560e+002, 9.891093e+002
8.184381e+002, 9.892139e+002
8.189202e+002, 9.888993e+002
8.194023e+002, 9.886400e+002
8.198845e+002, 9.880731e+002
8.203666e+002, 9.883536e+002
8.208487e+002, 9.907766e+002
8.213308e+002, 9.946481e+002
8.218129e+002, 9.953597e+002
8.222950e+002, 9.930116e+002
8.227772e+002, 9.902259e+002
8.232593e+002, 9.882095e+002
8.237414e+002, 9.869186e+002
8.242235e+002, 9.867298e+002
8.247056e+002, 9.874253e+002
8.251877e+002, 9.874757e+002
8.256699e+002, 9.848989e+002
8.261520e+002, 9.831338e+002
8.266341e+002, 9.837621e+002
8.271162e+002, 9.864449e+002
8.275983e+002, 9.883786e+002
8.280804e+002, 9.894181e+002
8.285626e+002, 9.905233e+002
8.290447e+002, 9.923604e+002
8.295268e+002, 9.944730e+002
8.300089e+002, 9.959432e+002
8.304910e+002, 9.967599e+002
8.309731e+002, 9.968776e+002
8.314553e+002, 9.955985e+002
8.319374e+002, 9.942370e+002
8.324195e+002, 9.934410e+002
8.329016e+002, 9.932084e+002
8.333837e+002, 9.936249e+002
8.338658e+002, 9.962076e+002
8.343480e+002, 9.965533e+002
8.348301e+002, 9.920742e+002
8.353122e+002, 9.852599e+002
8.357943e+002, 9.852875e+002
8.362764e+002, 9.917466e+002
8.367585e+002, 9.971978e+002
8.372407e+002, 9.975878e+002
8.377228e+002, 9.963813e+002
8.382049e+002, 9.977095e+002
8.386870e+002, 1.000628e+003
8.391691e+002, 1.002850e+003
8.396512e+002, 1.001958e+003
8.401334e+002, 1.002117e+003
8.406155e+002, 1.005769e+003
8.410976e+002, 1.010894e+003
8.415797e+002, 1.013026e+003
8.420618e+002, 1.011492e+003
8.425439e+002, 1.010032e+003
8.430261e+002, 1.009019e+003
8.435082e+002, 1.009360e+003
8.439903e+002, 1.013662e+003
8.444724e+002, 1.020637e+003
8.449545e+002, 1.026720e+003
8.454366e+002, 1.030267e+003
8.459188e+002, 1.033152e+003
8.464009e+002, 1.037059e+003
8.468830e+002, 1.040757e+003
8.473651e+002, 1.042267e+003
8.478472e+002, 1.040669e+003
8.483293e+002, 1.038259e+003
8.488115e+002, 1.035167e+003
8.492936e+002, 1.031351e+003
8.497757e+002, 1.025600e+003
8.502578e+002, 1.018495e+003
8.507399e+002, 1.015159e+003
8.512220e+002, 1.017241e+003
8.517042e+002, 1.020008e+003
8.521863e+002, 1.017591e+003
8.526684e+002, 1.013558e+003
8.531505e+002, 1.012604e+003
8.536326e+002, 1.016895e+003
8.541147e+002, 1.021605e+003
8.545969e+002, 1.028431e+003
8.550790e+002, 1.033093e+003
8.555611e+002, 1.031046e+003
8.560432e+002, 1.020848e+003
8.565253e+002, 1.014414e+003
8.570074e+002, 1.012688e+003
8.574896e+002, 1.012066e+003
8.579717e+002, 1.008973e+003
8.584538e+002, 1.004597e+003
8.589359e+002, 1.000658e+003
8.594180e+002, 9.973112e+002
8.599001e+002, 9.952606e+002
8.603823e+002, 9.959026e+002
8.608644e+002, 9.971550e+002
8.613465e+002, 9.975651e+002
8.618286e+002, 9.969823e+002
8.623107e+002, 9.966393e+002
8.627928e+002, 9.965140e+002
8.632750e+002, 9.967170e+002
8.637571e+002, 9.977223e+002
8.642392e+002, 9.991449e+002
8.647213e+002, 9.994831e+002
8.652034e+002, 9.987567e+002
8.656855e+002, 9.971484e+002
8.661677e+002, 9.929103e+002
8.666498e+002, 9.893969e+002
8.671319e+002, 9.901628e+002
8.676140e+002, 9.948542e+002
8.680961e+002, 9.967080e+002
8.685782e+002, 9.924813e+002
8.690604e+002, 9.900939e+002
8.695425e+002, 9.930887e+002
8.700246e+002, 9.996147e+002
8.705067e+002, 1.001809e+003
8.709888e+002, 9.999507e+002
8.714709e+002, 9.980023e+002
8.719531e+002, 9.978447e+002
8.724352e+002, 9.985614e+002
8.729173e+002, 9.996147e+002
8.733994e+002, 1.000791e+003
8.738815e+002, 1.001565e+003
8.743636e+002, 1.002078e+003
8.748458e+002, 1.001694e+003
8.753279e+002, 9.996683e+002
8.758100e+002, 9.970941e+002
8.762921e+002, 9.961077e+002
8.767742e+002, 9.967845e+002
8.772563e+002, 9.982040e+002
8.777385e+002, 1.000360e+003
8.782206e+002, 1.002674e+003
8.787027e+002, 1.004764e+003
8.791848e+002, 1.006360e+003
8.796669e+002, 1.006979e+003
8.801490e+002, 1.006285e+003
8.806312e+002, 1.005006e+003
8.811133e+002, 1.002774e+003
8.815954e+002, 1.000440e+003
8.820775e+002, 9.987032e+002
8.825596e+002, 9.972748e+002
8.830417e+002, 9.977868e+002
8.835239e+002, 1.000686e+003
8.840060e+002, 1.004045e+003
8.844881e+002, 1.006334e+003
8.849702e+002, 1.007466e+003
8.854523e+002, 1.006643e+003
8.859344e+002, 1.003622e+003
8.864166e+002, 1.001515e+003
8.868987e+002, 1.003793e+003
8.873808e+002, 1.006435e+003
8.878629e+002, 1.006025e+003
8.883450e+002, 1.001795e+003
8.888271e+002, 1.000305e+003
8.893093e+002, 1.002045e+003
8.897914e+002, 1.005187e+003
8.902735e+002, 1.009714e+003
8.907556e+002, 1.014714e+003
8.912377e+002, 1.015986e+003
8.917198e+002, 1.014071e+003
8.922020e+002, 1.012754e+003
8.926841e+002, 1.015328e+003
8.931662e+002, 1.018335e+003
8.936483e+002, 1.018915e+003
8.941304e+002, 1.017648e+003
8.946125e+002, 1.018303e+003
8.950947e+002, 1.022126e+003
8.955768e+002, 1.025746e+003
8.960589e+002, 1.028120e+003
8.965410e+002, 1.029869e+003
8.970231e+002, 1.032671e+003
8.975052e+002, 1.036356e+003
8.979874e+002, 1.039516e+003
8.984695e+002, 1.040912e+003
8.989516e+002, 1.042951e+003
8.994337e+002, 1.047611e+003
8.999158e+002, 1.054253e+003
9.003979e+002, 1.061861e+003
9.008801e+002, 1.070734e+003
9.013622e+002, 1.079889e+003
9.018443e+002, 1.088884e+003
9.023264e+002, 1.098763e+003
9.028085e+002, 1.111993e+003
9.032906e+002, 1.128163e+003
9.037728e+002, 1.140876e+003
9.042549e+002, 1.148926e+003
9.047370e+002, 1.156880e+003
9.052191e+002, 1.172396e+003
9.057012e+002, 1.187805e+003
9.061833e+002, 1.196069e+003
9.066655e+002, 1.196224e+003
9.071476e+002, 1.187494e+003
9.076297e+002, 1.165147e+003
9.081118e+002, 1.140527e+003
9.085939e+002, 1.118532e+003
9.090760e+002, 1.099304e+003
9.095582e+002, 1.083864e+003
9.100403e+002, 1.072320e+003
9.105224e+002, 1.063264e+003
9.110045e+002, 1.056262e+003
9.114866e+002, 1.050947e+003
9.119688e+002, 1.047509e+003
9.124509e+002, 1.045633e+003
9.129330e+002, 1.043895e+003
9.134151e+002, 1.041457e+003
9.138972e+002, 1.039670e+003
9.143793e+002, 1.038941e+003
9.148615e+002, 1.039019e+003
9.153436e+002, 1.039472e+003
9.158257e+002, 1.040290e+003
9.163078e+002, 1.040282e+003
9.167899e+002, 1.038615e+003
9.172720e+002, 1.036963e+003
9.177542e+002, 1.038250e+003
9.182363e+002, 1.040609e+003
9.187184e+002, 1.041003e+003
9.192005e+002, 1.036899e+003
9.196826e+002, 1.033349e+003
9.201647e+002, 1.030409e+003
9.206469e+002, 1.028863e+003
9.211290e+002, 1.030182e+003
9.216111e+002, 1.034535e+003
9.220932e+002, 1.036878e+003
9.225753e+002, 1.036698e+003
9.230574e+002, 1.035983e+003
9.235396e+002, 1.036996e+003
9.240217e+002, 1.038267e+003
9.245038e+002, 1.037763e+003
9.249859e+002, 1.035211e+003
9.254680e+002, 1.032716e+003
9.259501e+002, 1.030641e+003
9.264323e+002, 1.028986e+003
9.269144e+002, 1.028085e+003
9.273965e+002, 1.027712e+003
9.278786e+002, 1.024896e+003
9.283607e+002, 1.019580e+003
9.288428e+002, 1.016677e+003
9.293250e+002, 1.021980e+003
9.298071e+002, 1.028278e+003
9.302892e+002, 1.025207e+003
9.307713e+002, 1.016317e+003
9.312534e+002, 1.010604e+003
9.317355e+002, 1.014864e+003
9.322177e+002, 1.017321e+003
9.326998e+002, 1.015055e+003
9.331819e+002, 1.010751e+003
9.336640e+002, 1.008576e+003
9.341461e+002, 1.008532e+003
9.346282e+002, 1.009852e+003
9.351104e+002, 1.012702e+003
9.355925e+002, 1.015445e+003
9.360746e+002, 1.015652e+003
9.365567e+002, 1.015100e+003
9.370388e+002, 1.016531e+003
9.375209e+002, 1.021840e+003
9.380031e+002, 1.023684e+003
9.384852e+002, 1.018596e+003
9.389673e+002, 1.012692e+003
9.394494e+002, 1.009570e+003
9.399315e+002, 1.009176e+003
9.404136e+002, 1.008328e+003
9.408958e+002, 1.007047e+003
9.413779e+002, 1.006825e+003
9.418600e+002, 1.009832e+003
9.423421e+002, 1.013480e+003
9.428242e+002, 1.015591e+003
9.433063e+002, 1.016176e+003
9.437885e+002, 1.015852e+003
9.442706e+002, 1.013900e+003
9.447527e+002, 1.012161e+003
9.452348e+002, 1.010785e+003
9.457169e+002, 1.009984e+003
9.461990e+002, 1.010976e+003
9.466812e+002, 1.013386e+003
9.471633e+002, 1.013545e+003
9.476454e+002, 1.009412e+003
9.481275e+002, 1.005741e+003
9.486096e+002, 1.008322e+003
9.490917e+002, 1.013083e+003
9.495739e+002, 1.014951e+003
9.500560e+002, 1.010481e+003
9.505381e+002, 1.008516e+003
9.510202e+002, 1.010487e+003
9.515023e+002, 1.012760e+003
9.519844e+002, 1.011604e+003
9.524666e+002, 1.007925e+003
9.529487e+002, 1.007418e+003
9.534308e+002, 1.010083e+003
9.539129e+002, 1.012549e+003
9.543950e+002, 1.011237e+003
9.548771e+002, 1.009931e+003
9.553593e+002, 1.012153e+003
9.558414e+002, 1.017396e+003
9.563235e+002, 1.019773e+003
9.568056e+002, 1.017912e+003
9.572877e+002, 1.016018e+003
9.577698e+002, 1.015215e+003
9.582520e+002, 1.015182e+003
9.587341e+002, 1.015077e+003
9.592162e+002, 1.015126e+003
9.596983e+002, 1.016195e+003
9.601804e+002, 1.019319e+003
9.606625e+002, 1.022047e+003
9.611447e+002, 1.022718e+003
9.616268e+002, 1.022445e+003
9.621089e+002, 1.022548e+003
9.625910e+002, 1.023271e+003
9.630731e+002, 1.023736e+003
9.635552e+002, 1.023843e+003
9.640374e+002, 1.024022e+003
9.645195e+002, 1.025101e+003
9.650016e+002, 1.026402e+003
9.654837e+002, 1.026280e+003
9.659658e+002, 1.024769e+003
9.664479e+002, 1.023386e+003
9.669301e+002, 1.022564e+003
9.674122e+002, 1.022427e+003
9.678943e+002, 1.023581e+003
9.683764e+002, 1.025514e+003
9.688585e+002, 1.025443e+003
9.693406e+002, 1.022951e+003
9.698228e+002, 1.022340e+003
9.703049e+002, 1.026026e+003
9.707870e+002, 1.030311e+003
9.712691e+002, 1.028933e+003
9.717512e+002, 1.024704e+003
9.722333e+002, 1.022982e+003
9.727155e+002, 1.028531e+003
9.731976e+002, 1.030699e+003
9.736797e+002, 1.024193e+003
9.741618e+002, 1.017023e+003
9.746439e+002, 1.017317e+003
9.751260e+002, 1.025170e+003
9.756082e+002, 1.027990e+003
9.760903e+002, 1.025180e+003
9.765724e+002, 1.021859e+003
9.770544e+002, 1.022120e+003
9.775366e+002, 1.023886e+003
9.780187e+002, 1.025609e+003
9.785008e+002, 1.027137e+003
9.789829e+002, 1.027997e+003
9.794650e+002, 1.027471e+003
9.799471e+002, 1.027517e+003
9.804293e+002, 1.029141e+003
9.809114e+002, 1.031211e+003
9.813935e+002, 1.030196e+003
9.818756e+002, 1.026930e+003
9.823577e+002, 1.025464e+003
9.828398e+002, 1.027756e+003
9.833220e+002, 1.030516e+003
9.838041e+002, 1.031948e+003
9.842862e+002, 1.032388e+003
9.847683e+002, 1.032028e+003
9.852504e+002, 1.030174e+003
9.857325e+002, 1.030057e+003
9.862147e+002, 1.032369e+003
9.866968e+002, 1.034271e+003
9.871789e+002, 1.032612e+003
9.876610e+002, 1.029078e+003
9.881431e+002, 1.027802e+003
9.886252e+002, 1.028603e+003
9.891074e+002, 1.029228e+003
9.895895e+002, 1.027459e+003
9.900716e+002, 1.026537e+003
9.905537e+002, 1.028850e+003
9.910358e+002, 1.032841e+003
9.915179e+002, 1.034219e+003
9.920001e+002, 1.032800e+003
9.924822e+002, 1.030375e+003
9.929643e+002, 1.026835e+003
9.934464e+002, 1.023996e+003
9.939285e+002, 1.025095e+003
9.944106e+002, 1.027903e+003
9.948928e+002, 1.029013e+003
9.953749e+002, 1.026621e+003
9.958570e+002, 1.025858e+003
9.963391e+002, 1.028699e+003
9.968212e+002, 1.031512e+003
9.973033e+002, 1.031642e+003
9.977855e+002, 1.029481e+003
9.982676e+002, 1.029306e+003
9.987497e+002, 1.030923e+003
9.992318e+002, 1.031841e+003
9.997139e+002, 1.028967e+003
1.000196e+003, 1.026339e+003
1.000678e+003, 1.027796e+003
1.001160e+003, 1.031786e+003
1.001642e+003, 1.033329e+003
1.002125e+003, 1.030870e+003
1.002607e+003, 1.029474e+003
1.003089e+003, 1.030205e+003
1.003571e+003, 1.031499e+003
1.004053e+003, 1.030808e+003
1.004535e+003, 1.029068e+003
1.005017e+003, 1.028445e+003
1.005499e+003, 1.029338e+003
1.005981e+003, 1.030929e+003
1.006464e+003, 1.034171e+003
1.006946e+003, 1.036689e+003
1.007428e+003, 1.036725e+003
1.007910e+003, 1.034461e+003
1.008392e+003, 1.034460e+003
1.008874e+003, 1.036873e+003
1.009356e+003, 1.038169e+003
1.009838e+003, 1.035433e+003
1.010320e+003, 1.031961e+003
1.010803e+003, 1.031387e+003
1.011285e+003, 1.033023e+003
1.011767e+003, 1.035474e+003
1.012249e+003, 1.040645e+003
1.012731e+003, 1.043099e+003
1.013213e+003, 1.041526e+003
1.013695e+003, 1.038602e+003
1.014177e+003, 1.036942e+003
1.014660e+003, 1.036487e+003
1.015142e+003, 1.037267e+003
1.015624e+003, 1.039262e+003
1.016106e+003, 1.040638e+003
1.016588e+003, 1.039850e+003
1.017070e+003, 1.038288e+003
1.017552e+003, 1.036638e+003
1.018034e+003, 1.034990e+003
1.018516e+003, 1.033270e+003
1.018999e+003, 1.031009e+003
1.019481e+003, 1.031053e+003
1.019963e+003, 1.035184e+003
1.020445e+003, 1.040055e+003
1.020927e+003, 1.040016e+003
1.021409e+003, 1.037063e+003
1.021891e+003, 1.034950e+003
1.022373e+003, 1.035109e+003
1.022856e+003, 1.034937e+003
1.023338e+003, 1.033116e+003
1.023820e+003, 1.031569e+003
1.024302e+003, 1.032047e+003
1.024784e+003, 1.034423e+003
1.025266e+003, 1.034028e+003
1.025748e+003, 1.031069e+003
1.026230e+003, 1.028815e+003
1.026713e+003, 1.030216e+003
1.027195e+003, 1.032293e+003
1.027677e+003, 1.032489e+003
1.028159e+003, 1.031581e+003
1.028641e+003, 1.032069e+003
1.029123e+003, 1.034856e+003
1.029605e+003, 1.036938e+003
1.030087e+003, 1.037929e+003
1.030569e+003, 1.038010e+003
1.031052e+003, 1.036532e+003
1.031534e+003, 1.034538e+003
1.032016e+003, 1.034930e+003
1.032498e+003, 1.038360e+003
1.032980e+003, 1.039807e+003
1.033462e+003, 1.034237e+003
1.033944e+003, 1.029288e+003
1.034426e+003, 1.028835e+003
1.034908e+003, 1.031981e+003
1.035391e+003, 1.033742e+003
1.035873e+003, 1.034163e+003
1.036355e+003, 1.034713e+003
1.036837e+003, 1.036537e+003
1.037319e+003, 1.037673e+003
1.037801e+003, 1.034671e+003
1.038283e+003, 1.030450e+003
1.038765e+003, 1.029275e+003
1.039248e+003, 1.032944e+003
1.039730e+003, 1.037550e+003
1.040212e+003, 1.044118e+003
1.040694e+003, 1.049005e+003
1.041176e+003, 1.048136e+003
1.041658e+003, 1.043749e+003
1.042140e+003, 1.040640e+003
1.042622e+003, 1.038980e+003
1.043104e+003, 1.038773e+003
1.043587e+003, 1.043152e+003
1.044069e+003, 1.045149e+003
1.044551e+003, 1.040236e+003
1.045033e+003, 1.033031e+003
1.045515e+003, 1.033531e+003
1.045997e+003, 1.041589e+003
1.046479e+003, 1.045568e+003
1.046961e+003, 1.042905e+003
1.047443e+003, 1.039469e+003
1.047926e+003, 1.041308e+003
1.048408e+003, 1.044388e+003
1.048890e+003, 1.044834e+003
1.049372e+003, 1.041904e+003
1.049854e+003, 1.038678e+003
1.050336e+003, 1.034508e+003
1.050818e+003, 1.032158e+003
1.051300e+003, 1.033688e+003
1.051783e+003, 1.036780e+003
1.052265e+003, 1.036081e+003
1.052747e+003, 1.033166e+003
1.053229e+003, 1.031882e+003
1.053711e+003, 1.034197e+003
1.054193e+003, 1.037194e+003
1.054675e+003, 1.041693e+003
1.055157e+003, 1.045070e+003
1.055640e+003, 1.044747e+003
1.056122e+003, 1.040795e+003
1.056604e+003, 1.037637e+003
1.057086e+003, 1.035345e+003
1.057568e+003, 1.034087e+003
1.058050e+003, 1.033693e+003
1.058532e+003, 1.034660e+003
1.059014e+003, 1.039083e+003
1.059496e+003, 1.045126e+003
1.059979e+003, 1.046785e+003
1.060461e+003, 1.041990e+003
1.060943e+003, 1.039546e+003
1.061425e+003, 1.041106e+003
1.061907e+003, 1.044157e+003
1.062389e+003, 1.046448e+003
1.062871e+003, 1.047690e+003
1.063353e+003, 1.046891e+003
1.063835e+003, 1.043801e+003
1.064318e+003, 1.041497e+003
1.064800e+003, 1.041473e+003
1.065282e+003, 1.041463e+003
1.065764e+003, 1.040182e+003
1.066246e+003, 1.038672e+003
1.066728e+003, 1.041601e+003
1.067210e+003, 1.047687e+003
1.067692e+003, 1.050109e+003
1.068175e+003, 1.044948e+003
1.068657e+003, 1.039598e+003
1.069139e+003, 1.038186e+003
1.069621e+003, 1.038990e+003
1.070103e+003, 1.040541e+003
1.070585e+003, 1.043110e+003
1.071067e+003, 1.044125e+003
1.071549e+003, 1.043532e+003
1.072031e+003, 1.042138e+003
1.072514e+003, 1.039079e+003
1.072996e+003, 1.036574e+003
1.073478e+003, 1.038584e+003
1.073960e+003, 1.043116e+003
1.074442e+003, 1.045071e+003
1.074924e+003, 1.041055e+003
1.075406e+003, 1.038446e+003
1.075888e+003, 1.038088e+003
1.076370e+003, 1.038608e+003
1.076853e+003, 1.038370e+003
1.077335e+003, 1.037784e+003
1.077817e+003, 1.038326e+003
1.078299e+003, 1.039974e+003
1.078781e+003, 1.040538e+003
1.079263e+003, 1.037739e+003
1.079745e+003, 1.035037e+003
1.080227e+003, 1.033722e+003
1.080709e+003, 1.033466e+003
1.081192e+003, 1.033666e+003
1.081674e+003, 1.034261e+003
1.082156e+003, 1.034255e+003
1.082638e+003, 1.033257e+003
1.083120e+003, 1.032387e+003
1.083602e+003, 1.032651e+003
1.084084e+003, 1.033420e+003
1.084566e+003, 1.034311e+003
1.085049e+003, 1.035346e+003
1.085531e+003, 1.035154e+003
1.086013e+003, 1.033281e+003
1.086495e+003, 1.032869e+003
1.086977e+003, 1.036320e+003
1.087459e+003, 1.040781e+003
1.087941e+003, 1.042245e+003
1.088423e+003, 1.041637e+003
1.088906e+003, 1.040602e+003
1.089388e+003, 1.038459e+003
1.089870e+003, 1.038097e+003
1.090352e+003, 1.040432e+003
1.090834e+003, 1.042977e+003
1.091316e+003, 1.043933e+003
1.091798e+003, 1.043466e+003
1.092280e+003, 1.041334e+003
1.092762e+003, 1.038053e+003
1.093245e+003, 1.036229e+003
1.093727e+003, 1.038650e+003
1.094209e+003, 1.040949e+003
1.094691e+003, 1.041400e+003
1.095173e+003, 1.041038e+003
1.095655e+003, 1.041283e+003
1.096137e+003, 1.042105e+003
1.096619e+003, 1.042771e+003
1.097101e+003, 1.043181e+003
1.097584e+003, 1.044022e+003
1.098066e+003, 1.046723e+003
1.098548e+003, 1.049300e+003
1.099030e+003, 1.050748e+003
1.099512e+003, 1.050748e+003
1.099994e+003, 1.047582e+003
1.100476e+003, 1.040068e+003
1.100958e+003, 1.036300e+003
1.101441e+003, 1.039130e+003
1.101923e+003, 1.043613e+003
1.102405e+003, 1.043377e+003
1.102887e+003, 1.041026e+003
1.103369e+003, 1.040141e+003
1.103851e+003, 1.041695e+003
1.104333e+003, 1.041874e+003
1.104815e+003, 1.039626e+003
1.105297e+003, 1.037882e+003
1.105780e+003, 1.038140e+003
1.106262e+003, 1.039591e+003
1.106744e+003, 1.040503e+003
1.107226e+003, 1.041036e+003
1.107708e+003, 1.041527e+003
1.108190e+003, 1.041828e+003
1.108672e+003, 1.042639e+003
1.109154e+003, 1.044897e+003
1.109636e+003, 1.046846e+003
1.110119e+003, 1.047234e+003
1.110601e+003, 1.046153e+003
1.111083e+003, 1.043563e+003
1.111565e+003, 1.039918e+003
1.112047e+003, 1.038242e+003
1.112529e+003, 1.042477e+003
1.113011e+003, 1.046632e+003
1.113493e+003, 1.047510e+003
1.113976e+003, 1.046685e+003
1.114458e+003, 1.046386e+003
1.114940e+003, 1.046638e+003
1.115422e+003, 1.047534e+003
1.115904e+003, 1.049166e+003
1.116386e+003, 1.049821e+003
1.116868e+003, 1.045716e+003
1.117350e+003, 1.042050e+003
1.117833e+003, 1.045349e+003
1.118315e+003, 1.053501e+003
1.118797e+003, 1.055570e+003
1.119279e+003, 1.049131e+003
1.119761e+003, 1.045138e+003
1.120243e+003, 1.046043e+003
1.120725e+003, 1.047668e+003
1.121207e+003, 1.043401e+003
1.121689e+003, 1.037582e+003
1.122172e+003, 1.036577e+003
1.122654e+003, 1.041229e+003
1.123136e+003, 1.044542e+003
1.123618e+003, 1.045196e+003
1.124100e+003, 1.045573e+003
1.124582e+003, 1.046610e+003
1.125064e+003, 1.047529e+003
1.125546e+003, 1.045887e+003
1.126028e+003, 1.043115e+003
1.126511e+003, 1.042629e+003
1.126993e+003, 1.045967e+003
1.127475e+003, 1.048673e+003
1.127957e+003, 1.049251e+003
1.128439e+003, 1.049067e+003
1.128921e+003, 1.048230e+003
1.129403e+003, 1.047269e+003
1.129885e+003, 1.049475e+003
1.130368e+003, 1.053820e+003
1.130850e+003, 1.055782e+003
1.131332e+003, 1.051532e+003
1.131814e+003, 1.048125e+003
1.132296e+003, 1.049818e+003
1.132778e+003, 1.052966e+003
1.133260e+003, 1.054486e+003
1.133742e+003, 1.054334e+003
1.134224e+003, 1.054725e+003
1.134707e+003, 1.055626e+003
1.135189e+003, 1.056501e+003
1.135671e+003, 1.057385e+003
1.136153e+003, 1.057774e+003
1.136635e+003, 1.056760e+003
1.137117e+003, 1.055321e+003
1.137599e+003, 1.055169e+003
1.138081e+003, 1.056654e+003
1.138563e+003, 1.057511e+003
1.139046e+003, 1.057610e+003
1.139528e+003, 1.057561e+003
1.140010e+003, 1.058298e+003
1.140492e+003, 1.058762e+003
1.140974e+003, 1.057544e+003
1.141456e+003, 1.055172e+003
1.141938e+003, 1.053710e+003
1.142420e+003, 1.053612e+003
1.142903e+003, 1.053090e+003
1.143385e+003, 1.051711e+003
1.143867e+003, 1.050652e+003
1.144349e+003, 1.051458e+003
1.144831e+003, 1.053143e+003
1.145313e+003, 1.054704e+003
1.145795e+003, 1.056006e+003
1.146277e+003, 1.056297e+003
1.146760e+003, 1.054613e+003
1.147242e+003, 1.054158e+003
1.147724e+003, 1.056109e+003
1.148206e+003, 1.058605e+003
1.148688e+003, 1.059072e+003
1.149170e+003, 1.057958e+003
1.149652e+003, 1.055525e+003
1.150134e+003, 1.051610e+003
1.150616e+003, 1.049540e+003
1.151099e+003, 1.051335e+003
1.151581e+003, 1.053224e+003
1.152063e+003, 1.053975e+003
1.152545e+003, 1.053978e+003
1.153027e+003, 1.053998e+003
1.153509e+003, 1.054036e+003
1.153991e+003, 1.053964e+003
1.154473e+003, 1.053485e+003
1.154955e+003, 1.053904e+003
1.155438e+003, 1.057267e+003
1.155920e+003, 1.059817e+003
1.156402e+003, 1.059021e+003
1.156884e+003, 1.056156e+003
1.157366e+003, 1.057339e+003
1.157848e+003, 1.061589e+003
1.158330e+003, 1.064578e+003
1.158812e+003, 1.064187e+003
1.159295e+003, 1.063343e+003
1.159777e+003, 1.063287e+003
1.160259e+003, 1.063278e+003
1.160741e+003, 1.062756e+003
1.161223e+003, 1.061746e+003
1.161705e+003, 1.060161e+003
1.162187e+003, 1.058282e+003
1.162669e+003, 1.058272e+003
1.163151e+003, 1.063561e+003
1.163634e+003, 1.068223e+003
1.164116e+003, 1.068154e+003
1.164598e+003, 1.066442e+003
1.165080e+003, 1.066927e+003
1.165562e+003, 1.069851e+003
1.166044e+003, 1.070243e+003
1.166526e+003, 1.068109e+003
1.167008e+003, 1.066270e+003
1.167490e+003, 1.067248e+003
1.167973e+003, 1.068418e+003
1.168455e+003, 1.068255e+003
1.168937e+003, 1.066971e+003
1.169419e+003, 1.064620e+003
1.169901e+003, 1.060711e+003
1.170383e+003, 1.060527e+003
1.170865e+003, 1.064582e+003
1.171347e+003, 1.068641e+003
1.171830e+003, 1.069407e+003
1.172312e+003, 1.068824e+003
1.172794e+003, 1.068037e+003
1.173276e+003, 1.067235e+003
1.173758e+003, 1.066571e+003
1.174240e+003, 1.065748e+003
1.174722e+003, 1.067164e+003
1.175204e+003, 1.071476e+003
1.175687e+003, 1.075321e+003
1.176169e+003, 1.074672e+003
1.176651e+003, 1.072733e+003
1.177133e+003, 1.072929e+003
1.177615e+003, 1.074865e+003
1.178097e+003, 1.074559e+003
1.178579e+003, 1.070777e+003
1.179061e+003, 1.070178e+003
1.179543e+003, 1.074576e+003
1.180026e+003, 1.079756e+003
1.180508e+003, 1.081440e+003
1.180990e+003, 1.081134e+003
1.181472e+003, 1.080147e+003
1.181954e+003, 1.078642e+003
1.182436e+003, 1.077114e+003
1.182918e+003, 1.075240e+003
1.183400e+003, 1.074797e+003
1.183882e+003, 1.076613e+003
1.184365e+003, 1.078898e+003
1.184847e+003, 1.079718e+003
1.185329e+003, 1.079446e+003
1.185811e+003, 1.078174e+003
1.186293e+003, 1.075802e+003
1.186775e+003, 1.074475e+003
1.187257e+003, 1.074219e+003
1.187739e+003, 1.075391e+003
1.188222e+003, 1.078815e+003
1.188704e+003, 1.082114e+003
1.189186e+003, 1.080854e+003
1.189668e+003, 1.077731e+003
1.190150e+003, 1.076718e+003
1.190632e+003, 1.078918e+003
1.191114e+003, 1.081303e+003
1.191596e+003, 1.084022e+003
1.192078e+003, 1.086006e+003
1.192561e+003, 1.086801e+003
1.193043e+003, 1.086634e+003
1.193525e+003, 1.085482e+003
1.194007e+003, 1.083778e+003
1.194489e+003, 1.081991e+003
1.194971e+003, 1.079710e+003
1.195453e+003, 1.079642e+003
1.195935e+003, 1.082645e+003
1.196417e+003, 1.085544e+003
1.196900e+003, 1.086752e+003
1.197382e+003, 1.086835e+003
1.197864e+003, 1.086490e+003
1.198346e+003, 1.085877e+003
1.198828e+003, 1.085234e+003
1.199310e+003, 1.084351e+003
1.199792e+003, 1.084244e+003
1.200274e+003, 1.085169e+003
1.200757e+003, 1.086256e+003
1.201239e+003, 1.087231e+003
1.201721e+003, 1.087837e+003
1.202203e+003, 1.087460e+003
1.202685e+003, 1.086408e+003
1.203167e+003, 1.085269e+003
1.203649e+003, 1.083624e+003
1.204131e+003, 1.083254e+003
1.204614e+003, 1.084647e+003
1.205096e+003, 1.086077e+003
1.205578e+003, 1.085843e+003
1.206060e+003, 1.085135e+003
1.206542e+003, 1.086484e+003
1.207024e+003, 1.089122e+003
1.207506e+003, 1.091288e+003
1.207988e+003, 1.092408e+003
1.208470e+003, 1.092937e+003
1.208953e+003, 1.092691e+003
1.209435e+003, 1.092338e+003
1.209917e+003, 1.091947e+003
1.210399e+003, 1.092038e+003
1.210881e+003, 1.094793e+003
1.211363e+003, 1.098740e+003
1.211845e+003, 1.100012e+003
1.212327e+003, 1.095068e+003
1.212809e+003, 1.091392e+003
1.213292e+003, 1.089220e+003
1.213774e+003, 1.088519e+003
1.214256e+003, 1.089990e+003
1.214738e+003, 1.092503e+003
1.215220e+003, 1.094555e+003
1.215702e+003, 1.096056e+003
1.216184e+003, 1.096792e+003
1.216666e+003, 1.097120e+003
1.217149e+003, 1.095350e+003
1.217631e+003, 1.090404e+003
1.218113e+003, 1.086617e+003
1.218595e+003, 1.089697e+003
1.219077e+003, 1.095348e+003
1.219559e+003, 1.096570e+003
1.220041e+003, 1.094644e+003
1.220523e+003, 1.095155e+003
1.221005e+003, 1.101417e+003
1.221488e+003, 1.104293e+003
1.221970e+003, 1.102543e+003
1.222452e+003, 1.099249e+003
1.222934e+003, 1.096126e+003
1.223416e+003, 1.094095e+003
1.223898e+003, 1.095488e+003
1.224380e+003, 1.099272e+003
1.224862e+003, 1.100773e+003
1.225344e+003, 1.098235e+003
1.225827e+003, 1.097649e+003
1.226309e+003, 1.100051e+003
1.226791e+003, 1.102503e+003
1.227273e+003, 1.101082e+003
1.227755e+003, 1.098844e+003
1.228237e+003, 1.100041e+003
1.228719e+003, 1.103758e+003
1.229201e+003, 1.104912e+003
1.229684e+003, 1.102174e+003
1.230166e+003, 1.100935e+003
1.230648e+003, 1.102108e+003
1.231130e+003, 1.103171e+003
1.231612e+003, 1.100713e+003
1.232094e+003, 1.097683e+003
1.232576e+003, 1.097539e+003
1.233058e+003, 1.099649e+003
1.233541e+003, 1.100179e+003
1.234023e+003, 1.098311e+003
1.234505e+003, 1.098711e+003
1.234987e+003, 1.102211e+003
1.235469e+003, 1.106130e+003
1.235951e+003, 1.108727e+003
1.236433e+003, 1.109950e+003
1.236915e+003, 1.109228e+003
1.237397e+003, 1.107030e+003
1.237880e+003, 1.105094e+003
1.238362e+003, 1.103229e+003
1.238844e+003, 1.104087e+003
1.239326e+003, 1.108373e+003
1.239808e+003, 1.111699e+003
1.240290e+003, 1.108050e+003
1.240772e+003, 1.103874e+003
1.241254e+003, 1.104895e+003
1.241736e+003, 1.109440e+003
1.242219e+003, 1.112256e+003
1.242701e+003, 1.113342e+003
1.243183e+003, 1.113909e+003
1.243665e+003, 1.114115e+003
1.244147e+003, 1.113957e+003
1.244629e+003, 1.112539e+003
1.245111e+003, 1.111627e+003
1.245593e+003, 1.112454e+003
1.246076e+003, 1.114606e+003
1.246558e+003, 1.118222e+003
1.247040e+003, 1.122958e+003
1.247522e+003, 1.123784e+003
1.248004e+003, 1.119833e+003
1.248486e+003, 1.116371e+003
1.248968e+003, 1.117662e+003
1.249450e+003, 1.119400e+003
1.249932e+003, 1.119131e+003
1.250415e+003, 1.118131e+003
1.250897e+003, 1.119609e+003
1.251379e+003, 1.122887e+003
1.251861e+003, 1.124080e+003
1.252343e+003, 1.122644e+003
1.252825e+003, 1.121011e+003
1.253307e+003, 1.120051e+003
1.253789e+003, 1.119510e+003
1.254271e+003, 1.118781e+003
1.254754e+003, 1.118896e+003
1.255236e+003, 1.122900e+003
1.255718e+003, 1.129222e+003
1.256200e+003, 1.132570e+003
1.256682e+003, 1.132412e+003
1.257164e+003, 1.132451e+003
1.257646e+003, 1.134818e+003
1.258128e+003, 1.136642e+003
1.258611e+003, 1.137240e+003
1.259093e+003, 1.137101e+003
1.259575e+003, 1.135677e+003
1.260057e+003, 1.134570e+003
1.260539e+003, 1.138317e+003
1.261021e+003, 1.146987e+003
1.261503e+003, 1.152195e+003
1.261985e+003, 1.149754e+003
1.262468e+003, 1.148676e+003
1.262950e+003, 1.150923e+003
1.263432e+003, 1.154705e+003
1.263914e+003, 1.159052e+003
1.264396e+003, 1.162449e+003
1.264878e+003, 1.161217e+003
1.265360e+003, 1.155805e+003
1.265842e+003, 1.155081e+003
1.266324e+003, 1.161609e+003
1.266807e+003, 1.166022e+003
1.267289e+003, 1.166583e+003
1.267771e+003, 1.164624e+003
1.268253e+003, 1.160546e+003
1.268735e+003, 1.155559e+003
1.269217e+003, 1.149974e+003
1.269699e+003, 1.144550e+003
1.270181e+003, 1.143072e+003
1.270663e+003, 1.146703e+003
1.271146e+003, 1.145369e+003
1.271628e+003, 1.136853e+003
1.272110e+003, 1.129357e+003
1.272592e+003, 1.133148e+003
1.273074e+003, 1.138265e+003
1.273556e+003, 1.135531e+003
1.274038e+003, 1.128170e+003
1.274520e+003, 1.125490e+003
1.275002e+003, 1.127358e+003
1.275485e+003, 1.129278e+003
1.275967e+003, 1.130684e+003
1.276449e+003, 1.131559e+003
1.276931e+003, 1.131991e+003
1.277413e+003, 1.131712e+003
1.277895e+003, 1.129418e+003
1.278377e+003, 1.127248e+003
1.278859e+003, 1.130341e+003
1.279342e+003, 1.137220e+003
1.279824e+003, 1.139053e+003
1.280306e+003, 1.135253e+003
1.280788e+003, 1.133362e+003
1.281270e+003, 1.139599e+003
1.281752e+003, 1.145120e+003
1.282234e+003, 1.147550e+003
1.282716e+003, 1.148210e+003
1.283198e+003, 1.148790e+003
1.283681e+003, 1.149154e+003
1.284163e+003, 1.149401e+003
1.284645e+003, 1.149322e+003
1.285127e+003, 1.147224e+003
1.285609e+003, 1.140638e+003
1.286091e+003, 1.135418e+003
1.286573e+003, 1.132274e+003
1.287055e+003, 1.131060e+003
1.287537e+003, 1.133327e+003
1.288020e+003, 1.136340e+003
1.288502e+003, 1.135375e+003
1.288984e+003, 1.131338e+003
1.289466e+003, 1.129643e+003
1.289948e+003, 1.131620e+003
1.290430e+003, 1.132439e+003
1.290912e+003, 1.131421e+003
1.291394e+003, 1.130520e+003
1.291877e+003, 1.131994e+003
1.292359e+003, 1.133939e+003
1.292841e+003, 1.134929e+003
1.293323e+003, 1.134896e+003
1.293805e+003, 1.133682e+003
1.294287e+003, 1.131014e+003
1.294769e+003, 1.130682e+003
1.295251e+003, 1.132971e+003
1.295734e+003, 1.136187e+003
1.296216e+003, 1.140703e+003
1.296698e+003, 1.143891e+003
1.297180e+003, 1.143623e+003
1.297662e+003, 1.141662e+003
1.298144e+003, 1.139475e+003
1.298626e+003, 1.137248e+003
1.299108e+003, 1.136389e+003
1.299590e+003, 1.136989e+003
1.300073e+003, 1.138706e+003
1.300555e+003, 1.140802e+003
##END=



