##NAMES=Ehrleite
##RRUFFID=R180029
##IDEAL CHEMISTRY=Ca_2_Zn^2+^Be(PO_4_)_2_(PO_3_OH)&#183;4H_2_O
##LOCALITY=Tip Top mine, Custer District, Custer Co., South Dakota, USA
##OWNER=RRUFF
##SOURCE=Tom Loomis
##DESCRIPTION=Colorless thick tabular crystals, twinned by a 2-fold parallel to (001)
##STATUS=The identification of this mineral has been confirmed only by single crystal X-ray diffraction.
##URL=rruff.info/R180029
8.813672e+001, 4.601073e+001
8.861884e+001, 4.714805e+001
8.910095e+001, 4.792402e+001
8.958307e+001, 4.800160e+001
9.006519e+001, 4.792039e+001
9.054730e+001, 4.835734e+001
9.102942e+001, 4.936694e+001
9.151154e+001, 5.031666e+001
9.199365e+001, 5.053616e+001
9.247577e+001, 5.023711e+001
9.295789e+001, 4.999566e+001
9.344000e+001, 5.012551e+001
9.392212e+001, 5.047157e+001
9.440424e+001, 5.067797e+001
9.488635e+001, 5.073427e+001
9.536847e+001, 5.088335e+001
9.585059e+001, 5.157896e+001
9.633270e+001, 5.278911e+001
9.681482e+001, 5.388953e+001
9.729694e+001, 5.440115e+001
9.777905e+001, 5.438035e+001
9.826117e+001, 5.461327e+001
9.874329e+001, 5.515551e+001
9.922540e+001, 5.596879e+001
9.970752e+001, 5.707627e+001
1.001896e+002, 5.855288e+001
1.006718e+002, 5.997189e+001
1.011539e+002, 6.084203e+001
1.016360e+002, 6.087853e+001
1.021181e+002, 6.170101e+001
1.026002e+002, 6.356049e+001
1.030823e+002, 6.636348e+001
1.035645e+002, 6.946700e+001
1.040466e+002, 7.273406e+001
1.045287e+002, 7.648434e+001
1.050108e+002, 8.119565e+001
1.054929e+002, 8.775734e+001
1.059750e+002, 9.363583e+001
1.064572e+002, 9.842342e+001
1.069393e+002, 1.021160e+002
1.074214e+002, 1.049811e+002
1.079035e+002, 1.054629e+002
1.083856e+002, 1.059121e+002
1.088677e+002, 1.088764e+002
1.093499e+002, 1.141353e+002
1.098320e+002, 1.221019e+002
1.103141e+002, 1.332437e+002
1.107962e+002, 1.486794e+002
1.112783e+002, 1.642427e+002
1.117604e+002, 1.829001e+002
1.122426e+002, 2.012035e+002
1.127247e+002, 2.134883e+002
1.132068e+002, 2.190562e+002
1.136889e+002, 2.184448e+002
1.141710e+002, 2.109075e+002
1.146531e+002, 1.926056e+002
1.151353e+002, 1.746782e+002
1.156174e+002, 1.589676e+002
1.160995e+002, 1.454994e+002
1.165816e+002, 1.341556e+002
1.170637e+002, 1.254299e+002
1.175458e+002, 1.185326e+002
1.180280e+002, 1.129582e+002
1.185101e+002, 1.093741e+002
1.189922e+002, 1.061444e+002
1.194743e+002, 1.024045e+002
1.199564e+002, 9.826637e+001
1.204385e+002, 9.432069e+001
1.209207e+002, 9.072089e+001
1.214028e+002, 8.754952e+001
1.218849e+002, 8.490530e+001
1.223670e+002, 8.269810e+001
1.228491e+002, 8.109844e+001
1.233312e+002, 8.045681e+001
1.238134e+002, 8.073766e+001
1.242955e+002, 8.131322e+001
1.247776e+002, 8.158107e+001
1.252597e+002, 8.178331e+001
1.257418e+002, 8.240586e+001
1.262239e+002, 8.414389e+001
1.267061e+002, 8.630201e+001
1.271882e+002, 8.768852e+001
1.276703e+002, 8.827641e+001
1.281524e+002, 8.844332e+001
1.286345e+002, 8.821323e+001
1.291166e+002, 8.776167e+001
1.295988e+002, 8.785617e+001
1.300809e+002, 8.884354e+001
1.305630e+002, 9.068010e+001
1.310451e+002, 9.315862e+001
1.315272e+002, 9.623449e+001
1.320093e+002, 1.000903e+002
1.324915e+002, 1.051626e+002
1.329736e+002, 1.114604e+002
1.334557e+002, 1.184133e+002
1.339378e+002, 1.254782e+002
1.344199e+002, 1.327414e+002
1.349020e+002, 1.412084e+002
1.353842e+002, 1.512299e+002
1.358663e+002, 1.621696e+002
1.363484e+002, 1.733164e+002
1.368305e+002, 1.847527e+002
1.373126e+002, 1.959463e+002
1.377947e+002, 2.068653e+002
1.382769e+002, 2.178280e+002
1.387590e+002, 2.266263e+002
1.392411e+002, 2.332365e+002
1.397232e+002, 2.373811e+002
1.402053e+002, 2.371880e+002
1.406874e+002, 2.311328e+002
1.411696e+002, 2.238629e+002
1.416517e+002, 2.190219e+002
1.421338e+002, 2.181450e+002
1.426159e+002, 2.155039e+002
1.430980e+002, 2.102754e+002
1.435801e+002, 2.026091e+002
1.440623e+002, 1.938771e+002
1.445444e+002, 1.839524e+002
1.450265e+002, 1.731390e+002
1.455086e+002, 1.616391e+002
1.459907e+002, 1.478878e+002
1.464728e+002, 1.357701e+002
1.469550e+002, 1.255260e+002
1.474371e+002, 1.171781e+002
1.479192e+002, 1.112988e+002
1.484013e+002, 1.087539e+002
1.488834e+002, 1.081640e+002
1.493655e+002, 1.082663e+002
1.498477e+002, 1.092605e+002
1.503298e+002, 1.107336e+002
1.508119e+002, 1.125057e+002
1.512940e+002, 1.144542e+002
1.517761e+002, 1.173283e+002
1.522583e+002, 1.224619e+002
1.527404e+002, 1.280000e+002
1.532225e+002, 1.320297e+002
1.537046e+002, 1.336382e+002
1.541867e+002, 1.343820e+002
1.546688e+002, 1.344682e+002
1.551510e+002, 1.337099e+002
1.556331e+002, 1.331465e+002
1.561152e+002, 1.326531e+002
1.565973e+002, 1.325190e+002
1.570794e+002, 1.331374e+002
1.575615e+002, 1.351023e+002
1.580437e+002, 1.374263e+002
1.585258e+002, 1.398894e+002
1.590079e+002, 1.427289e+002
1.594900e+002, 1.448950e+002
1.599721e+002, 1.460873e+002
1.604542e+002, 1.464075e+002
1.609364e+002, 1.460325e+002
1.614185e+002, 1.436418e+002
1.619006e+002, 1.415155e+002
1.623827e+002, 1.410607e+002
1.628648e+002, 1.430292e+002
1.633469e+002, 1.454182e+002
1.638291e+002, 1.484821e+002
1.643112e+002, 1.513846e+002
1.647933e+002, 1.522564e+002
1.652754e+002, 1.498723e+002
1.657575e+002, 1.453471e+002
1.662396e+002, 1.392610e+002
1.667218e+002, 1.309802e+002
1.672039e+002, 1.226065e+002
1.676860e+002, 1.152211e+002
1.681681e+002, 1.087963e+002
1.686502e+002, 1.029839e+002
1.691323e+002, 9.743980e+001
1.696145e+002, 9.254842e+001
1.700966e+002, 8.876797e+001
1.705787e+002, 8.642617e+001
1.710608e+002, 8.488253e+001
1.715429e+002, 8.363531e+001
1.720250e+002, 8.272314e+001
1.725072e+002, 8.236915e+001
1.729893e+002, 8.282013e+001
1.734714e+002, 8.386559e+001
1.739535e+002, 8.524239e+001
1.744356e+002, 8.699013e+001
1.749177e+002, 8.891164e+001
1.753999e+002, 9.083510e+001
1.758820e+002, 9.278198e+001
1.763641e+002, 9.476083e+001
1.768462e+002, 9.713528e+001
1.773283e+002, 9.955614e+001
1.778104e+002, 1.013157e+002
1.782926e+002, 1.018523e+002
1.787747e+002, 1.019348e+002
1.792568e+002, 1.026074e+002
1.797389e+002, 1.038482e+002
1.802210e+002, 1.053483e+002
1.807031e+002, 1.064717e+002
1.811853e+002, 1.075854e+002
1.816674e+002, 1.097524e+002
1.821495e+002, 1.139457e+002
1.826316e+002, 1.189865e+002
1.831137e+002, 1.226778e+002
1.835958e+002, 1.250450e+002
1.840780e+002, 1.263871e+002
1.845601e+002, 1.271880e+002
1.850422e+002, 1.272806e+002
1.855243e+002, 1.259909e+002
1.860064e+002, 1.229421e+002
1.864885e+002, 1.184097e+002
1.869707e+002, 1.128630e+002
1.874528e+002, 1.061623e+002
1.879349e+002, 9.935944e+001
1.884170e+002, 9.328074e+001
1.888991e+002, 8.794301e+001
1.893812e+002, 8.351134e+001
1.898634e+002, 8.015468e+001
1.903455e+002, 7.771806e+001
1.908276e+002, 7.558166e+001
1.913097e+002, 7.372260e+001
1.917918e+002, 7.218196e+001
1.922739e+002, 7.094051e+001
1.927561e+002, 6.998955e+001
1.932382e+002, 6.957623e+001
1.937203e+002, 7.006841e+001
1.942024e+002, 7.122729e+001
1.946845e+002, 7.156184e+001
1.951666e+002, 7.089067e+001
1.956488e+002, 7.000231e+001
1.961309e+002, 6.996869e+001
1.966130e+002, 7.085292e+001
1.970951e+002, 7.150924e+001
1.975772e+002, 7.143562e+001
1.980593e+002, 7.072201e+001
1.985415e+002, 7.043066e+001
1.990236e+002, 7.068213e+001
1.995057e+002, 7.104163e+001
1.999878e+002, 7.095290e+001
2.004699e+002, 7.038274e+001
2.009520e+002, 6.963249e+001
2.014342e+002, 6.880954e+001
2.019163e+002, 6.791084e+001
2.023984e+002, 6.683086e+001
2.028805e+002, 6.553132e+001
2.033626e+002, 6.413106e+001
2.038447e+002, 6.263572e+001
2.043269e+002, 6.090753e+001
2.048090e+002, 5.976462e+001
2.052911e+002, 5.965654e+001
2.057732e+002, 6.061037e+001
2.062553e+002, 6.124841e+001
2.067374e+002, 6.145533e+001
2.072196e+002, 6.152282e+001
2.077017e+002, 6.194779e+001
2.081838e+002, 6.291753e+001
2.086659e+002, 6.356775e+001
2.091480e+002, 6.347375e+001
2.096301e+002, 6.255030e+001
2.101123e+002, 6.204206e+001
2.105944e+002, 6.202549e+001
2.110765e+002, 6.231420e+001
2.115586e+002, 6.273189e+001
2.120407e+002, 6.341768e+001
2.125228e+002, 6.381774e+001
2.130050e+002, 6.357215e+001
2.134871e+002, 6.254129e+001
2.139692e+002, 6.229400e+001
2.144513e+002, 6.308102e+001
2.149334e+002, 6.437791e+001
2.154155e+002, 6.545560e+001
2.158977e+002, 6.620101e+001
2.163798e+002, 6.699932e+001
2.168619e+002, 6.789902e+001
2.173440e+002, 6.885265e+001
2.178261e+002, 7.028175e+001
2.183082e+002, 7.231031e+001
2.187904e+002, 7.466949e+001
2.192725e+002, 7.695805e+001
2.197546e+002, 7.901100e+001
2.202367e+002, 8.134565e+001
2.207188e+002, 8.437549e+001
2.212009e+002, 8.844240e+001
2.216831e+002, 9.101970e+001
2.221652e+002, 9.192152e+001
2.226473e+002, 9.152184e+001
2.231294e+002, 9.011687e+001
2.236115e+002, 8.698112e+001
2.240936e+002, 8.429506e+001
2.245758e+002, 8.284267e+001
2.250579e+002, 8.292177e+001
2.255400e+002, 8.203808e+001
2.260221e+002, 7.947420e+001
2.265042e+002, 7.657955e+001
2.269863e+002, 7.523476e+001
2.274685e+002, 7.616765e+001
2.279506e+002, 7.726994e+001
2.284327e+002, 7.804007e+001
2.289148e+002, 7.845722e+001
2.293969e+002, 7.873357e+001
2.298790e+002, 7.884837e+001
2.303612e+002, 7.883729e+001
2.308433e+002, 7.876974e+001
2.313254e+002, 7.877544e+001
2.318075e+002, 7.847957e+001
2.322896e+002, 7.774685e+001
2.327717e+002, 7.654170e+001
2.332539e+002, 7.524245e+001
2.337360e+002, 7.372265e+001
2.342181e+002, 7.225202e+001
2.347002e+002, 7.114777e+001
2.351823e+002, 7.059242e+001
2.356644e+002, 7.010305e+001
2.361466e+002, 6.964796e+001
2.366287e+002, 6.926103e+001
2.371108e+002, 6.851730e+001
2.375929e+002, 6.721464e+001
2.380750e+002, 6.576028e+001
2.385571e+002, 6.455247e+001
2.390393e+002, 6.353249e+001
2.395214e+002, 6.287843e+001
2.400035e+002, 6.271740e+001
2.404856e+002, 6.308039e+001
2.409677e+002, 6.331535e+001
2.414498e+002, 6.331090e+001
2.419320e+002, 6.328444e+001
2.424141e+002, 6.345358e+001
2.428962e+002, 6.391895e+001
2.433783e+002, 6.439700e+001
2.438604e+002, 6.491472e+001
2.443425e+002, 6.547029e+001
2.448247e+002, 6.562246e+001
2.453068e+002, 6.510112e+001
2.457889e+002, 6.445832e+001
2.462710e+002, 6.421322e+001
2.467531e+002, 6.473318e+001
2.472352e+002, 6.490592e+001
2.477174e+002, 6.441478e+001
2.481995e+002, 6.331406e+001
2.486816e+002, 6.256507e+001
2.491637e+002, 6.223709e+001
2.496458e+002, 6.218191e+001
2.501279e+002, 6.233820e+001
2.506101e+002, 6.291720e+001
2.510922e+002, 6.321602e+001
2.515743e+002, 6.285057e+001
2.520564e+002, 6.200455e+001
2.525385e+002, 6.233621e+001
2.530206e+002, 6.460284e+001
2.535028e+002, 6.705290e+001
2.539849e+002, 6.834911e+001
2.544670e+002, 6.795964e+001
2.549491e+002, 6.776343e+001
2.554312e+002, 6.804417e+001
2.559133e+002, 6.868077e+001
2.563955e+002, 6.903568e+001
2.568776e+002, 6.899309e+001
2.573597e+002, 6.883768e+001
2.578418e+002, 6.881206e+001
2.583239e+002, 6.915410e+001
2.588061e+002, 6.893960e+001
2.592882e+002, 6.790169e+001
2.597703e+002, 6.628103e+001
2.602524e+002, 6.497935e+001
2.607345e+002, 6.397997e+001
2.612166e+002, 6.331082e+001
2.616988e+002, 6.307337e+001
2.621809e+002, 6.349430e+001
2.626630e+002, 6.359187e+001
2.631451e+002, 6.316548e+001
2.636272e+002, 6.246504e+001
2.641093e+002, 6.224438e+001
2.645915e+002, 6.274351e+001
2.650736e+002, 6.318281e+001
2.655557e+002, 6.311923e+001
2.660378e+002, 6.236371e+001
2.665199e+002, 6.187109e+001
2.670020e+002, 6.163276e+001
2.674842e+002, 6.168795e+001
2.679663e+002, 6.215417e+001
2.684484e+002, 6.309349e+001
2.689305e+002, 6.425821e+001
2.694126e+002, 6.568665e+001
2.698947e+002, 6.755461e+001
2.703769e+002, 6.864510e+001
2.708590e+002, 6.872221e+001
2.713411e+002, 6.833269e+001
2.718232e+002, 6.839427e+001
2.723053e+002, 6.900398e+001
2.727874e+002, 6.968813e+001
2.732696e+002, 7.035954e+001
2.737517e+002, 7.103284e+001
2.742338e+002, 7.124625e+001
2.747159e+002, 7.082835e+001
2.751980e+002, 7.027904e+001
2.756801e+002, 7.043110e+001
2.761623e+002, 7.145514e+001
2.766444e+002, 7.212404e+001
2.771265e+002, 7.177702e+001
2.776086e+002, 7.053084e+001
2.780907e+002, 7.048237e+001
2.785728e+002, 7.190026e+001
2.790550e+002, 7.374007e+001
2.795371e+002, 7.476694e+001
2.800192e+002, 7.490851e+001
2.805013e+002, 7.523521e+001
2.809834e+002, 7.610805e+001
2.814655e+002, 7.739846e+001
2.819477e+002, 7.830572e+001
2.824298e+002, 7.869389e+001
2.829119e+002, 7.930542e+001
2.833940e+002, 8.099168e+001
2.838761e+002, 8.373458e+001
2.843582e+002, 8.636733e+001
2.848404e+002, 8.851255e+001
2.853225e+002, 9.044873e+001
2.858046e+002, 9.321507e+001
2.862867e+002, 9.686915e+001
2.867688e+002, 1.004711e+002
2.872509e+002, 1.030463e+002
2.877331e+002, 1.047396e+002
2.882152e+002, 1.069498e+002
2.886973e+002, 1.101328e+002
2.891794e+002, 1.136670e+002
2.896615e+002, 1.161378e+002
2.901436e+002, 1.175720e+002
2.906258e+002, 1.186606e+002
2.911079e+002, 1.201621e+002
2.915900e+002, 1.218022e+002
2.920721e+002, 1.221905e+002
2.925542e+002, 1.208713e+002
2.930363e+002, 1.189571e+002
2.935185e+002, 1.182149e+002
2.940006e+002, 1.185370e+002
2.944827e+002, 1.189482e+002
2.949648e+002, 1.190399e+002
2.954469e+002, 1.188048e+002
2.959290e+002, 1.182368e+002
2.964112e+002, 1.173393e+002
2.968933e+002, 1.160816e+002
2.973754e+002, 1.142598e+002
2.978575e+002, 1.120096e+002
2.983396e+002, 1.097888e+002
2.988217e+002, 1.079748e+002
2.993039e+002, 1.063049e+002
2.997860e+002, 1.042089e+002
3.002681e+002, 1.016186e+002
3.007502e+002, 9.921278e+001
3.012323e+002, 9.792048e+001
3.017144e+002, 9.734529e+001
3.021966e+002, 9.658847e+001
3.026787e+002, 9.478371e+001
3.031608e+002, 9.288164e+001
3.036429e+002, 9.227035e+001
3.041250e+002, 9.289355e+001
3.046071e+002, 9.352793e+001
3.050893e+002, 9.292276e+001
3.055714e+002, 9.174893e+001
3.060535e+002, 9.114083e+001
3.065356e+002, 9.192618e+001
3.070177e+002, 9.289703e+001
3.074998e+002, 9.260349e+001
3.079820e+002, 9.132943e+001
3.084641e+002, 9.059639e+001
3.089462e+002, 9.179482e+001
3.094283e+002, 9.386438e+001
3.099104e+002, 9.560455e+001
3.103925e+002, 9.645972e+001
3.108747e+002, 9.737733e+001
3.113568e+002, 9.918550e+001
3.118389e+002, 1.015887e+002
3.123210e+002, 1.037524e+002
3.128031e+002, 1.053358e+002
3.132852e+002, 1.064992e+002
3.137674e+002, 1.072372e+002
3.142495e+002, 1.073048e+002
3.147316e+002, 1.076855e+002
3.152137e+002, 1.094144e+002
3.156958e+002, 1.117201e+002
3.161779e+002, 1.132839e+002
3.166601e+002, 1.134945e+002
3.171422e+002, 1.129288e+002
3.176243e+002, 1.116424e+002
3.181064e+002, 1.095178e+002
3.185885e+002, 1.076339e+002
3.190706e+002, 1.066928e+002
3.195528e+002, 1.060780e+002
3.200349e+002, 1.050892e+002
3.205170e+002, 1.029368e+002
3.209991e+002, 1.009614e+002
3.214812e+002, 9.956578e+001
3.219633e+002, 9.876385e+001
3.224455e+002, 9.833122e+001
3.229276e+002, 9.899763e+001
3.234097e+002, 9.957852e+001
3.238918e+002, 9.918661e+001
3.243739e+002, 9.609941e+001
3.248560e+002, 9.379166e+001
3.253382e+002, 9.337144e+001
3.258203e+002, 9.447628e+001
3.263024e+002, 9.467220e+001
3.267845e+002, 9.239494e+001
3.272666e+002, 9.019324e+001
3.277487e+002, 8.931960e+001
3.282309e+002, 9.132544e+001
3.287130e+002, 9.256423e+001
3.291951e+002, 9.269142e+001
3.296772e+002, 9.206171e+001
3.301593e+002, 9.154381e+001
3.306414e+002, 9.103336e+001
3.311236e+002, 9.076383e+001
3.316057e+002, 9.086279e+001
3.320878e+002, 9.150347e+001
3.325699e+002, 9.198027e+001
3.330520e+002, 9.216227e+001
3.335341e+002, 9.226170e+001
3.340163e+002, 9.259785e+001
3.344984e+002, 9.327956e+001
3.349805e+002, 9.396700e+001
3.354626e+002, 9.444602e+001
3.359447e+002, 9.468447e+001
3.364268e+002, 9.581402e+001
3.369090e+002, 9.837238e+001
3.373911e+002, 1.010156e+002
3.378732e+002, 1.023085e+002
3.383553e+002, 1.019353e+002
3.388374e+002, 1.014706e+002
3.393195e+002, 1.010896e+002
3.398017e+002, 1.008426e+002
3.402838e+002, 1.009467e+002
3.407659e+002, 1.014119e+002
3.412480e+002, 1.021929e+002
3.417301e+002, 1.033588e+002
3.422122e+002, 1.049200e+002
3.426944e+002, 1.064806e+002
3.431765e+002, 1.080884e+002
3.436586e+002, 1.095404e+002
3.441407e+002, 1.101632e+002
3.446228e+002, 1.099311e+002
3.451049e+002, 1.099155e+002
3.455871e+002, 1.106353e+002
3.460692e+002, 1.120664e+002
3.465513e+002, 1.140126e+002
3.470334e+002, 1.164799e+002
3.475155e+002, 1.193988e+002
3.479977e+002, 1.227179e+002
3.484798e+002, 1.264286e+002
3.489619e+002, 1.303348e+002
3.494440e+002, 1.347645e+002
3.499261e+002, 1.392061e+002
3.504082e+002, 1.422344e+002
3.508904e+002, 1.438517e+002
3.513725e+002, 1.457159e+002
3.518546e+002, 1.492384e+002
3.523367e+002, 1.540743e+002
3.528188e+002, 1.596238e+002
3.533009e+002, 1.661880e+002
3.537831e+002, 1.727930e+002
3.542652e+002, 1.777999e+002
3.547473e+002, 1.816544e+002
3.552294e+002, 1.864084e+002
3.557115e+002, 1.943182e+002
3.561936e+002, 2.033741e+002
3.566758e+002, 2.112512e+002
3.571579e+002, 2.172536e+002
3.576400e+002, 2.231088e+002
3.581221e+002, 2.304846e+002
3.586042e+002, 2.385653e+002
3.590863e+002, 2.458739e+002
3.595685e+002, 2.518995e+002
3.600506e+002, 2.568444e+002
3.605327e+002, 2.609879e+002
3.610148e+002, 2.644290e+002
3.614969e+002, 2.663302e+002
3.619790e+002, 2.657304e+002
3.624612e+002, 2.636353e+002
3.629433e+002, 2.611191e+002
3.634254e+002, 2.590899e+002
3.639075e+002, 2.560549e+002
3.643896e+002, 2.510726e+002
3.648717e+002, 2.443130e+002
3.653539e+002, 2.378570e+002
3.658360e+002, 2.327793e+002
3.663181e+002, 2.277120e+002
3.668002e+002, 2.217265e+002
3.672823e+002, 2.134977e+002
3.677644e+002, 2.059144e+002
3.682466e+002, 1.992820e+002
3.687287e+002, 1.934136e+002
3.692108e+002, 1.878713e+002
3.696929e+002, 1.827623e+002
3.701750e+002, 1.778125e+002
3.706571e+002, 1.730530e+002
3.711393e+002, 1.686104e+002
3.716214e+002, 1.637470e+002
3.721035e+002, 1.578747e+002
3.725856e+002, 1.519606e+002
3.730677e+002, 1.475131e+002
3.735498e+002, 1.455254e+002
3.740320e+002, 1.427237e+002
3.745141e+002, 1.379633e+002
3.749962e+002, 1.314716e+002
3.754783e+002, 1.264744e+002
3.759604e+002, 1.233631e+002
3.764425e+002, 1.209876e+002
3.769247e+002, 1.184943e+002
3.774068e+002, 1.158827e+002
3.778889e+002, 1.133025e+002
3.783710e+002, 1.107482e+002
3.788531e+002, 1.082948e+002
3.793352e+002, 1.060677e+002
3.798174e+002, 1.040841e+002
3.802995e+002, 1.023257e+002
3.807816e+002, 1.009240e+002
3.812637e+002, 9.979821e+001
3.817458e+002, 9.842671e+001
3.822279e+002, 9.669127e+001
3.827101e+002, 9.502309e+001
3.831922e+002, 9.406483e+001
3.836743e+002, 9.366756e+001
3.841564e+002, 9.317222e+001
3.846385e+002, 9.219450e+001
3.851206e+002, 9.101189e+001
3.856028e+002, 9.022000e+001
3.860849e+002, 8.979234e+001
3.865670e+002, 8.922141e+001
3.870491e+002, 8.794107e+001
3.875312e+002, 8.628321e+001
3.880133e+002, 8.470673e+001
3.884955e+002, 8.310913e+001
3.889776e+002, 8.201205e+001
3.894597e+002, 8.241953e+001
3.899418e+002, 8.381006e+001
3.904239e+002, 8.469176e+001
3.909060e+002, 8.381062e+001
3.913882e+002, 8.241687e+001
3.918703e+002, 8.148933e+001
3.923524e+002, 8.120845e+001
3.928345e+002, 8.097972e+001
3.933166e+002, 8.037830e+001
3.937987e+002, 7.969987e+001
3.942809e+002, 7.932490e+001
3.947630e+002, 7.974858e+001
3.952451e+002, 8.011299e+001
3.957272e+002, 8.001907e+001
3.962093e+002, 7.949616e+001
3.966914e+002, 7.919520e+001
3.971736e+002, 7.948421e+001
3.976557e+002, 7.988031e+001
3.981378e+002, 8.009016e+001
3.986199e+002, 8.003777e+001
3.991020e+002, 7.984999e+001
3.995841e+002, 7.925039e+001
4.000663e+002, 7.853090e+001
4.005484e+002, 7.842594e+001
4.010305e+002, 7.951436e+001
4.015126e+002, 8.048830e+001
4.019947e+002, 8.084554e+001
4.024768e+002, 8.040731e+001
4.029590e+002, 8.032155e+001
4.034411e+002, 8.077451e+001
4.039232e+002, 8.136812e+001
4.044053e+002, 8.160027e+001
4.048874e+002, 8.130461e+001
4.053695e+002, 8.124454e+001
4.058517e+002, 8.164643e+001
4.063338e+002, 8.238432e+001
4.068159e+002, 8.288959e+001
4.072980e+002, 8.311363e+001
4.077801e+002, 8.334558e+001
4.082622e+002, 8.378203e+001
4.087444e+002, 8.441415e+001
4.092265e+002, 8.513460e+001
4.097086e+002, 8.598103e+001
4.101907e+002, 8.679801e+001
4.106728e+002, 8.736388e+001
4.111549e+002, 8.769270e+001
4.116371e+002, 8.785834e+001
4.121192e+002, 8.778689e+001
4.126013e+002, 8.759812e+001
4.130834e+002, 8.764423e+001
4.135655e+002, 8.792238e+001
4.140476e+002, 8.796891e+001
4.145298e+002, 8.719296e+001
4.150119e+002, 8.597131e+001
4.154940e+002, 8.489351e+001
4.159761e+002, 8.410563e+001
4.164582e+002, 8.355389e+001
4.169403e+002, 8.341780e+001
4.174225e+002, 8.352670e+001
4.179046e+002, 8.338700e+001
4.183867e+002, 8.284616e+001
4.188688e+002, 8.190194e+001
4.193509e+002, 8.041340e+001
4.198330e+002, 7.821116e+001
4.203152e+002, 7.623602e+001
4.207973e+002, 7.482881e+001
4.212794e+002, 7.383762e+001
4.217615e+002, 7.307726e+001
4.222436e+002, 7.265411e+001
4.227257e+002, 7.230182e+001
4.232079e+002, 7.211701e+001
4.236900e+002, 7.205180e+001
4.241721e+002, 7.153616e+001
4.246542e+002, 7.004289e+001
4.251363e+002, 6.845947e+001
4.256184e+002, 6.720800e+001
4.261006e+002, 6.658443e+001
4.265827e+002, 6.576159e+001
4.270648e+002, 6.447988e+001
4.275469e+002, 6.312383e+001
4.280290e+002, 6.244600e+001
4.285111e+002, 6.270013e+001
4.289933e+002, 6.307282e+001
4.294754e+002, 6.338337e+001
4.299575e+002, 6.362830e+001
4.304396e+002, 6.369388e+001
4.309217e+002, 6.361150e+001
4.314038e+002, 6.326842e+001
4.318860e+002, 6.232723e+001
4.323681e+002, 6.077660e+001
4.328502e+002, 5.989308e+001
4.333323e+002, 6.000397e+001
4.338144e+002, 6.066738e+001
4.342965e+002, 6.109986e+001
4.347787e+002, 6.130971e+001
4.352608e+002, 6.140160e+001
4.357429e+002, 6.132975e+001
4.362250e+002, 6.119639e+001
4.367071e+002, 6.127983e+001
4.371892e+002, 6.160468e+001
4.376714e+002, 6.192303e+001
4.381535e+002, 6.192908e+001
4.386356e+002, 6.177856e+001
4.391177e+002, 6.172089e+001
4.395998e+002, 6.166367e+001
4.400819e+002, 6.193053e+001
4.405641e+002, 6.315563e+001
4.410462e+002, 6.502851e+001
4.415283e+002, 6.643912e+001
4.420104e+002, 6.630152e+001
4.424925e+002, 6.584769e+001
4.429746e+002, 6.595263e+001
4.434568e+002, 6.687955e+001
4.439389e+002, 6.777676e+001
4.444210e+002, 6.814733e+001
4.449031e+002, 6.841782e+001
4.453852e+002, 6.910090e+001
4.458673e+002, 7.089571e+001
4.463495e+002, 7.245634e+001
4.468316e+002, 7.328639e+001
4.473137e+002, 7.346273e+001
4.477958e+002, 7.419341e+001
4.482779e+002, 7.604606e+001
4.487600e+002, 7.786156e+001
4.492422e+002, 7.900789e+001
4.497243e+002, 7.904054e+001
4.502064e+002, 7.948088e+001
4.506885e+002, 8.043648e+001
4.511706e+002, 8.171013e+001
4.516527e+002, 8.310841e+001
4.521349e+002, 8.481231e+001
4.526170e+002, 8.588382e+001
4.530991e+002, 8.575935e+001
4.535812e+002, 8.473911e+001
4.540633e+002, 8.466428e+001
4.545454e+002, 8.561634e+001
4.550276e+002, 8.680749e+001
4.555097e+002, 8.771252e+001
4.559918e+002, 8.833790e+001
4.564739e+002, 8.862810e+001
4.569560e+002, 8.851970e+001
4.574381e+002, 8.824282e+001
4.579203e+002, 8.805740e+001
4.584024e+002, 8.795241e+001
4.588845e+002, 8.789388e+001
4.593666e+002, 8.805669e+001
4.598488e+002, 8.814732e+001
4.603309e+002, 8.780896e+001
4.608130e+002, 8.705292e+001
4.612951e+002, 8.610638e+001
4.617772e+002, 8.483871e+001
4.622593e+002, 8.360034e+001
4.627415e+002, 8.276524e+001
4.632236e+002, 8.255424e+001
4.637057e+002, 8.251600e+001
4.641878e+002, 8.270781e+001
4.646699e+002, 8.293254e+001
4.651520e+002, 8.280824e+001
4.656342e+002, 8.198786e+001
4.661163e+002, 8.104897e+001
4.665984e+002, 8.023317e+001
4.670805e+002, 7.960709e+001
4.675626e+002, 7.859837e+001
4.680447e+002, 7.671907e+001
4.685269e+002, 7.484908e+001
4.690090e+002, 7.359801e+001
4.694911e+002, 7.331639e+001
4.699732e+002, 7.296160e+001
4.704553e+002, 7.249321e+001
4.709374e+002, 7.190208e+001
4.714196e+002, 7.115324e+001
4.719017e+002, 7.024223e+001
4.723838e+002, 6.919133e+001
4.728659e+002, 6.790355e+001
4.733480e+002, 6.642563e+001
4.738301e+002, 6.529209e+001
4.743123e+002, 6.449380e+001
4.747944e+002, 6.405025e+001
4.752765e+002, 6.413496e+001
4.757586e+002, 6.463242e+001
4.762407e+002, 6.504552e+001
4.767228e+002, 6.527005e+001
4.772050e+002, 6.539677e+001
4.776871e+002, 6.556773e+001
4.781692e+002, 6.574667e+001
4.786513e+002, 6.581543e+001
4.791334e+002, 6.567826e+001
4.796155e+002, 6.542156e+001
4.800977e+002, 6.495600e+001
4.805798e+002, 6.429650e+001
4.810619e+002, 6.405630e+001
4.815440e+002, 6.514891e+001
4.820261e+002, 6.653748e+001
4.825082e+002, 6.726287e+001
4.829904e+002, 6.657677e+001
4.834725e+002, 6.600155e+001
4.839546e+002, 6.587135e+001
4.844367e+002, 6.615210e+001
4.849188e+002, 6.676840e+001
4.854009e+002, 6.827897e+001
4.858831e+002, 6.954784e+001
4.863652e+002, 7.010226e+001
4.868473e+002, 6.985042e+001
4.873294e+002, 7.025804e+001
4.878115e+002, 7.189842e+001
4.882936e+002, 7.352657e+001
4.887758e+002, 7.417570e+001
4.892579e+002, 7.350194e+001
4.897400e+002, 7.307973e+001
4.902221e+002, 7.310420e+001
4.907042e+002, 7.333528e+001
4.911863e+002, 7.329019e+001
4.916685e+002, 7.295290e+001
4.921506e+002, 7.261591e+001
4.926327e+002, 7.247043e+001
4.931148e+002, 7.240332e+001
4.935969e+002, 7.202298e+001
4.940790e+002, 7.132612e+001
4.945612e+002, 7.049778e+001
4.950433e+002, 6.968977e+001
4.955254e+002, 6.885184e+001
4.960075e+002, 6.773139e+001
4.964896e+002, 6.608839e+001
4.969717e+002, 6.481624e+001
4.974539e+002, 6.526569e+001
4.979360e+002, 6.661620e+001
4.984181e+002, 6.735833e+001
4.989002e+002, 6.609769e+001
4.993823e+002, 6.473095e+001
4.998644e+002, 6.424096e+001
5.003466e+002, 6.459663e+001
5.008287e+002, 6.525122e+001
5.013108e+002, 6.649278e+001
5.017929e+002, 6.765511e+001
5.022750e+002, 6.833030e+001
5.027571e+002, 6.822462e+001
5.032393e+002, 6.814137e+001
5.037214e+002, 6.809700e+001
5.042035e+002, 6.809170e+001
5.046856e+002, 6.812447e+001
5.051677e+002, 6.818896e+001
5.056498e+002, 6.831487e+001
5.061320e+002, 6.855245e+001
5.066141e+002, 6.885970e+001
5.070962e+002, 6.889026e+001
5.075783e+002, 6.851224e+001
5.080604e+002, 6.841003e+001
5.085425e+002, 6.926038e+001
5.090247e+002, 7.091945e+001
5.095068e+002, 7.191744e+001
5.099889e+002, 7.214048e+001
5.104710e+002, 7.202216e+001
5.109531e+002, 7.189959e+001
5.114352e+002, 7.182347e+001
5.119174e+002, 7.196857e+001
5.123995e+002, 7.251994e+001
5.128816e+002, 7.313746e+001
5.133637e+002, 7.346637e+001
5.138458e+002, 7.356030e+001
5.143279e+002, 7.359102e+001
5.148101e+002, 7.353832e+001
5.152922e+002, 7.353750e+001
5.157743e+002, 7.366016e+001
5.162564e+002, 7.390894e+001
5.167385e+002, 7.434526e+001
5.172206e+002, 7.513766e+001
5.177028e+002, 7.604128e+001
5.181849e+002, 7.685649e+001
5.186670e+002, 7.770742e+001
5.191491e+002, 7.826826e+001
5.196312e+002, 7.825903e+001
5.201133e+002, 7.799789e+001
5.205955e+002, 7.821727e+001
5.210776e+002, 7.925683e+001
5.215597e+002, 8.012952e+001
5.220418e+002, 8.045944e+001
5.225239e+002, 8.028011e+001
5.230060e+002, 8.039351e+001
5.234882e+002, 8.084817e+001
5.239703e+002, 8.141621e+001
5.244524e+002, 8.206422e+001
5.249345e+002, 8.274156e+001
5.254166e+002, 8.277187e+001
5.258987e+002, 8.187927e+001
5.263809e+002, 8.107433e+001
5.268630e+002, 8.201627e+001
5.273451e+002, 8.418883e+001
5.278272e+002, 8.593815e+001
5.283093e+002, 8.632988e+001
5.287914e+002, 8.626224e+001
5.292736e+002, 8.672985e+001
5.297557e+002, 8.759464e+001
5.302378e+002, 8.821329e+001
5.307199e+002, 8.763155e+001
5.312020e+002, 8.712450e+001
5.316841e+002, 8.786728e+001
5.321663e+002, 9.043887e+001
5.326484e+002, 9.217223e+001
5.331305e+002, 9.151079e+001
5.336126e+002, 9.014704e+001
5.340947e+002, 8.967836e+001
5.345768e+002, 9.088368e+001
5.350590e+002, 9.214702e+001
5.355411e+002, 9.349058e+001
5.360232e+002, 9.479588e+001
5.365053e+002, 9.569391e+001
5.369874e+002, 9.609339e+001
5.374695e+002, 9.626096e+001
5.379517e+002, 9.607318e+001
5.384338e+002, 9.561314e+001
5.389159e+002, 9.639406e+001
5.393980e+002, 9.866431e+001
5.398801e+002, 1.006578e+002
5.403622e+002, 1.003761e+002
5.408444e+002, 9.842304e+001
5.413265e+002, 9.723711e+001
5.418086e+002, 9.719505e+001
5.422907e+002, 9.775245e+001
5.427728e+002, 9.870278e+001
5.432549e+002, 9.977082e+001
5.437371e+002, 1.003364e+002
5.442192e+002, 9.955865e+001
5.447013e+002, 9.869306e+001
5.451834e+002, 9.871272e+001
5.456655e+002, 9.942305e+001
5.461476e+002, 1.000378e+002
5.466298e+002, 1.002544e+002
5.471119e+002, 1.002849e+002
5.475940e+002, 1.000883e+002
5.480761e+002, 9.942795e+001
5.485582e+002, 9.951050e+001
5.490403e+002, 1.010375e+002
5.495225e+002, 1.029168e+002
5.500046e+002, 1.041462e+002
5.504867e+002, 1.038963e+002
5.509688e+002, 1.049073e+002
5.514509e+002, 1.078899e+002
5.519330e+002, 1.119026e+002
5.524152e+002, 1.147377e+002
5.528973e+002, 1.162395e+002
5.533794e+002, 1.178756e+002
5.538615e+002, 1.202136e+002
5.543436e+002, 1.230950e+002
5.548257e+002, 1.260791e+002
5.553079e+002, 1.291371e+002
5.557900e+002, 1.321231e+002
5.562721e+002, 1.346541e+002
5.567542e+002, 1.370875e+002
5.572363e+002, 1.400025e+002
5.577184e+002, 1.434947e+002
5.582006e+002, 1.473027e+002
5.586827e+002, 1.512384e+002
5.591648e+002, 1.553638e+002
5.596469e+002, 1.598293e+002
5.601290e+002, 1.640476e+002
5.606111e+002, 1.692588e+002
5.610933e+002, 1.763636e+002
5.615754e+002, 1.847692e+002
5.620575e+002, 1.927859e+002
5.625396e+002, 1.991073e+002
5.630217e+002, 2.061370e+002
5.635038e+002, 2.145494e+002
5.639860e+002, 2.244080e+002
5.644681e+002, 2.351508e+002
5.649502e+002, 2.469637e+002
5.654323e+002, 2.592727e+002
5.659144e+002, 2.716763e+002
5.663965e+002, 2.842697e+002
5.668787e+002, 2.968138e+002
5.673608e+002, 3.096977e+002
5.678429e+002, 3.210447e+002
5.683250e+002, 3.289692e+002
5.688071e+002, 3.331933e+002
5.692892e+002, 3.318436e+002
5.697714e+002, 3.236016e+002
5.702535e+002, 3.104534e+002
5.707356e+002, 2.934793e+002
5.712177e+002, 2.733163e+002
5.716998e+002, 2.530918e+002
5.721819e+002, 2.327405e+002
5.726641e+002, 2.136717e+002
5.731462e+002, 1.967744e+002
5.736283e+002, 1.819647e+002
5.741104e+002, 1.691552e+002
5.745925e+002, 1.586318e+002
5.750746e+002, 1.497586e+002
5.755568e+002, 1.420013e+002
5.760389e+002, 1.356584e+002
5.765210e+002, 1.301123e+002
5.770031e+002, 1.255084e+002
5.774852e+002, 1.215456e+002
5.779673e+002, 1.178009e+002
5.784495e+002, 1.141769e+002
5.789316e+002, 1.109914e+002
5.794137e+002, 1.082689e+002
5.798958e+002, 1.060658e+002
5.803779e+002, 1.045437e+002
5.808600e+002, 1.037071e+002
5.813422e+002, 1.030615e+002
5.818243e+002, 1.022534e+002
5.823064e+002, 1.014675e+002
5.827885e+002, 1.012078e+002
5.832706e+002, 1.014622e+002
5.837527e+002, 1.017566e+002
5.842349e+002, 1.017254e+002
5.847170e+002, 1.015589e+002
5.851991e+002, 1.013860e+002
5.856812e+002, 1.011065e+002
5.861633e+002, 1.012214e+002
5.866454e+002, 1.020272e+002
5.871276e+002, 1.033206e+002
5.876097e+002, 1.048402e+002
5.880918e+002, 1.065408e+002
5.885739e+002, 1.084914e+002
5.890560e+002, 1.108623e+002
5.895381e+002, 1.134730e+002
5.900203e+002, 1.157555e+002
5.905024e+002, 1.175303e+002
5.909845e+002, 1.193791e+002
5.914666e+002, 1.213773e+002
5.919487e+002, 1.235822e+002
5.924308e+002, 1.266575e+002
5.929130e+002, 1.307174e+002
5.933951e+002, 1.347530e+002
5.938772e+002, 1.379773e+002
5.943593e+002, 1.405315e+002
5.948414e+002, 1.427096e+002
5.953235e+002, 1.444863e+002
5.958057e+002, 1.461417e+002
5.962878e+002, 1.478322e+002
5.967699e+002, 1.495933e+002
5.972520e+002, 1.514860e+002
5.977341e+002, 1.538380e+002
5.982162e+002, 1.558905e+002
5.986984e+002, 1.573771e+002
5.991805e+002, 1.582846e+002
5.996626e+002, 1.586591e+002
6.001447e+002, 1.576495e+002
6.006268e+002, 1.570234e+002
6.011089e+002, 1.574309e+002
6.015911e+002, 1.587534e+002
6.020732e+002, 1.597517e+002
6.025553e+002, 1.604407e+002
6.030374e+002, 1.607672e+002
6.035195e+002, 1.607058e+002
6.040016e+002, 1.602612e+002
6.044838e+002, 1.593148e+002
6.049659e+002, 1.577931e+002
6.054480e+002, 1.561629e+002
6.059301e+002, 1.549103e+002
6.064122e+002, 1.539513e+002
6.068943e+002, 1.530745e+002
6.073765e+002, 1.523811e+002
6.078586e+002, 1.513119e+002
6.083407e+002, 1.489994e+002
6.088228e+002, 1.459431e+002
6.093049e+002, 1.431085e+002
6.097870e+002, 1.410951e+002
6.102692e+002, 1.391391e+002
6.107513e+002, 1.370233e+002
6.112334e+002, 1.346957e+002
6.117155e+002, 1.319951e+002
6.121976e+002, 1.283311e+002
6.126797e+002, 1.248090e+002
6.131619e+002, 1.218317e+002
6.136440e+002, 1.194022e+002
6.141261e+002, 1.169628e+002
6.146082e+002, 1.144810e+002
6.150903e+002, 1.119936e+002
6.155724e+002, 1.094062e+002
6.160546e+002, 1.067201e+002
6.165367e+002, 1.045186e+002
6.170188e+002, 1.029434e+002
6.175009e+002, 1.014155e+002
6.179830e+002, 9.903980e+001
6.184651e+002, 9.615131e+001
6.189473e+002, 9.375419e+001
6.194294e+002, 9.224213e+001
6.199115e+002, 9.101967e+001
6.203936e+002, 8.960346e+001
6.208757e+002, 8.805827e+001
6.213578e+002, 8.650368e+001
6.218400e+002, 8.440545e+001
6.223221e+002, 8.287407e+001
6.228042e+002, 8.278201e+001
6.232863e+002, 8.386922e+001
6.237684e+002, 8.440191e+001
6.242505e+002, 8.401265e+001
6.247327e+002, 8.324971e+001
6.252148e+002, 8.208989e+001
6.256969e+002, 8.042082e+001
6.261790e+002, 7.982339e+001
6.266611e+002, 8.063326e+001
6.271432e+002, 8.165463e+001
6.276254e+002, 8.189778e+001
6.281075e+002, 8.142904e+001
6.285896e+002, 8.094489e+001
6.290717e+002, 8.047072e+001
6.295538e+002, 8.018951e+001
6.300359e+002, 8.059209e+001
6.305181e+002, 8.131551e+001
6.310002e+002, 8.156281e+001
6.314823e+002, 8.082364e+001
6.319644e+002, 8.001319e+001
6.324465e+002, 7.978480e+001
6.329286e+002, 7.994496e+001
6.334108e+002, 8.010957e+001
6.338929e+002, 8.057896e+001
6.343750e+002, 8.059740e+001
6.348571e+002, 7.968776e+001
6.353392e+002, 7.799090e+001
6.358214e+002, 7.662241e+001
6.363035e+002, 7.569582e+001
6.367856e+002, 7.489577e+001
6.372677e+002, 7.412379e+001
6.377498e+002, 7.338110e+001
6.382319e+002, 7.249547e+001
6.387141e+002, 7.140575e+001
6.391962e+002, 7.045619e+001
6.396783e+002, 7.002821e+001
6.401604e+002, 6.997260e+001
6.406425e+002, 6.978234e+001
6.411246e+002, 6.939091e+001
6.416068e+002, 6.895815e+001
6.420889e+002, 6.879079e+001
6.425710e+002, 6.862501e+001
6.430531e+002, 6.804448e+001
6.435352e+002, 6.648972e+001
6.440173e+002, 6.523647e+001
6.444995e+002, 6.499509e+001
6.449816e+002, 6.535358e+001
6.454637e+002, 6.558552e+001
6.459458e+002, 6.560954e+001
6.464279e+002, 6.544389e+001
6.469100e+002, 6.495113e+001
6.473922e+002, 6.426614e+001
6.478743e+002, 6.395652e+001
6.483564e+002, 6.407011e+001
6.488385e+002, 6.438680e+001
6.493206e+002, 6.490127e+001
6.498027e+002, 6.554644e+001
6.502849e+002, 6.599815e+001
6.507670e+002, 6.625798e+001
6.512491e+002, 6.628158e+001
6.517312e+002, 6.595322e+001
6.522133e+002, 6.540193e+001
6.526954e+002, 6.474070e+001
6.531776e+002, 6.396573e+001
6.536597e+002, 6.333060e+001
6.541418e+002, 6.305558e+001
6.546239e+002, 6.293681e+001
6.551060e+002, 6.280466e+001
6.555881e+002, 6.272155e+001
6.560703e+002, 6.244943e+001
6.565524e+002, 6.163789e+001
6.570345e+002, 6.078003e+001
6.575166e+002, 6.050866e+001
6.579987e+002, 6.108839e+001
6.584808e+002, 6.150368e+001
6.589630e+002, 6.155238e+001
6.594451e+002, 6.141460e+001
6.599272e+002, 6.157607e+001
6.604093e+002, 6.201841e+001
6.608914e+002, 6.220445e+001
6.613735e+002, 6.167847e+001
6.618557e+002, 6.097665e+001
6.623378e+002, 6.117662e+001
6.628199e+002, 6.205351e+001
6.633020e+002, 6.261784e+001
6.637841e+002, 6.191088e+001
6.642662e+002, 6.100134e+001
6.647484e+002, 6.064111e+001
6.652305e+002, 6.088119e+001
6.657126e+002, 6.120412e+001
6.661947e+002, 6.155224e+001
6.666768e+002, 6.189439e+001
6.671589e+002, 6.223713e+001
6.676411e+002, 6.262576e+001
6.681232e+002, 6.280440e+001
6.686053e+002, 6.270069e+001
6.690874e+002, 6.250243e+001
6.695695e+002, 6.238038e+001
6.700516e+002, 6.232922e+001
6.705338e+002, 6.219694e+001
6.710159e+002, 6.190105e+001
6.714980e+002, 6.177109e+001
6.719801e+002, 6.257478e+001
6.724622e+002, 6.384105e+001
6.729443e+002, 6.444504e+001
6.734265e+002, 6.375081e+001
6.739086e+002, 6.281178e+001
6.743907e+002, 6.212891e+001
6.748728e+002, 6.172602e+001
6.753549e+002, 6.165290e+001
6.758370e+002, 6.269158e+001
6.763192e+002, 6.320417e+001
6.768013e+002, 6.214127e+001
6.772834e+002, 6.015372e+001
6.777655e+002, 5.980257e+001
6.782476e+002, 6.193779e+001
6.787297e+002, 6.371180e+001
6.792119e+002, 6.390861e+001
6.796940e+002, 6.282389e+001
6.801761e+002, 6.208569e+001
6.806582e+002, 6.169838e+001
6.811403e+002, 6.163142e+001
6.816224e+002, 6.210931e+001
6.821046e+002, 6.280534e+001
6.825867e+002, 6.309834e+001
6.830688e+002, 6.295744e+001
6.835509e+002, 6.280122e+001
6.840330e+002, 6.288145e+001
6.845151e+002, 6.307313e+001
6.849973e+002, 6.330636e+001
6.854794e+002, 6.365142e+001
6.859615e+002, 6.379827e+001
6.864436e+002, 6.349751e+001
6.869257e+002, 6.311145e+001
6.874078e+002, 6.290098e+001
6.878900e+002, 6.282794e+001
6.883721e+002, 6.313551e+001
6.888542e+002, 6.404908e+001
6.893363e+002, 6.497298e+001
6.898184e+002, 6.484105e+001
6.903005e+002, 6.377949e+001
6.907827e+002, 6.279408e+001
6.912648e+002, 6.205524e+001
6.917469e+002, 6.170414e+001
6.922290e+002, 6.225050e+001
6.927111e+002, 6.332052e+001
6.931932e+002, 6.405982e+001
6.936754e+002, 6.375309e+001
6.941575e+002, 6.336177e+001
6.946396e+002, 6.348738e+001
6.951217e+002, 6.394070e+001
6.956038e+002, 6.399987e+001
6.960859e+002, 6.315389e+001
6.965681e+002, 6.236553e+001
6.970502e+002, 6.185420e+001
6.975323e+002, 6.161077e+001
6.980144e+002, 6.166817e+001
6.984965e+002, 6.216658e+001
6.989786e+002, 6.235124e+001
6.994608e+002, 6.131863e+001
6.999429e+002, 5.956803e+001
7.004250e+002, 5.940164e+001
7.009071e+002, 6.076634e+001
7.013892e+002, 6.214054e+001
7.018713e+002, 6.224393e+001
7.023535e+002, 6.181646e+001
7.028356e+002, 6.164309e+001
7.033177e+002, 6.184871e+001
7.037998e+002, 6.210280e+001
7.042819e+002, 6.242382e+001
7.047640e+002, 6.264819e+001
7.052462e+002, 6.264418e+001
7.057283e+002, 6.240368e+001
7.062104e+002, 6.189045e+001
7.066925e+002, 6.080244e+001
7.071746e+002, 5.981740e+001
7.076567e+002, 5.984285e+001
7.081389e+002, 6.092644e+001
7.086210e+002, 6.180296e+001
7.091031e+002, 6.232190e+001
7.095852e+002, 6.250290e+001
7.100673e+002, 6.216518e+001
7.105494e+002, 6.151511e+001
7.110316e+002, 6.105307e+001
7.115137e+002, 6.099384e+001
7.119958e+002, 6.110574e+001
7.124779e+002, 6.142818e+001
7.129600e+002, 6.178909e+001
7.134421e+002, 6.186248e+001
7.139243e+002, 6.084152e+001
7.144064e+002, 6.040569e+001
7.148885e+002, 6.134933e+001
7.153706e+002, 6.308349e+001
7.158527e+002, 6.363359e+001
7.163348e+002, 6.262337e+001
7.168170e+002, 6.174181e+001
7.172991e+002, 6.164214e+001
7.177812e+002, 6.205959e+001
7.182633e+002, 6.212515e+001
7.187454e+002, 6.187354e+001
7.192275e+002, 6.166862e+001
7.197097e+002, 6.166158e+001
7.201918e+002, 6.184613e+001
7.206739e+002, 6.236565e+001
7.211560e+002, 6.315314e+001
7.216381e+002, 6.370098e+001
7.221202e+002, 6.366749e+001
7.226024e+002, 6.341858e+001
7.230845e+002, 6.309194e+001
7.235666e+002, 6.267309e+001
7.240487e+002, 6.241181e+001
7.245308e+002, 6.232693e+001
7.250129e+002, 6.236947e+001
7.254951e+002, 6.256318e+001
7.259772e+002, 6.292076e+001
7.264593e+002, 6.309908e+001
7.269414e+002, 6.307938e+001
7.274235e+002, 6.301292e+001
7.279056e+002, 6.299987e+001
7.283878e+002, 6.304987e+001
7.288699e+002, 6.319734e+001
7.293520e+002, 6.346017e+001
7.298341e+002, 6.373619e+001
7.303162e+002, 6.415669e+001
7.307983e+002, 6.445065e+001
7.312805e+002, 6.433244e+001
7.317626e+002, 6.336964e+001
7.322447e+002, 6.267404e+001
7.327268e+002, 6.232203e+001
7.332089e+002, 6.225788e+001
7.336910e+002, 6.243124e+001
7.341732e+002, 6.285141e+001
7.346553e+002, 6.356009e+001
7.351374e+002, 6.471624e+001
7.356195e+002, 6.577382e+001
7.361016e+002, 6.566311e+001
7.365837e+002, 6.471297e+001
7.370659e+002, 6.408434e+001
7.375480e+002, 6.424084e+001
7.380301e+002, 6.460941e+001
7.385122e+002, 6.475673e+001
7.389943e+002, 6.475890e+001
7.394764e+002, 6.474492e+001
7.399586e+002, 6.456655e+001
7.404407e+002, 6.459456e+001
7.409228e+002, 6.522163e+001
7.414049e+002, 6.607038e+001
7.418870e+002, 6.620117e+001
7.423691e+002, 6.525791e+001
7.428513e+002, 6.470235e+001
7.433334e+002, 6.506637e+001
7.438155e+002, 6.593819e+001
7.442976e+002, 6.613167e+001
7.447797e+002, 6.573253e+001
7.452618e+002, 6.547211e+001
7.457440e+002, 6.585905e+001
7.462261e+002, 6.646114e+001
7.467082e+002, 6.687265e+001
7.471903e+002, 6.710527e+001
7.476724e+002, 6.721817e+001
7.481545e+002, 6.717192e+001
7.486367e+002, 6.706950e+001
7.491188e+002, 6.692027e+001
7.496009e+002, 6.673342e+001
7.500830e+002, 6.660614e+001
7.505651e+002, 6.647957e+001
7.510472e+002, 6.653130e+001
7.515294e+002, 6.686990e+001
7.520115e+002, 6.746239e+001
7.524936e+002, 6.809109e+001
7.529757e+002, 6.875838e+001
7.534578e+002, 6.939957e+001
7.539399e+002, 7.031228e+001
7.544221e+002, 7.098608e+001
7.549042e+002, 7.027404e+001
7.553863e+002, 6.825072e+001
7.558684e+002, 6.694633e+001
7.563505e+002, 6.821921e+001
7.568326e+002, 6.982765e+001
7.573148e+002, 7.028716e+001
7.577969e+002, 6.920976e+001
7.582790e+002, 6.871266e+001
7.587611e+002, 6.907181e+001
7.592432e+002, 6.956701e+001
7.597253e+002, 6.975600e+001
7.602075e+002, 6.963901e+001
7.606896e+002, 6.945211e+001
7.611717e+002, 6.919041e+001
7.616538e+002, 6.890071e+001
7.621359e+002, 6.847574e+001
7.626180e+002, 6.810066e+001
7.631002e+002, 6.816679e+001
7.635823e+002, 6.876987e+001
7.640644e+002, 6.929572e+001
7.645465e+002, 6.939262e+001
7.650286e+002, 6.930180e+001
7.655107e+002, 6.924759e+001
7.659929e+002, 6.942450e+001
7.664750e+002, 6.916469e+001
7.669571e+002, 6.819381e+001
7.674392e+002, 6.714345e+001
7.679213e+002, 6.658945e+001
7.684034e+002, 6.653738e+001
7.688856e+002, 6.659190e+001
7.693677e+002, 6.671729e+001
7.698498e+002, 6.696458e+001
7.703319e+002, 6.758851e+001
7.708140e+002, 6.832217e+001
7.712961e+002, 6.866208e+001
7.717783e+002, 6.841534e+001
7.722604e+002, 6.807391e+001
7.727425e+002, 6.782219e+001
7.732246e+002, 6.764462e+001
7.737067e+002, 6.752248e+001
7.741888e+002, 6.742802e+001
7.746710e+002, 6.743742e+001
7.751531e+002, 6.758891e+001
7.756352e+002, 6.780055e+001
7.761173e+002, 6.797462e+001
7.765994e+002, 6.811098e+001
7.770815e+002, 6.824235e+001
7.775637e+002, 6.835886e+001
7.780458e+002, 6.853395e+001
7.785279e+002, 6.906308e+001
7.790100e+002, 6.967026e+001
7.794921e+002, 6.978830e+001
7.799742e+002, 6.890092e+001
7.804564e+002, 6.822043e+001
7.809385e+002, 6.846961e+001
7.814206e+002, 6.916737e+001
7.819027e+002, 6.967157e+001
7.823848e+002, 6.990990e+001
7.828669e+002, 6.999154e+001
7.833491e+002, 6.986214e+001
7.838312e+002, 6.964784e+001
7.843133e+002, 6.954976e+001
7.847954e+002, 6.956270e+001
7.852775e+002, 6.958285e+001
7.857596e+002, 6.956334e+001
7.862418e+002, 6.960398e+001
7.867239e+002, 6.985928e+001
7.872060e+002, 7.025683e+001
7.876881e+002, 7.067925e+001
7.881702e+002, 7.119035e+001
7.886523e+002, 7.156464e+001
7.891345e+002, 7.159209e+001
7.896166e+002, 7.146953e+001
7.900987e+002, 7.155318e+001
7.905808e+002, 7.201986e+001
7.910629e+002, 7.230653e+001
7.915450e+002, 7.229002e+001
7.920272e+002, 7.212120e+001
7.925093e+002, 7.208630e+001
7.929914e+002, 7.216643e+001
7.934735e+002, 7.218937e+001
7.939556e+002, 7.202103e+001
7.944377e+002, 7.194612e+001
7.949199e+002, 7.231412e+001
7.954020e+002, 7.299405e+001
7.958841e+002, 7.373576e+001
7.963662e+002, 7.490997e+001
7.968483e+002, 7.560210e+001
7.973304e+002, 7.502238e+001
7.978126e+002, 7.396838e+001
7.982947e+002, 7.391456e+001
7.987768e+002, 7.534438e+001
7.992589e+002, 7.621874e+001
7.997410e+002, 7.602646e+001
8.002231e+002, 7.533467e+001
8.007053e+002, 7.519659e+001
8.011874e+002, 7.549172e+001
8.016695e+002, 7.571724e+001
8.021516e+002, 7.568102e+001
8.026337e+002, 7.555377e+001
8.031158e+002, 7.530638e+001
8.035980e+002, 7.510937e+001
8.040801e+002, 7.525157e+001
8.045622e+002, 7.642544e+001
8.050443e+002, 7.716769e+001
8.055264e+002, 7.702629e+001
8.060085e+002, 7.645575e+001
8.064907e+002, 7.639132e+001
8.069728e+002, 7.699209e+001
8.074549e+002, 7.701084e+001
8.079370e+002, 7.598090e+001
8.084191e+002, 7.463391e+001
8.089012e+002, 7.412187e+001
8.093834e+002, 7.427184e+001
8.098655e+002, 7.466252e+001
8.103476e+002, 7.553093e+001
8.108297e+002, 7.602727e+001
8.113118e+002, 7.528094e+001
8.117939e+002, 7.391511e+001
8.122761e+002, 7.298724e+001
8.127582e+002, 7.277830e+001
8.132403e+002, 7.283757e+001
8.137224e+002, 7.325648e+001
8.142045e+002, 7.380464e+001
8.146866e+002, 7.407767e+001
8.151688e+002, 7.407500e+001
8.156509e+002, 7.388135e+001
8.161330e+002, 7.344224e+001
8.166151e+002, 7.300526e+001
8.170972e+002, 7.299695e+001
8.175793e+002, 7.319913e+001
8.180615e+002, 7.320284e+001
8.185436e+002, 7.274723e+001
8.190257e+002, 7.223299e+001
8.195078e+002, 7.169579e+001
8.199899e+002, 7.121972e+001
8.204720e+002, 7.089255e+001
8.209542e+002, 7.060366e+001
8.214363e+002, 7.083141e+001
8.219184e+002, 7.182030e+001
8.224005e+002, 7.302161e+001
8.228826e+002, 7.366558e+001
8.233647e+002, 7.378346e+001
8.238469e+002, 7.341910e+001
8.243290e+002, 7.243422e+001
8.248111e+002, 7.138972e+001
8.252932e+002, 7.066185e+001
8.257753e+002, 7.020010e+001
8.262574e+002, 6.994542e+001
8.267396e+002, 6.967323e+001
8.272217e+002, 6.994923e+001
8.277038e+002, 7.134138e+001
8.281859e+002, 7.286107e+001
8.286681e+002, 7.319374e+001
8.291502e+002, 7.215614e+001
8.296323e+002, 7.148323e+001
8.301144e+002, 7.139188e+001
8.305966e+002, 7.173089e+001
8.310787e+002, 7.277311e+001
8.315608e+002, 7.401012e+001
8.320429e+002, 7.435645e+001
8.325250e+002, 7.325922e+001
8.330071e+002, 7.217827e+001
8.334893e+002, 7.169797e+001
8.339714e+002, 7.167826e+001
8.344535e+002, 7.202264e+001
8.349356e+002, 7.311108e+001
8.354177e+002, 7.367988e+001
8.358998e+002, 7.361950e+001
8.363820e+002, 7.323307e+001
8.368641e+002, 7.268219e+001
8.373462e+002, 7.203642e+001
8.378283e+002, 7.177623e+001
8.383104e+002, 7.198414e+001
8.387925e+002, 7.234428e+001
8.392747e+002, 7.275256e+001
8.397568e+002, 7.307714e+001
8.402389e+002, 7.312973e+001
8.407210e+002, 7.277386e+001
8.412031e+002, 7.252361e+001
8.416852e+002, 7.240247e+001
8.421674e+002, 7.249126e+001
8.426495e+002, 7.293922e+001
8.431316e+002, 7.385586e+001
8.436137e+002, 7.431005e+001
8.440958e+002, 7.424226e+001
8.445779e+002, 7.407565e+001
8.450601e+002, 7.415684e+001
8.455422e+002, 7.441571e+001
8.460243e+002, 7.484041e+001
8.465064e+002, 7.543217e+001
8.469885e+002, 7.571892e+001
8.474706e+002, 7.504327e+001
8.479528e+002, 7.431341e+001
8.484349e+002, 7.420596e+001
8.489170e+002, 7.484982e+001
8.493991e+002, 7.519080e+001
8.498812e+002, 7.514352e+001
8.503633e+002, 7.500557e+001
8.508455e+002, 7.484871e+001
8.513276e+002, 7.473183e+001
8.518097e+002, 7.509709e+001
8.522918e+002, 7.590537e+001
8.527739e+002, 7.661436e+001
8.532560e+002, 7.687906e+001
8.537382e+002, 7.688078e+001
8.542203e+002, 7.653842e+001
8.547024e+002, 7.593030e+001
8.551845e+002, 7.591453e+001
8.556666e+002, 7.737768e+001
8.561487e+002, 7.855920e+001
8.566309e+002, 7.869920e+001
8.571130e+002, 7.808424e+001
8.575951e+002, 7.850450e+001
8.580772e+002, 7.999702e+001
8.585593e+002, 8.128663e+001
8.590414e+002, 8.130817e+001
8.595236e+002, 8.110700e+001
8.600057e+002, 8.250642e+001
8.604878e+002, 8.500323e+001
8.609699e+002, 8.699732e+001
8.614520e+002, 8.716826e+001
8.619341e+002, 8.746940e+001
8.624163e+002, 8.860719e+001
8.628984e+002, 9.039835e+001
8.633805e+002, 9.249770e+001
8.638626e+002, 9.510902e+001
8.643447e+002, 9.728961e+001
8.648268e+002, 9.870302e+001
8.653090e+002, 9.974069e+001
8.657911e+002, 1.009594e+002
8.662732e+002, 1.023864e+002
8.667553e+002, 1.040196e+002
8.672374e+002, 1.054516e+002
8.677195e+002, 1.077455e+002
8.682017e+002, 1.121227e+002
8.686838e+002, 1.175563e+002
8.691659e+002, 1.222766e+002
8.696480e+002, 1.256260e+002
8.701301e+002, 1.293970e+002
8.706122e+002, 1.339590e+002
8.710944e+002, 1.385970e+002
8.715765e+002, 1.420371e+002
8.720586e+002, 1.445502e+002
8.725407e+002, 1.478076e+002
8.730228e+002, 1.522661e+002
8.735049e+002, 1.567563e+002
8.739871e+002, 1.608892e+002
8.744692e+002, 1.642215e+002
8.749513e+002, 1.661850e+002
8.754334e+002, 1.661621e+002
8.759155e+002, 1.660467e+002
8.763976e+002, 1.666945e+002
8.768798e+002, 1.665518e+002
8.773619e+002, 1.640815e+002
8.778440e+002, 1.592016e+002
8.783261e+002, 1.549277e+002
8.788082e+002, 1.513877e+002
8.792903e+002, 1.478385e+002
8.797725e+002, 1.433771e+002
8.802546e+002, 1.386247e+002
8.807367e+002, 1.344255e+002
8.812188e+002, 1.308673e+002
8.817009e+002, 1.272105e+002
8.821830e+002, 1.227802e+002
8.826652e+002, 1.185987e+002
8.831473e+002, 1.152415e+002
8.836294e+002, 1.126657e+002
8.841115e+002, 1.099500e+002
8.845936e+002, 1.070211e+002
8.850757e+002, 1.044115e+002
8.855579e+002, 1.025050e+002
8.860400e+002, 1.010519e+002
8.865221e+002, 9.975875e+001
8.870042e+002, 9.855613e+001
8.874863e+002, 9.710817e+001
8.879684e+002, 9.467271e+001
8.884506e+002, 9.255876e+001
8.889327e+002, 9.146691e+001
8.894148e+002, 9.114687e+001
8.898969e+002, 9.075759e+001
8.903790e+002, 9.021245e+001
8.908611e+002, 8.999556e+001
8.913433e+002, 9.047803e+001
8.918254e+002, 9.098211e+001
8.923075e+002, 8.990251e+001
8.927896e+002, 8.774780e+001
8.932717e+002, 8.605588e+001
8.937538e+002, 8.547753e+001
8.942360e+002, 8.531258e+001
8.947181e+002, 8.547905e+001
8.952002e+002, 8.572309e+001
8.956823e+002, 8.564467e+001
8.961644e+002, 8.501579e+001
8.966465e+002, 8.456830e+001
8.971287e+002, 8.438549e+001
8.976108e+002, 8.432182e+001
8.980929e+002, 8.417373e+001
8.985750e+002, 8.398898e+001
8.990571e+002, 8.396486e+001
8.995392e+002, 8.414240e+001
9.000214e+002, 8.437331e+001
9.005035e+002, 8.464229e+001
9.009856e+002, 8.485314e+001
9.014677e+002, 8.485153e+001
9.019498e+002, 8.444440e+001
9.024319e+002, 8.458941e+001
9.029141e+002, 8.575172e+001
9.033962e+002, 8.664101e+001
9.038783e+002, 8.617953e+001
9.043604e+002, 8.460789e+001
9.048425e+002, 8.380716e+001
9.053246e+002, 8.374066e+001
9.058068e+002, 8.391506e+001
9.062889e+002, 8.413544e+001
9.067710e+002, 8.434264e+001
9.072531e+002, 8.451662e+001
9.077352e+002, 8.464671e+001
9.082173e+002, 8.465628e+001
9.086995e+002, 8.433919e+001
9.091816e+002, 8.424462e+001
9.096637e+002, 8.469102e+001
9.101458e+002, 8.537007e+001
9.106279e+002, 8.510228e+001
9.111100e+002, 8.402260e+001
9.115922e+002, 8.339845e+001
9.120743e+002, 8.404204e+001
9.125564e+002, 8.484233e+001
9.130385e+002, 8.474931e+001
9.135206e+002, 8.407096e+001
9.140027e+002, 8.333634e+001
9.144849e+002, 8.170947e+001
9.149670e+002, 8.154608e+001
9.154491e+002, 8.389137e+001
9.159312e+002, 8.675052e+001
9.164133e+002, 8.728706e+001
9.168954e+002, 8.565047e+001
9.173776e+002, 8.470284e+001
9.178597e+002, 8.485429e+001
9.183418e+002, 8.530069e+001
9.188239e+002, 8.531361e+001
9.193060e+002, 8.519460e+001
9.197881e+002, 8.526907e+001
9.202703e+002, 8.560727e+001
9.207524e+002, 8.606232e+001
9.212345e+002, 8.682872e+001
9.217166e+002, 8.741570e+001
9.221987e+002, 8.743571e+001
9.226808e+002, 8.694002e+001
9.231630e+002, 8.703858e+001
9.236451e+002, 8.772707e+001
9.241272e+002, 8.818063e+001
9.246093e+002, 8.752378e+001
9.250914e+002, 8.661366e+001
9.255735e+002, 8.628678e+001
9.260557e+002, 8.648450e+001
9.265378e+002, 8.679893e+001
9.270199e+002, 8.742943e+001
9.275020e+002, 8.777000e+001
9.279841e+002, 8.758758e+001
9.284662e+002, 8.709506e+001
9.289484e+002, 8.673557e+001
9.294305e+002, 8.651972e+001
9.299126e+002, 8.682076e+001
9.303947e+002, 8.808730e+001
9.308768e+002, 8.914049e+001
9.313589e+002, 8.805530e+001
9.318411e+002, 8.615997e+001
9.323232e+002, 8.542372e+001
9.328053e+002, 8.726369e+001
9.332874e+002, 8.878961e+001
9.337695e+002, 8.981994e+001
9.342516e+002, 9.040422e+001
9.347338e+002, 9.040468e+001
9.352159e+002, 8.985298e+001
9.356980e+002, 8.970000e+001
9.361801e+002, 9.001241e+001
9.366622e+002, 9.051344e+001
9.371443e+002, 9.101179e+001
9.376265e+002, 9.155519e+001
9.381086e+002, 9.224293e+001
9.385907e+002, 9.309071e+001
9.390728e+002, 9.375493e+001
9.395549e+002, 9.427602e+001
9.400370e+002, 9.443526e+001
9.405192e+002, 9.391756e+001
9.410013e+002, 9.300176e+001
9.414834e+002, 9.308041e+001
9.419655e+002, 9.407829e+001
9.424476e+002, 9.520701e+001
9.429297e+002, 9.629237e+001
9.434119e+002, 9.712337e+001
9.438940e+002, 9.743558e+001
9.443761e+002, 9.737199e+001
9.448582e+002, 9.721761e+001
9.453403e+002, 9.667363e+001
9.458224e+002, 9.661084e+001
9.463046e+002, 9.723643e+001
9.467867e+002, 9.820290e+001
9.472688e+002, 9.903771e+001
9.477509e+002, 9.976605e+001
9.482330e+002, 1.005109e+002
9.487151e+002, 1.012890e+002
9.491973e+002, 1.020951e+002
9.496794e+002, 1.028579e+002
9.501615e+002, 1.036878e+002
9.506436e+002, 1.047159e+002
9.511257e+002, 1.060041e+002
9.516078e+002, 1.072770e+002
9.520900e+002, 1.087513e+002
9.525721e+002, 1.097307e+002
9.530542e+002, 1.093335e+002
9.535363e+002, 1.081585e+002
9.540184e+002, 1.090821e+002
9.545005e+002, 1.117802e+002
9.549827e+002, 1.142913e+002
9.554648e+002, 1.152685e+002
9.559469e+002, 1.159515e+002
9.564290e+002, 1.170569e+002
9.569111e+002, 1.184690e+002
9.573932e+002, 1.196985e+002
9.578754e+002, 1.204255e+002
9.583575e+002, 1.218799e+002
9.588396e+002, 1.245371e+002
9.593217e+002, 1.274420e+002
9.598038e+002, 1.286561e+002
9.602859e+002, 1.288866e+002
9.607681e+002, 1.300561e+002
9.612502e+002, 1.327673e+002
9.617323e+002, 1.358035e+002
9.622144e+002, 1.385479e+002
9.626965e+002, 1.412885e+002
9.631786e+002, 1.442970e+002
9.636608e+002, 1.476040e+002
9.641429e+002, 1.507771e+002
9.646250e+002, 1.536953e+002
9.651071e+002, 1.569133e+002
9.655892e+002, 1.609917e+002
9.660714e+002, 1.655432e+002
9.665535e+002, 1.697206e+002
9.670356e+002, 1.737039e+002
9.675177e+002, 1.786200e+002
9.679998e+002, 1.850267e+002
9.684819e+002, 1.924409e+002
9.689641e+002, 2.012816e+002
9.694462e+002, 2.108748e+002
9.699283e+002, 2.195122e+002
9.704104e+002, 2.270184e+002
9.708925e+002, 2.355330e+002
9.713746e+002, 2.457409e+002
9.718568e+002, 2.567868e+002
9.723389e+002, 2.678807e+002
9.728210e+002, 2.791812e+002
9.733031e+002, 2.910766e+002
9.737852e+002, 3.039667e+002
9.742673e+002, 3.165295e+002
9.747495e+002, 3.288409e+002
9.752316e+002, 3.405903e+002
9.757137e+002, 3.514281e+002
9.761958e+002, 3.614383e+002
9.766779e+002, 3.713045e+002
9.771600e+002, 3.810703e+002
9.776422e+002, 3.914133e+002
9.781243e+002, 4.016834e+002
9.786064e+002, 4.139158e+002
9.790885e+002, 4.299552e+002
9.795706e+002, 4.495527e+002
9.800527e+002, 4.717918e+002
9.805349e+002, 4.951299e+002
9.810170e+002, 5.232580e+002
9.814991e+002, 5.574448e+002
9.819812e+002, 5.964262e+002
9.824633e+002, 6.373320e+002
9.829454e+002, 6.807567e+002
9.834276e+002, 7.296067e+002
9.839097e+002, 7.865051e+002
9.843918e+002, 8.445806e+002
9.848739e+002, 9.022443e+002
9.853560e+002, 9.577275e+002
9.858381e+002, 1.010388e+003
9.863203e+002, 1.063278e+003
9.868024e+002, 1.102645e+003
9.872845e+002, 1.129706e+003
9.877666e+002, 1.139112e+003
9.882487e+002, 1.124087e+003
9.887308e+002, 1.089650e+003
9.892130e+002, 1.043612e+003
9.896951e+002, 9.876830e+002
9.901772e+002, 9.275228e+002
9.906593e+002, 8.600228e+002
9.911414e+002, 7.953162e+002
9.916235e+002, 7.372485e+002
9.921057e+002, 6.846596e+002
9.925878e+002, 6.342264e+002
9.930699e+002, 5.856237e+002
9.935520e+002, 5.408263e+002
9.940341e+002, 4.998060e+002
9.945162e+002, 4.630700e+002
9.949984e+002, 4.323449e+002
9.954805e+002, 4.057345e+002
9.959626e+002, 3.806101e+002
9.964447e+002, 3.561977e+002
9.969268e+002, 3.338902e+002
9.974089e+002, 3.142813e+002
9.978911e+002, 2.964075e+002
9.983732e+002, 2.797427e+002
9.988553e+002, 2.644647e+002
9.993374e+002, 2.509576e+002
9.998195e+002, 2.392207e+002
1.000302e+003, 2.286694e+002
1.000784e+003, 2.193982e+002
1.001266e+003, 2.106576e+002
1.001748e+003, 2.014178e+002
1.002230e+003, 1.922470e+002
1.002712e+003, 1.848452e+002
1.003194e+003, 1.799788e+002
1.003676e+003, 1.749901e+002
1.004159e+003, 1.694003e+002
1.004641e+003, 1.638443e+002
1.005123e+003, 1.590276e+002
1.005605e+003, 1.548463e+002
1.006087e+003, 1.510258e+002
1.006569e+003, 1.474719e+002
1.007051e+003, 1.443360e+002
1.007533e+003, 1.415067e+002
1.008016e+003, 1.392407e+002
1.008498e+003, 1.377628e+002
1.008980e+003, 1.370158e+002
1.009462e+003, 1.359756e+002
1.009944e+003, 1.346321e+002
1.010426e+003, 1.329851e+002
1.010908e+003, 1.307889e+002
1.011390e+003, 1.286060e+002
1.011872e+003, 1.270496e+002
1.012355e+003, 1.260133e+002
1.012837e+003, 1.252672e+002
1.013319e+003, 1.254314e+002
1.013801e+003, 1.248064e+002
1.014283e+003, 1.228390e+002
1.014765e+003, 1.206800e+002
1.015247e+003, 1.196467e+002
1.015729e+003, 1.195520e+002
1.016211e+003, 1.194488e+002
1.016694e+003, 1.192607e+002
1.017176e+003, 1.190299e+002
1.017658e+003, 1.187036e+002
1.018140e+003, 1.184166e+002
1.018622e+003, 1.182274e+002
1.019104e+003, 1.181519e+002
1.019586e+003, 1.183410e+002
1.020068e+003, 1.189309e+002
1.020551e+003, 1.191443e+002
1.021033e+003, 1.185198e+002
1.021515e+003, 1.177850e+002
1.021997e+003, 1.186171e+002
1.022479e+003, 1.201121e+002
1.022961e+003, 1.203318e+002
1.023443e+003, 1.174079e+002
1.023925e+003, 1.160963e+002
1.024407e+003, 1.187688e+002
1.024890e+003, 1.222420e+002
1.025372e+003, 1.242727e+002
1.025854e+003, 1.248495e+002
1.026336e+003, 1.255610e+002
1.026818e+003, 1.264163e+002
1.027300e+003, 1.274912e+002
1.027782e+003, 1.285856e+002
1.028264e+003, 1.301538e+002
1.028746e+003, 1.326169e+002
1.029229e+003, 1.358864e+002
1.029711e+003, 1.396067e+002
1.030193e+003, 1.439333e+002
1.030675e+003, 1.481182e+002
1.031157e+003, 1.518117e+002
1.031639e+003, 1.558510e+002
1.032121e+003, 1.615975e+002
1.032603e+003, 1.687072e+002
1.033086e+003, 1.762411e+002
1.033568e+003, 1.841309e+002
1.034050e+003, 1.923335e+002
1.034532e+003, 2.005757e+002
1.035014e+003, 2.093427e+002
1.035496e+003, 2.195569e+002
1.035978e+003, 2.307487e+002
1.036460e+003, 2.388245e+002
1.036943e+003, 2.436719e+002
1.037425e+003, 2.458311e+002
1.037907e+003, 2.453214e+002
1.038389e+003, 2.424410e+002
1.038871e+003, 2.369920e+002
1.039353e+003, 2.294962e+002
1.039835e+003, 2.208673e+002
1.040317e+003, 2.105568e+002
1.040799e+003, 2.004001e+002
1.041281e+003, 1.902189e+002
1.041764e+003, 1.804934e+002
1.042246e+003, 1.713607e+002
1.042728e+003, 1.630472e+002
1.043210e+003, 1.566398e+002
1.043692e+003, 1.520223e+002
1.044174e+003, 1.480031e+002
1.044656e+003, 1.441976e+002
1.045138e+003, 1.405439e+002
1.045621e+003, 1.368501e+002
1.046103e+003, 1.333657e+002
1.046585e+003, 1.309138e+002
1.047067e+003, 1.295264e+002
1.047549e+003, 1.279612e+002
1.048031e+003, 1.258203e+002
1.048513e+003, 1.238101e+002
1.048995e+003, 1.231022e+002
1.049478e+003, 1.227110e+002
1.049960e+003, 1.214408e+002
1.050442e+003, 1.187676e+002
1.050924e+003, 1.163898e+002
1.051406e+003, 1.139583e+002
1.051888e+003, 1.127032e+002
1.052370e+003, 1.138936e+002
1.052852e+003, 1.164264e+002
1.053334e+003, 1.177407e+002
1.053817e+003, 1.179055e+002
1.054299e+003, 1.171562e+002
1.054781e+003, 1.138010e+002
1.055263e+003, 1.117829e+002
1.055745e+003, 1.130304e+002
1.056227e+003, 1.156228e+002
1.056709e+003, 1.176444e+002
1.057191e+003, 1.190928e+002
1.057673e+003, 1.198547e+002
1.058156e+003, 1.198839e+002
1.058638e+003, 1.200755e+002
1.059120e+003, 1.213606e+002
1.059602e+003, 1.229635e+002
1.060084e+003, 1.240871e+002
1.060566e+003, 1.248214e+002
1.061048e+003, 1.263027e+002
1.061530e+003, 1.288020e+002
1.062013e+003, 1.313822e+002
1.062495e+003, 1.338723e+002
1.062977e+003, 1.362058e+002
1.063459e+003, 1.378114e+002
1.063941e+003, 1.393369e+002
1.064423e+003, 1.423696e+002
1.064905e+003, 1.479252e+002
1.065387e+003, 1.524657e+002
1.065870e+003, 1.535533e+002
1.066352e+003, 1.547017e+002
1.066834e+003, 1.578784e+002
1.067316e+003, 1.627444e+002
1.067798e+003, 1.667698e+002
1.068280e+003, 1.700973e+002
1.068762e+003, 1.738248e+002
1.069244e+003, 1.787658e+002
1.069726e+003, 1.841179e+002
1.070208e+003, 1.892657e+002
1.070691e+003, 1.944591e+002
1.071173e+003, 2.000403e+002
1.071655e+003, 2.063364e+002
1.072137e+003, 2.122771e+002
1.072619e+003, 2.181119e+002
1.073101e+003, 2.222247e+002
1.073583e+003, 2.228358e+002
1.074065e+003, 2.210457e+002
1.074548e+003, 2.181401e+002
1.075030e+003, 2.142024e+002
1.075512e+003, 2.089493e+002
1.075994e+003, 2.016055e+002
1.076476e+003, 1.939960e+002
1.076958e+003, 1.863990e+002
1.077440e+003, 1.789243e+002
1.077922e+003, 1.716310e+002
1.078405e+003, 1.646305e+002
1.078887e+003, 1.582996e+002
1.079369e+003, 1.526620e+002
1.079851e+003, 1.476560e+002
1.080333e+003, 1.434606e+002
1.080815e+003, 1.396878e+002
1.081297e+003, 1.360474e+002
1.081779e+003, 1.325809e+002
1.082261e+003, 1.300537e+002
1.082744e+003, 1.284383e+002
1.083226e+003, 1.269827e+002
1.083708e+003, 1.253977e+002
1.084190e+003, 1.237608e+002
1.084672e+003, 1.220821e+002
1.085154e+003, 1.204206e+002
1.085636e+003, 1.188418e+002
1.086118e+003, 1.171156e+002
1.086601e+003, 1.160599e+002
1.087083e+003, 1.157523e+002
1.087565e+003, 1.158382e+002
1.088047e+003, 1.162320e+002
1.088529e+003, 1.167345e+002
1.089011e+003, 1.170259e+002
1.089493e+003, 1.171156e+002
1.089975e+003, 1.170778e+002
1.090458e+003, 1.164659e+002
1.090940e+003, 1.164335e+002
1.091422e+003, 1.174422e+002
1.091904e+003, 1.187705e+002
1.092386e+003, 1.190031e+002
1.092868e+003, 1.185583e+002
1.093350e+003, 1.195216e+002
1.093832e+003, 1.221945e+002
1.094314e+003, 1.246823e+002
1.094797e+003, 1.255224e+002
1.095279e+003, 1.260987e+002
1.095761e+003, 1.270796e+002
1.096243e+003, 1.284694e+002
1.096725e+003, 1.306226e+002
1.097207e+003, 1.335684e+002
1.097689e+003, 1.358399e+002
1.098171e+003, 1.369321e+002
1.098653e+003, 1.374049e+002
1.099136e+003, 1.380594e+002
1.099618e+003, 1.382866e+002
1.100100e+003, 1.372500e+002
1.100582e+003, 1.345496e+002
1.101064e+003, 1.320285e+002
1.101546e+003, 1.296736e+002
1.102028e+003, 1.275369e+002
1.102510e+003, 1.258192e+002
1.102993e+003, 1.241501e+002
1.103475e+003, 1.214530e+002
1.103957e+003, 1.183177e+002
1.104439e+003, 1.160979e+002
1.104921e+003, 1.164792e+002
1.105403e+003, 1.159756e+002
1.105885e+003, 1.138113e+002
1.106367e+003, 1.114884e+002
1.106849e+003, 1.106747e+002
1.107332e+003, 1.109245e+002
1.107814e+003, 1.103220e+002
1.108296e+003, 1.089237e+002
1.108778e+003, 1.077605e+002
1.109260e+003, 1.074477e+002
1.109742e+003, 1.074075e+002
1.110224e+003, 1.076060e+002
1.110706e+003, 1.078044e+002
1.111188e+003, 1.074891e+002
1.111671e+003, 1.066860e+002
1.112153e+003, 1.062273e+002
1.112635e+003, 1.062231e+002
1.113117e+003, 1.065703e+002
1.113599e+003, 1.077564e+002
1.114081e+003, 1.087934e+002
1.114563e+003, 1.085572e+002
1.115045e+003, 1.072528e+002
1.115528e+003, 1.067734e+002
1.116010e+003, 1.071857e+002
1.116492e+003, 1.080672e+002
1.116974e+003, 1.094442e+002
1.117456e+003, 1.108334e+002
1.117938e+003, 1.118382e+002
1.118420e+003, 1.123774e+002
1.118902e+003, 1.121505e+002
1.119385e+003, 1.107027e+002
1.119867e+003, 1.103367e+002
1.120349e+003, 1.114431e+002
1.120831e+003, 1.127763e+002
1.121313e+003, 1.138295e+002
1.121795e+003, 1.145657e+002
1.122277e+003, 1.145394e+002
1.122759e+003, 1.141888e+002
1.123241e+003, 1.145925e+002
1.123724e+003, 1.170592e+002
1.124206e+003, 1.187052e+002
1.124688e+003, 1.187324e+002
1.125170e+003, 1.184509e+002
1.125652e+003, 1.189750e+002
1.126134e+003, 1.201249e+002
1.126616e+003, 1.208688e+002
1.127098e+003, 1.212994e+002
1.127580e+003, 1.220346e+002
1.128063e+003, 1.237123e+002
1.128545e+003, 1.254142e+002
1.129027e+003, 1.267094e+002
1.129509e+003, 1.278272e+002
1.129991e+003, 1.289507e+002
1.130473e+003, 1.300886e+002
1.130955e+003, 1.318577e+002
1.131437e+003, 1.343368e+002
1.131920e+003, 1.363374e+002
1.132402e+003, 1.367510e+002
1.132884e+003, 1.365998e+002
1.133366e+003, 1.364919e+002
1.133848e+003, 1.364143e+002
1.134330e+003, 1.361223e+002
1.134812e+003, 1.355314e+002
1.135294e+003, 1.355612e+002
1.135776e+003, 1.365594e+002
1.136259e+003, 1.374474e+002
1.136741e+003, 1.367491e+002
1.137223e+003, 1.356096e+002
1.137705e+003, 1.352435e+002
1.138187e+003, 1.358404e+002
1.138669e+003, 1.361292e+002
1.139151e+003, 1.356925e+002
1.139633e+003, 1.365779e+002
1.140115e+003, 1.400475e+002
1.140598e+003, 1.440555e+002
1.141080e+003, 1.450051e+002
1.141562e+003, 1.446662e+002
1.142044e+003, 1.458927e+002
1.142526e+003, 1.496855e+002
1.143008e+003, 1.538192e+002
1.143490e+003, 1.584490e+002
1.143972e+003, 1.625070e+002
1.144455e+003, 1.647892e+002
1.144937e+003, 1.665582e+002
1.145419e+003, 1.714622e+002
1.145901e+003, 1.783315e+002
1.146383e+003, 1.842611e+002
1.146865e+003, 1.871428e+002
1.147347e+003, 1.906664e+002
1.147829e+003, 1.955063e+002
1.148312e+003, 2.010337e+002
1.148794e+003, 2.071880e+002
1.149276e+003, 2.136828e+002
1.149758e+003, 2.188278e+002
1.150240e+003, 2.227276e+002
1.150722e+003, 2.260004e+002
1.151204e+003, 2.296244e+002
1.151686e+003, 2.317900e+002
1.152168e+003, 2.316228e+002
1.152651e+003, 2.300020e+002
1.153133e+003, 2.279550e+002
1.153615e+003, 2.254025e+002
1.154097e+003, 2.209703e+002
1.154579e+003, 2.146918e+002
1.155061e+003, 2.083313e+002
1.155543e+003, 2.033858e+002
1.156025e+003, 1.983148e+002
1.156507e+003, 1.915266e+002
1.156990e+003, 1.842955e+002
1.157472e+003, 1.794334e+002
1.157954e+003, 1.769433e+002
1.158436e+003, 1.734983e+002
1.158918e+003, 1.685574e+002
1.159400e+003, 1.634163e+002
1.159882e+003, 1.586633e+002
1.160364e+003, 1.545200e+002
1.160847e+003, 1.514688e+002
1.161329e+003, 1.492458e+002
1.161811e+003, 1.465692e+002
1.162293e+003, 1.434152e+002
1.162775e+003, 1.402189e+002
1.163257e+003, 1.369261e+002
1.163739e+003, 1.342505e+002
1.164221e+003, 1.335128e+002
1.164703e+003, 1.333032e+002
1.165186e+003, 1.320554e+002
1.165668e+003, 1.295934e+002
1.166150e+003, 1.277458e+002
1.166632e+003, 1.265660e+002
1.167114e+003, 1.258270e+002
1.167596e+003, 1.255951e+002
1.168078e+003, 1.254629e+002
1.168560e+003, 1.249034e+002
1.169042e+003, 1.241242e+002
1.169525e+003, 1.234119e+002
1.170007e+003, 1.228450e+002
1.170489e+003, 1.222114e+002
1.170971e+003, 1.214780e+002
1.171453e+003, 1.207943e+002
1.171935e+003, 1.202734e+002
1.172417e+003, 1.197882e+002
1.172899e+003, 1.188647e+002
1.173382e+003, 1.178972e+002
1.173864e+003, 1.176673e+002
1.174346e+003, 1.191005e+002
1.174828e+003, 1.197118e+002
1.175310e+003, 1.192071e+002
1.175792e+003, 1.186082e+002
1.176274e+003, 1.188616e+002
1.176756e+003, 1.193904e+002
1.177239e+003, 1.188955e+002
1.177721e+003, 1.177539e+002
1.178203e+003, 1.169365e+002
1.178685e+003, 1.170204e+002
1.179167e+003, 1.170846e+002
1.179649e+003, 1.170846e+002
1.180131e+003, 1.170345e+002
1.180613e+003, 1.168478e+002
1.181095e+003, 1.166607e+002
1.181578e+003, 1.169251e+002
1.182060e+003, 1.175120e+002
1.182542e+003, 1.178163e+002
1.183024e+003, 1.176930e+002
1.183506e+003, 1.170081e+002
1.183988e+003, 1.153132e+002
1.184470e+003, 1.138550e+002
1.184952e+003, 1.147797e+002
1.185434e+003, 1.169178e+002
1.185917e+003, 1.168871e+002
1.186399e+003, 1.147668e+002
1.186881e+003, 1.132948e+002
1.187363e+003, 1.143806e+002
1.187845e+003, 1.151652e+002
1.188327e+003, 1.147557e+002
1.188809e+003, 1.141292e+002
1.189291e+003, 1.151572e+002
1.189774e+003, 1.171571e+002
1.190256e+003, 1.179978e+002
1.190738e+003, 1.174473e+002
1.191220e+003, 1.166305e+002
1.191702e+003, 1.157512e+002
1.192184e+003, 1.150502e+002
1.192666e+003, 1.146348e+002
1.193148e+003, 1.143944e+002
1.193630e+003, 1.139866e+002
1.194113e+003, 1.135661e+002
1.194595e+003, 1.137342e+002
1.195077e+003, 1.146364e+002
1.195559e+003, 1.155730e+002
1.196041e+003, 1.165267e+002
1.196523e+003, 1.170343e+002
1.197005e+003, 1.167654e+002
1.197487e+003, 1.160709e+002
1.197969e+003, 1.159328e+002
1.198452e+003, 1.161998e+002
1.198934e+003, 1.162139e+002
1.199416e+003, 1.156893e+002
1.199898e+003, 1.156098e+002
1.200380e+003, 1.174937e+002
1.200862e+003, 1.186948e+002
1.201344e+003, 1.176568e+002
1.201826e+003, 1.151445e+002
1.202309e+003, 1.136654e+002
1.202791e+003, 1.131680e+002
1.203273e+003, 1.136873e+002
1.203755e+003, 1.157158e+002
1.204237e+003, 1.172189e+002
1.204719e+003, 1.168285e+002
1.205201e+003, 1.160543e+002
1.205683e+003, 1.156980e+002
1.206166e+003, 1.156574e+002
1.206648e+003, 1.152816e+002
1.207130e+003, 1.147289e+002
1.207612e+003, 1.146936e+002
1.208094e+003, 1.156540e+002
1.208576e+003, 1.166748e+002
1.209058e+003, 1.174661e+002
1.209540e+003, 1.180639e+002
1.210022e+003, 1.183840e+002
1.210505e+003, 1.185154e+002
1.210987e+003, 1.192949e+002
1.211469e+003, 1.204751e+002
1.211951e+003, 1.208419e+002
1.212433e+003, 1.193329e+002
1.212915e+003, 1.177841e+002
1.213397e+003, 1.165708e+002
1.213879e+003, 1.159123e+002
1.214361e+003, 1.162186e+002
1.214844e+003, 1.173190e+002
1.215326e+003, 1.180193e+002
1.215808e+003, 1.183571e+002
1.216290e+003, 1.185447e+002
1.216772e+003, 1.185495e+002
1.217254e+003, 1.185993e+002
1.217736e+003, 1.188244e+002
1.218218e+003, 1.190528e+002
1.218701e+003, 1.190251e+002
1.219183e+003, 1.188400e+002
1.219665e+003, 1.193467e+002
1.220147e+003, 1.203950e+002
1.220629e+003, 1.211527e+002
1.221111e+003, 1.208495e+002
1.221593e+003, 1.207116e+002
1.222075e+003, 1.213777e+002
1.222557e+003, 1.220005e+002
1.223040e+003, 1.215393e+002
1.223522e+003, 1.202647e+002
1.224004e+003, 1.192952e+002
1.224486e+003, 1.187357e+002
1.224968e+003, 1.189780e+002
1.225450e+003, 1.213472e+002
1.225932e+003, 1.229864e+002
1.226414e+003, 1.230643e+002
1.226896e+003, 1.224447e+002
1.227379e+003, 1.217961e+002
1.227861e+003, 1.213052e+002
1.228343e+003, 1.219723e+002
1.228825e+003, 1.236126e+002
1.229307e+003, 1.247250e+002
1.229789e+003, 1.243631e+002
1.230271e+003, 1.236782e+002
1.230753e+003, 1.227461e+002
1.231236e+003, 1.219199e+002
1.231718e+003, 1.216924e+002
1.232200e+003, 1.219351e+002
1.232682e+003, 1.225468e+002
1.233164e+003, 1.234101e+002
1.233646e+003, 1.237101e+002
1.234128e+003, 1.219531e+002
1.234610e+003, 1.213689e+002
1.235093e+003, 1.230680e+002
1.235575e+003, 1.252340e+002
1.236057e+003, 1.250866e+002
1.236539e+003, 1.236447e+002
1.237021e+003, 1.232028e+002
1.237503e+003, 1.238633e+002
1.237985e+003, 1.245624e+002
1.238467e+003, 1.249411e+002
1.238949e+003, 1.253384e+002
1.239432e+003, 1.257878e+002
1.239914e+003, 1.263280e+002
1.240396e+003, 1.275910e+002
1.240878e+003, 1.287310e+002
1.241360e+003, 1.274661e+002
1.241842e+003, 1.238809e+002
1.242324e+003, 1.222024e+002
1.242806e+003, 1.244120e+002
1.243288e+003, 1.260534e+002
1.243771e+003, 1.262578e+002
1.244253e+003, 1.257376e+002
1.244735e+003, 1.249315e+002
1.245217e+003, 1.242862e+002
1.245699e+003, 1.247874e+002
1.246181e+003, 1.264098e+002
1.246663e+003, 1.270588e+002
1.247145e+003, 1.260608e+002
1.247628e+003, 1.256360e+002
1.248110e+003, 1.263773e+002
1.248592e+003, 1.273843e+002
1.249074e+003, 1.277159e+002
1.249556e+003, 1.275328e+002
1.250038e+003, 1.268438e+002
1.250520e+003, 1.257108e+002
1.251002e+003, 1.249935e+002
1.251484e+003, 1.247937e+002
1.251967e+003, 1.246384e+002
1.252449e+003, 1.243794e+002
1.252931e+003, 1.243242e+002
1.253413e+003, 1.252926e+002
1.253895e+003, 1.262807e+002
1.254377e+003, 1.259485e+002
1.254859e+003, 1.244074e+002
1.255341e+003, 1.239608e+002
1.255823e+003, 1.247405e+002
1.256306e+003, 1.255485e+002
1.256788e+003, 1.261612e+002
1.257270e+003, 1.264287e+002
1.257752e+003, 1.259861e+002
1.258234e+003, 1.253143e+002
1.258716e+003, 1.247825e+002
1.259198e+003, 1.243915e+002
1.259680e+003, 1.240520e+002
1.260163e+003, 1.237619e+002
1.260645e+003, 1.238794e+002
1.261127e+003, 1.245594e+002
1.261609e+003, 1.251756e+002
1.262091e+003, 1.250073e+002
1.262573e+003, 1.248495e+002
1.263055e+003, 1.253935e+002
1.263537e+003, 1.263496e+002
1.264020e+003, 1.266173e+002
1.264502e+003, 1.262785e+002
1.264984e+003, 1.258442e+002
1.265466e+003, 1.253691e+002
1.265948e+003, 1.252677e+002
1.266430e+003, 1.261425e+002
1.266912e+003, 1.270896e+002
1.267394e+003, 1.277756e+002
1.267876e+003, 1.281173e+002
1.268359e+003, 1.275837e+002
1.268841e+003, 1.265135e+002
1.269323e+003, 1.263319e+002
1.269805e+003, 1.274923e+002
1.270287e+003, 1.282297e+002
1.270769e+003, 1.273076e+002
1.271251e+003, 1.264066e+002
1.271733e+003, 1.259895e+002
1.272215e+003, 1.260415e+002
1.272698e+003, 1.268338e+002
1.273180e+003, 1.279978e+002
1.273662e+003, 1.286524e+002
1.274144e+003, 1.285999e+002
1.274626e+003, 1.284797e+002
1.275108e+003, 1.282580e+002
1.275590e+003, 1.283664e+002
1.276072e+003, 1.290680e+002
1.276555e+003, 1.299219e+002
1.277037e+003, 1.302330e+002
1.277519e+003, 1.301771e+002
1.278001e+003, 1.299349e+002
1.278483e+003, 1.295120e+002
1.278965e+003, 1.294330e+002
1.279447e+003, 1.299111e+002
1.279929e+003, 1.299106e+002
1.280411e+003, 1.288844e+002
1.280894e+003, 1.279330e+002
1.281376e+003, 1.286560e+002
1.281858e+003, 1.300435e+002
1.282340e+003, 1.309873e+002
1.282822e+003, 1.314039e+002
1.283304e+003, 1.319484e+002
1.283786e+003, 1.327111e+002
1.284268e+003, 1.323553e+002
1.284750e+003, 1.301108e+002
1.285233e+003, 1.284044e+002
1.285715e+003, 1.304180e+002
1.286197e+003, 1.331338e+002
1.286679e+003, 1.341741e+002
1.287161e+003, 1.337481e+002
1.287643e+003, 1.324146e+002
1.288125e+003, 1.303168e+002
1.288607e+003, 1.295020e+002
1.289090e+003, 1.306679e+002
1.289572e+003, 1.317738e+002
1.290054e+003, 1.313148e+002
1.290536e+003, 1.306703e+002
1.291018e+003, 1.304241e+002
1.291500e+003, 1.306401e+002
1.291982e+003, 1.319146e+002
1.292464e+003, 1.338175e+002
1.292947e+003, 1.346831e+002
1.293429e+003, 1.340827e+002
1.293911e+003, 1.335762e+002
1.294393e+003, 1.337630e+002
1.294875e+003, 1.342230e+002
1.295357e+003, 1.349279e+002
1.295839e+003, 1.356983e+002
1.296321e+003, 1.363127e+002
1.296803e+003, 1.367328e+002
1.297286e+003, 1.367747e+002
1.297768e+003, 1.363897e+002
1.298250e+003, 1.362603e+002
1.298732e+003, 1.365963e+002
1.299214e+003, 1.368038e+002
1.299696e+003, 1.366944e+002
1.300178e+003, 1.365293e+002
1.300660e+003, 1.366042e+002
##END=



