##NAMES=Ehrleite
##RRUFFID=R180029
##IDEAL CHEMISTRY=Ca_2_Zn^2+^Be(PO_4_)_2_(PO_3_OH)&#183;4H_2_O
##LOCALITY=Tip Top mine, Custer District, Custer Co., South Dakota, USA
##OWNER=RRUFF
##SOURCE=Tom Loomis
##DESCRIPTION=Colorless thick tabular crystals, twinned by a 2-fold parallel to (001)
##STATUS=The identification of this mineral has been confirmed only by single crystal X-ray diffraction.
##URL=rruff.info/R180029
8.758203e+001, 5.919380e+002
8.806415e+001, 5.880487e+002
8.854626e+001, 5.873918e+002
8.902838e+001, 5.917066e+002
8.951050e+001, 5.967542e+002
8.999261e+001, 6.014711e+002
9.047473e+001, 6.055832e+002
9.095685e+001, 6.084027e+002
9.143896e+001, 6.088461e+002
9.192108e+001, 6.068656e+002
9.240320e+001, 6.057637e+002
9.288531e+001, 5.995760e+002
9.336743e+001, 5.835738e+002
9.384955e+001, 5.592203e+002
9.433167e+001, 5.346788e+002
9.481378e+001, 5.108769e+002
9.529590e+001, 4.921007e+002
9.577802e+001, 4.774824e+002
9.626013e+001, 4.653853e+002
9.674225e+001, 4.546994e+002
9.722437e+001, 4.452291e+002
9.770648e+001, 4.376747e+002
9.818860e+001, 4.319383e+002
9.867072e+001, 4.280500e+002
9.915283e+001, 4.260453e+002
9.963495e+001, 4.258181e+002
1.001171e+002, 4.271129e+002
1.005992e+002, 4.295091e+002
1.010813e+002, 4.325053e+002
1.015634e+002, 4.378822e+002
1.020455e+002, 4.459773e+002
1.025277e+002, 4.555128e+002
1.030098e+002, 4.660239e+002
1.034919e+002, 4.772914e+002
1.039740e+002, 4.886441e+002
1.044561e+002, 4.978035e+002
1.049382e+002, 5.051004e+002
1.054204e+002, 5.096883e+002
1.059025e+002, 5.070901e+002
1.063846e+002, 5.018891e+002
1.068667e+002, 5.012236e+002
1.073488e+002, 5.090234e+002
1.078309e+002, 5.257029e+002
1.083131e+002, 5.504777e+002
1.087952e+002, 5.877048e+002
1.092773e+002, 6.278242e+002
1.097594e+002, 6.710096e+002
1.102415e+002, 7.163820e+002
1.107236e+002, 7.499875e+002
1.112058e+002, 7.597475e+002
1.116879e+002, 7.479645e+002
1.121700e+002, 7.216791e+002
1.126521e+002, 6.730532e+002
1.131342e+002, 6.128689e+002
1.136163e+002, 5.579530e+002
1.140985e+002, 5.088144e+002
1.145806e+002, 4.665021e+002
1.150627e+002, 4.307060e+002
1.155448e+002, 4.010440e+002
1.160269e+002, 3.769050e+002
1.165090e+002, 3.599850e+002
1.169912e+002, 3.501444e+002
1.174733e+002, 3.392045e+002
1.179554e+002, 3.254666e+002
1.184375e+002, 3.117983e+002
1.189196e+002, 2.987538e+002
1.194017e+002, 2.866507e+002
1.198839e+002, 2.760347e+002
1.203660e+002, 2.676042e+002
1.208481e+002, 2.620163e+002
1.213302e+002, 2.572798e+002
1.218123e+002, 2.533020e+002
1.222944e+002, 2.500056e+002
1.227766e+002, 2.474045e+002
1.232587e+002, 2.454806e+002
1.237408e+002, 2.440470e+002
1.242229e+002, 2.427616e+002
1.247050e+002, 2.411118e+002
1.251871e+002, 2.403826e+002
1.256693e+002, 2.414509e+002
1.261514e+002, 2.432309e+002
1.266335e+002, 2.441354e+002
1.271156e+002, 2.433300e+002
1.275977e+002, 2.416786e+002
1.280798e+002, 2.418284e+002
1.285620e+002, 2.440348e+002
1.290441e+002, 2.470290e+002
1.295262e+002, 2.496380e+002
1.300083e+002, 2.523560e+002
1.304904e+002, 2.572199e+002
1.309725e+002, 2.653661e+002
1.314547e+002, 2.766667e+002
1.319368e+002, 2.897922e+002
1.324189e+002, 3.049448e+002
1.329010e+002, 3.216112e+002
1.333831e+002, 3.398317e+002
1.338652e+002, 3.599460e+002
1.343474e+002, 3.796336e+002
1.348295e+002, 3.985557e+002
1.353116e+002, 4.160775e+002
1.357937e+002, 4.313986e+002
1.362758e+002, 4.443214e+002
1.367579e+002, 4.547599e+002
1.372401e+002, 4.624788e+002
1.377222e+002, 4.673285e+002
1.382043e+002, 4.691078e+002
1.386864e+002, 4.669812e+002
1.391685e+002, 4.623975e+002
1.396507e+002, 4.575970e+002
1.401328e+002, 4.544327e+002
1.406149e+002, 4.527393e+002
1.410970e+002, 4.477338e+002
1.415791e+002, 4.410287e+002
1.420612e+002, 4.291608e+002
1.425434e+002, 4.087597e+002
1.430255e+002, 3.817971e+002
1.435076e+002, 3.526745e+002
1.439897e+002, 3.249804e+002
1.444718e+002, 2.983172e+002
1.449539e+002, 2.763238e+002
1.454361e+002, 2.588792e+002
1.459182e+002, 2.448739e+002
1.464003e+002, 2.341794e+002
1.468824e+002, 2.265609e+002
1.473645e+002, 2.211982e+002
1.478466e+002, 2.172026e+002
1.483288e+002, 2.146931e+002
1.488109e+002, 2.140664e+002
1.492930e+002, 2.160003e+002
1.497751e+002, 2.195166e+002
1.502572e+002, 2.239108e+002
1.507393e+002, 2.291520e+002
1.512215e+002, 2.345277e+002
1.517036e+002, 2.389782e+002
1.521857e+002, 2.425746e+002
1.526678e+002, 2.459371e+002
1.531499e+002, 2.488781e+002
1.536320e+002, 2.517022e+002
1.541142e+002, 2.550918e+002
1.545963e+002, 2.590447e+002
1.550784e+002, 2.639343e+002
1.555605e+002, 2.703998e+002
1.560426e+002, 2.784062e+002
1.565247e+002, 2.861905e+002
1.570069e+002, 2.932908e+002
1.574890e+002, 2.996667e+002
1.579711e+002, 3.029726e+002
1.584532e+002, 3.009705e+002
1.589353e+002, 2.967045e+002
1.594174e+002, 2.915862e+002
1.598996e+002, 2.858539e+002
1.603817e+002, 2.801643e+002
1.608638e+002, 2.753610e+002
1.613459e+002, 2.717716e+002
1.618280e+002, 2.679836e+002
1.623102e+002, 2.646384e+002
1.627923e+002, 2.605631e+002
1.632744e+002, 2.550545e+002
1.637565e+002, 2.478606e+002
1.642386e+002, 2.391459e+002
1.647207e+002, 2.287478e+002
1.652029e+002, 2.143250e+002
1.656850e+002, 2.022669e+002
1.661671e+002, 1.936950e+002
1.666492e+002, 1.871022e+002
1.671313e+002, 1.810314e+002
1.676134e+002, 1.749124e+002
1.680956e+002, 1.691319e+002
1.685777e+002, 1.648447e+002
1.690598e+002, 1.634871e+002
1.695419e+002, 1.620866e+002
1.700240e+002, 1.600537e+002
1.705061e+002, 1.579270e+002
1.709883e+002, 1.563828e+002
1.714704e+002, 1.557277e+002
1.719525e+002, 1.559755e+002
1.724346e+002, 1.573455e+002
1.729167e+002, 1.604062e+002
1.733988e+002, 1.636813e+002
1.738810e+002, 1.668600e+002
1.743631e+002, 1.699328e+002
1.748452e+002, 1.729268e+002
1.753273e+002, 1.759562e+002
1.758094e+002, 1.787975e+002
1.762915e+002, 1.807921e+002
1.767737e+002, 1.819539e+002
1.772558e+002, 1.823700e+002
1.777379e+002, 1.819469e+002
1.782200e+002, 1.807252e+002
1.787021e+002, 1.790594e+002
1.791842e+002, 1.765091e+002
1.796664e+002, 1.738991e+002
1.801485e+002, 1.728160e+002
1.806306e+002, 1.742738e+002
1.811127e+002, 1.764013e+002
1.815948e+002, 1.773296e+002
1.820769e+002, 1.769996e+002
1.825591e+002, 1.757887e+002
1.830412e+002, 1.735204e+002
1.835233e+002, 1.705694e+002
1.840054e+002, 1.672235e+002
1.844875e+002, 1.636665e+002
1.849696e+002, 1.596962e+002
1.854518e+002, 1.547093e+002
1.859339e+002, 1.479934e+002
1.864160e+002, 1.419013e+002
1.868981e+002, 1.372053e+002
1.873802e+002, 1.335314e+002
1.878623e+002, 1.304774e+002
1.883445e+002, 1.278306e+002
1.888266e+002, 1.257164e+002
1.893087e+002, 1.246739e+002
1.897908e+002, 1.254721e+002
1.902729e+002, 1.263413e+002
1.907550e+002, 1.264551e+002
1.912372e+002, 1.264438e+002
1.917193e+002, 1.271550e+002
1.922014e+002, 1.291069e+002
1.926835e+002, 1.321796e+002
1.931656e+002, 1.355612e+002
1.936477e+002, 1.404052e+002
1.941299e+002, 1.443317e+002
1.946120e+002, 1.463944e+002
1.950941e+002, 1.473115e+002
1.955762e+002, 1.482998e+002
1.960583e+002, 1.502303e+002
1.965404e+002, 1.530025e+002
1.970226e+002, 1.547665e+002
1.975047e+002, 1.553665e+002
1.979868e+002, 1.552207e+002
1.984689e+002, 1.542051e+002
1.989510e+002, 1.524945e+002
1.994331e+002, 1.504648e+002
1.999153e+002, 1.483984e+002
2.003974e+002, 1.462711e+002
2.008795e+002, 1.433860e+002
2.013616e+002, 1.393060e+002
2.018437e+002, 1.350762e+002
2.023258e+002, 1.308831e+002
2.028080e+002, 1.268518e+002
2.032901e+002, 1.232578e+002
2.037722e+002, 1.202422e+002
2.042543e+002, 1.178819e+002
2.047364e+002, 1.160960e+002
2.052185e+002, 1.150650e+002
2.057007e+002, 1.143981e+002
2.061828e+002, 1.140791e+002
2.066649e+002, 1.140430e+002
2.071470e+002, 1.138157e+002
2.076291e+002, 1.130368e+002
2.081112e+002, 1.117543e+002
2.085934e+002, 1.104058e+002
2.090755e+002, 1.087620e+002
2.095576e+002, 1.072235e+002
2.100397e+002, 1.060886e+002
2.105218e+002, 1.053558e+002
2.110039e+002, 1.050606e+002
2.114861e+002, 1.053576e+002
2.119682e+002, 1.061227e+002
2.124503e+002, 1.071029e+002
2.129324e+002, 1.081152e+002
2.134145e+002, 1.094165e+002
2.138967e+002, 1.113740e+002
2.143788e+002, 1.140673e+002
2.148609e+002, 1.170610e+002
2.153430e+002, 1.200291e+002
2.158251e+002, 1.231805e+002
2.163072e+002, 1.268202e+002
2.167894e+002, 1.310263e+002
2.172715e+002, 1.358291e+002
2.177536e+002, 1.415311e+002
2.182357e+002, 1.485790e+002
2.187178e+002, 1.552569e+002
2.191999e+002, 1.615046e+002
2.196821e+002, 1.668468e+002
2.201642e+002, 1.705688e+002
2.206463e+002, 1.723194e+002
2.211284e+002, 1.723821e+002
2.216105e+002, 1.711510e+002
2.220926e+002, 1.677876e+002
2.225748e+002, 1.648118e+002
2.230569e+002, 1.624723e+002
2.235390e+002, 1.610459e+002
2.240211e+002, 1.609633e+002
2.245032e+002, 1.625300e+002
2.249853e+002, 1.652969e+002
2.254675e+002, 1.681040e+002
2.259496e+002, 1.709984e+002
2.264317e+002, 1.738221e+002
2.269138e+002, 1.769241e+002
2.273959e+002, 1.798080e+002
2.278780e+002, 1.819227e+002
2.283602e+002, 1.829941e+002
2.288423e+002, 1.831729e+002
2.293244e+002, 1.829777e+002
2.298065e+002, 1.826925e+002
2.302886e+002, 1.815115e+002
2.307707e+002, 1.791255e+002
2.312529e+002, 1.759314e+002
2.317350e+002, 1.723530e+002
2.322171e+002, 1.685927e+002
2.326992e+002, 1.645797e+002
2.331813e+002, 1.600841e+002
2.336634e+002, 1.543178e+002
2.341456e+002, 1.489600e+002
2.346277e+002, 1.442948e+002
2.351098e+002, 1.400288e+002
2.355919e+002, 1.356961e+002
2.360740e+002, 1.310783e+002
2.365561e+002, 1.265201e+002
2.370383e+002, 1.230454e+002
2.375204e+002, 1.212759e+002
2.380025e+002, 1.199981e+002
2.384846e+002, 1.195668e+002
2.389667e+002, 1.194641e+002
2.394488e+002, 1.190101e+002
2.399310e+002, 1.179068e+002
2.404131e+002, 1.164868e+002
2.408952e+002, 1.155997e+002
2.413773e+002, 1.157534e+002
2.418594e+002, 1.157366e+002
2.423415e+002, 1.151470e+002
2.428237e+002, 1.144175e+002
2.433058e+002, 1.142940e+002
2.437879e+002, 1.151088e+002
2.442700e+002, 1.161587e+002
2.447521e+002, 1.157906e+002
2.452342e+002, 1.129041e+002
2.457164e+002, 1.108913e+002
2.461985e+002, 1.109751e+002
2.466806e+002, 1.120036e+002
2.471627e+002, 1.123020e+002
2.476448e+002, 1.112561e+002
2.481269e+002, 1.097206e+002
2.486091e+002, 1.092467e+002
2.490912e+002, 1.100616e+002
2.495733e+002, 1.108926e+002
2.500554e+002, 1.113305e+002
2.505375e+002, 1.116852e+002
2.510196e+002, 1.124322e+002
2.515018e+002, 1.137150e+002
2.519839e+002, 1.153208e+002
2.524660e+002, 1.171346e+002
2.529481e+002, 1.192417e+002
2.534302e+002, 1.208244e+002
2.539123e+002, 1.216546e+002
2.543945e+002, 1.218476e+002
2.548766e+002, 1.214690e+002
2.553587e+002, 1.204422e+002
2.558408e+002, 1.191764e+002
2.563229e+002, 1.183697e+002
2.568051e+002, 1.179466e+002
2.572872e+002, 1.167967e+002
2.577693e+002, 1.140449e+002
2.582514e+002, 1.105216e+002
2.587335e+002, 1.075779e+002
2.592156e+002, 1.054862e+002
2.596978e+002, 1.036765e+002
2.601799e+002, 1.014815e+002
2.606620e+002, 9.905524e+001
2.611441e+002, 9.708968e+001
2.616262e+002, 9.606712e+001
2.621083e+002, 9.554250e+001
2.625905e+002, 9.470089e+001
2.630726e+002, 9.335476e+001
2.635547e+002, 9.221132e+001
2.640368e+002, 9.205573e+001
2.645189e+002, 9.251930e+001
2.650010e+002, 9.292857e+001
2.654832e+002, 9.305846e+001
2.659653e+002, 9.301615e+001
2.664474e+002, 9.288794e+001
2.669295e+002, 9.259449e+001
2.674116e+002, 9.251743e+001
2.678937e+002, 9.316834e+001
2.683759e+002, 9.413770e+001
2.688580e+002, 9.488628e+001
2.693401e+002, 9.530936e+001
2.698222e+002, 9.537890e+001
2.703043e+002, 9.492596e+001
2.707864e+002, 9.381255e+001
2.712686e+002, 9.277718e+001
2.717507e+002, 9.227313e+001
2.722328e+002, 9.200648e+001
2.727149e+002, 9.168321e+001
2.731970e+002, 9.119395e+001
2.736791e+002, 9.068126e+001
2.741613e+002, 9.043026e+001
2.746434e+002, 9.054171e+001
2.751255e+002, 9.038110e+001
2.756076e+002, 8.960313e+001
2.760897e+002, 8.848222e+001
2.765718e+002, 8.694436e+001
2.770540e+002, 8.484306e+001
2.775361e+002, 8.313792e+001
2.780182e+002, 8.317793e+001
2.785003e+002, 8.522233e+001
2.789824e+002, 8.721790e+001
2.794645e+002, 8.849193e+001
2.799467e+002, 8.963818e+001
2.804288e+002, 9.099574e+001
2.809109e+002, 9.262081e+001
2.813930e+002, 9.445473e+001
2.818751e+002, 9.651674e+001
2.823572e+002, 9.883105e+001
2.828394e+002, 1.010195e+002
2.833215e+002, 1.025365e+002
2.838036e+002, 1.043213e+002
2.842857e+002, 1.071127e+002
2.847678e+002, 1.108135e+002
2.852499e+002, 1.146162e+002
2.857321e+002, 1.178481e+002
2.862142e+002, 1.204897e+002
2.866963e+002, 1.228395e+002
2.871784e+002, 1.248399e+002
2.876605e+002, 1.265615e+002
2.881426e+002, 1.278405e+002
2.886248e+002, 1.288343e+002
2.891069e+002, 1.300137e+002
2.895890e+002, 1.321364e+002
2.900711e+002, 1.350259e+002
2.905532e+002, 1.362273e+002
2.910353e+002, 1.345070e+002
2.915175e+002, 1.324971e+002
2.919996e+002, 1.313085e+002
2.924817e+002, 1.306035e+002
2.929638e+002, 1.296622e+002
2.934459e+002, 1.279271e+002
2.939280e+002, 1.256503e+002
2.944102e+002, 1.240949e+002
2.948923e+002, 1.239679e+002
2.953744e+002, 1.234441e+002
2.958565e+002, 1.217849e+002
2.963386e+002, 1.195201e+002
2.968207e+002, 1.173116e+002
2.973029e+002, 1.154763e+002
2.977850e+002, 1.139006e+002
2.982671e+002, 1.122774e+002
2.987492e+002, 1.104176e+002
2.992313e+002, 1.089205e+002
2.997134e+002, 1.079192e+002
3.001956e+002, 1.072798e+002
3.006777e+002, 1.070139e+002
3.011598e+002, 1.071308e+002
3.016419e+002, 1.073080e+002
3.021240e+002, 1.069102e+002
3.026061e+002, 1.056156e+002
3.030883e+002, 1.046593e+002
3.035704e+002, 1.041130e+002
3.040525e+002, 1.040030e+002
3.045346e+002, 1.043651e+002
3.050167e+002, 1.052074e+002
3.054988e+002, 1.065254e+002
3.059810e+002, 1.086117e+002
3.064631e+002, 1.118571e+002
3.069452e+002, 1.140330e+002
3.074273e+002, 1.138781e+002
3.079094e+002, 1.134925e+002
3.083915e+002, 1.135865e+002
3.088737e+002, 1.143076e+002
3.093558e+002, 1.156858e+002
3.098379e+002, 1.179205e+002
3.103200e+002, 1.210757e+002
3.108021e+002, 1.239406e+002
3.112842e+002, 1.264413e+002
3.117664e+002, 1.286961e+002
3.122485e+002, 1.308325e+002
3.127306e+002, 1.327549e+002
3.132127e+002, 1.342534e+002
3.136948e+002, 1.350799e+002
3.141769e+002, 1.353643e+002
3.146591e+002, 1.359833e+002
3.151412e+002, 1.376943e+002
3.156233e+002, 1.386323e+002
3.161054e+002, 1.380282e+002
3.165875e+002, 1.364938e+002
3.170696e+002, 1.347911e+002
3.175518e+002, 1.332608e+002
3.180339e+002, 1.318582e+002
3.185160e+002, 1.305191e+002
3.189981e+002, 1.293582e+002
3.194802e+002, 1.280186e+002
3.199623e+002, 1.261829e+002
3.204445e+002, 1.242864e+002
3.209266e+002, 1.226773e+002
3.214087e+002, 1.214591e+002
3.218908e+002, 1.206308e+002
3.223729e+002, 1.204059e+002
3.228550e+002, 1.211707e+002
3.233372e+002, 1.211551e+002
3.238193e+002, 1.190502e+002
3.243014e+002, 1.168963e+002
3.247835e+002, 1.160107e+002
3.252656e+002, 1.164516e+002
3.257477e+002, 1.172029e+002
3.262299e+002, 1.173467e+002
3.267120e+002, 1.168651e+002
3.271941e+002, 1.159098e+002
3.276762e+002, 1.139146e+002
3.281583e+002, 1.119618e+002
3.286404e+002, 1.104856e+002
3.291226e+002, 1.094375e+002
3.296047e+002, 1.085787e+002
3.300868e+002, 1.077334e+002
3.305689e+002, 1.069290e+002
3.310510e+002, 1.063461e+002
3.315331e+002, 1.059778e+002
3.320153e+002, 1.058792e+002
3.324974e+002, 1.062330e+002
3.329795e+002, 1.067884e+002
3.334616e+002, 1.071947e+002
3.339437e+002, 1.072906e+002
3.344258e+002, 1.071416e+002
3.349080e+002, 1.067828e+002
3.353901e+002, 1.059513e+002
3.358722e+002, 1.056163e+002
3.363543e+002, 1.067551e+002
3.368365e+002, 1.081238e+002
3.373186e+002, 1.084823e+002
3.378007e+002, 1.074484e+002
3.382828e+002, 1.060843e+002
3.387649e+002, 1.057640e+002
3.392470e+002, 1.066344e+002
3.397292e+002, 1.074474e+002
3.402113e+002, 1.077829e+002
3.406934e+002, 1.081367e+002
3.411755e+002, 1.089872e+002
3.416576e+002, 1.102813e+002
3.421397e+002, 1.113607e+002
3.426219e+002, 1.113589e+002
3.431040e+002, 1.104365e+002
3.435861e+002, 1.103445e+002
3.440682e+002, 1.114283e+002
3.445503e+002, 1.131064e+002
3.450324e+002, 1.151997e+002
3.455146e+002, 1.175420e+002
3.459967e+002, 1.197085e+002
3.464788e+002, 1.212436e+002
3.469609e+002, 1.225171e+002
3.474430e+002, 1.243645e+002
3.479251e+002, 1.267645e+002
3.484073e+002, 1.298273e+002
3.488894e+002, 1.340640e+002
3.493715e+002, 1.388473e+002
3.498536e+002, 1.434977e+002
3.503357e+002, 1.478205e+002
3.508178e+002, 1.519871e+002
3.513000e+002, 1.561287e+002
3.517821e+002, 1.602340e+002
3.522642e+002, 1.645198e+002
3.527463e+002, 1.687504e+002
3.532284e+002, 1.735162e+002
3.537105e+002, 1.796070e+002
3.541927e+002, 1.871937e+002
3.546748e+002, 1.947979e+002
3.551569e+002, 2.012418e+002
3.556390e+002, 2.068115e+002
3.561211e+002, 2.129260e+002
3.566032e+002, 2.201439e+002
3.570854e+002, 2.274369e+002
3.575675e+002, 2.340071e+002
3.580496e+002, 2.399548e+002
3.585317e+002, 2.453513e+002
3.590138e+002, 2.501458e+002
3.594959e+002, 2.544571e+002
3.599781e+002, 2.588912e+002
3.604602e+002, 2.636887e+002
3.609423e+002, 2.670417e+002
3.614244e+002, 2.668513e+002
3.619065e+002, 2.642368e+002
3.623886e+002, 2.620300e+002
3.628708e+002, 2.610377e+002
3.633529e+002, 2.601029e+002
3.638350e+002, 2.581413e+002
3.643171e+002, 2.553074e+002
3.647992e+002, 2.527036e+002
3.652813e+002, 2.510799e+002
3.657635e+002, 2.496981e+002
3.662456e+002, 2.469843e+002
3.667277e+002, 2.425129e+002
3.672098e+002, 2.382074e+002
3.676919e+002, 2.350807e+002
3.681740e+002, 2.326116e+002
3.686562e+002, 2.298480e+002
3.691383e+002, 2.265571e+002
3.696204e+002, 2.229398e+002
3.701025e+002, 2.193387e+002
3.705846e+002, 2.158232e+002
3.710667e+002, 2.114639e+002
3.715489e+002, 2.048807e+002
3.720310e+002, 1.982283e+002
3.725131e+002, 1.939648e+002
3.729952e+002, 1.919990e+002
3.734773e+002, 1.898688e+002
3.739594e+002, 1.857543e+002
3.744416e+002, 1.797607e+002
3.749237e+002, 1.739159e+002
3.754058e+002, 1.675699e+002
3.758879e+002, 1.620332e+002
3.763700e+002, 1.580510e+002
3.768521e+002, 1.552399e+002
3.773343e+002, 1.530044e+002
3.778164e+002, 1.511547e+002
3.782985e+002, 1.493645e+002
3.787806e+002, 1.468254e+002
3.792627e+002, 1.427363e+002
3.797448e+002, 1.392489e+002
3.802270e+002, 1.367658e+002
3.807091e+002, 1.348137e+002
3.811912e+002, 1.330648e+002
3.816733e+002, 1.314005e+002
3.821554e+002, 1.296525e+002
3.826375e+002, 1.275565e+002
3.831197e+002, 1.249506e+002
3.836018e+002, 1.228671e+002
3.840839e+002, 1.212226e+002
3.845660e+002, 1.200721e+002
3.850481e+002, 1.199902e+002
3.855302e+002, 1.204501e+002
3.860124e+002, 1.201875e+002
3.864945e+002, 1.182970e+002
3.869766e+002, 1.151657e+002
3.874587e+002, 1.128310e+002
3.879408e+002, 1.115253e+002
3.884229e+002, 1.108528e+002
3.889051e+002, 1.113812e+002
3.893872e+002, 1.122296e+002
3.898693e+002, 1.124191e+002
3.903514e+002, 1.116554e+002
3.908335e+002, 1.105179e+002
3.913156e+002, 1.099690e+002
3.917978e+002, 1.103160e+002
3.922799e+002, 1.104117e+002
3.927620e+002, 1.099712e+002
3.932441e+002, 1.095279e+002
3.937262e+002, 1.094637e+002
3.942083e+002, 1.096785e+002
3.946905e+002, 1.097278e+002
3.951726e+002, 1.091567e+002
3.956547e+002, 1.080622e+002
3.961368e+002, 1.074606e+002
3.966189e+002, 1.075616e+002
3.971010e+002, 1.079013e+002
3.975832e+002, 1.084373e+002
3.980653e+002, 1.090585e+002
3.985474e+002, 1.095895e+002
3.990295e+002, 1.099383e+002
3.995116e+002, 1.102946e+002
3.999937e+002, 1.110294e+002
4.004759e+002, 1.122365e+002
4.009580e+002, 1.133237e+002
4.014401e+002, 1.139468e+002
4.019222e+002, 1.145487e+002
4.024043e+002, 1.153125e+002
4.028864e+002, 1.162854e+002
4.033686e+002, 1.176870e+002
4.038507e+002, 1.199824e+002
4.043328e+002, 1.229138e+002
4.048149e+002, 1.253168e+002
4.052970e+002, 1.269522e+002
4.057791e+002, 1.283586e+002
4.062613e+002, 1.300058e+002
4.067434e+002, 1.316992e+002
4.072255e+002, 1.330206e+002
4.077076e+002, 1.336348e+002
4.081897e+002, 1.340126e+002
4.086718e+002, 1.347162e+002
4.091540e+002, 1.357307e+002
4.096361e+002, 1.366035e+002
4.101182e+002, 1.370567e+002
4.106003e+002, 1.373258e+002
4.110824e+002, 1.379493e+002
4.115645e+002, 1.391570e+002
4.120467e+002, 1.398391e+002
4.125288e+002, 1.390937e+002
4.130109e+002, 1.376055e+002
4.134930e+002, 1.367465e+002
4.139751e+002, 1.368652e+002
4.144572e+002, 1.368963e+002
4.149394e+002, 1.356766e+002
4.154215e+002, 1.331284e+002
4.159036e+002, 1.306905e+002
4.163857e+002, 1.282338e+002
4.168678e+002, 1.260697e+002
4.173499e+002, 1.247973e+002
4.178321e+002, 1.240950e+002
4.183142e+002, 1.228387e+002
4.187963e+002, 1.203836e+002
4.192784e+002, 1.169960e+002
4.197605e+002, 1.135687e+002
4.202426e+002, 1.099241e+002
4.207248e+002, 1.064695e+002
4.212069e+002, 1.031323e+002
4.216890e+002, 1.000676e+002
4.221711e+002, 9.750060e+001
4.226532e+002, 9.546251e+001
4.231353e+002, 9.371843e+001
4.236175e+002, 9.201142e+001
4.240996e+002, 9.036235e+001
4.245817e+002, 8.865683e+001
4.250638e+002, 8.678166e+001
4.255459e+002, 8.497520e+001
4.260280e+002, 8.326292e+001
4.265102e+002, 8.169718e+001
4.269923e+002, 8.038818e+001
4.274744e+002, 7.942048e+001
4.279565e+002, 7.867722e+001
4.284386e+002, 7.777724e+001
4.289207e+002, 7.653976e+001
4.294029e+002, 7.547063e+001
4.298850e+002, 7.459868e+001
4.303671e+002, 7.391680e+001
4.308492e+002, 7.349608e+001
4.313313e+002, 7.331526e+001
4.318134e+002, 7.318959e+001
4.322956e+002, 7.292152e+001
4.327777e+002, 7.250658e+001
4.332598e+002, 7.209184e+001
4.337419e+002, 7.151436e+001
4.342241e+002, 7.117592e+001
4.347062e+002, 7.128519e+001
4.351883e+002, 7.173291e+001
4.356704e+002, 7.235536e+001
4.361525e+002, 7.322525e+001
4.366346e+002, 7.403367e+001
4.371168e+002, 7.405888e+001
4.375989e+002, 7.317316e+001
4.380810e+002, 7.288307e+001
4.385631e+002, 7.416800e+001
4.390452e+002, 7.596040e+001
4.395273e+002, 7.689317e+001
4.400095e+002, 7.682918e+001
4.404916e+002, 7.707906e+001
4.409737e+002, 7.857426e+001
4.414558e+002, 8.083186e+001
4.419379e+002, 8.288003e+001
4.424200e+002, 8.459999e+001
4.429022e+002, 8.612495e+001
4.433843e+002, 8.752197e+001
4.438664e+002, 8.880854e+001
4.443485e+002, 9.013257e+001
4.448306e+002, 9.097325e+001
4.453127e+002, 9.236338e+001
4.457949e+002, 9.536779e+001
4.462770e+002, 9.941894e+001
4.467591e+002, 1.029782e+002
4.472412e+002, 1.053879e+002
4.477233e+002, 1.072043e+002
4.482054e+002, 1.094584e+002
4.486876e+002, 1.122942e+002
4.491697e+002, 1.153179e+002
4.496518e+002, 1.189372e+002
4.501339e+002, 1.224189e+002
4.506160e+002, 1.251401e+002
4.510981e+002, 1.271248e+002
4.515803e+002, 1.288435e+002
4.520624e+002, 1.306663e+002
4.525445e+002, 1.325621e+002
4.530266e+002, 1.340654e+002
4.535087e+002, 1.353979e+002
4.539908e+002, 1.360131e+002
4.544730e+002, 1.352554e+002
4.549551e+002, 1.339835e+002
4.554372e+002, 1.333172e+002
4.559193e+002, 1.335493e+002
4.564014e+002, 1.337933e+002
4.568835e+002, 1.326243e+002
4.573657e+002, 1.296245e+002
4.578478e+002, 1.271261e+002
4.583299e+002, 1.259841e+002
4.588120e+002, 1.245948e+002
4.592941e+002, 1.219197e+002
4.597762e+002, 1.184691e+002
4.602584e+002, 1.155064e+002
4.607405e+002, 1.138366e+002
4.612226e+002, 1.129474e+002
4.617047e+002, 1.117728e+002
4.621868e+002, 1.102604e+002
4.626689e+002, 1.087059e+002
4.631511e+002, 1.074805e+002
4.636332e+002, 1.060570e+002
4.641153e+002, 1.036985e+002
4.645974e+002, 1.002719e+002
4.650795e+002, 9.712360e+001
4.655616e+002, 9.524241e+001
4.660438e+002, 9.418474e+001
4.665259e+002, 9.303758e+001
4.670080e+002, 9.174718e+001
4.674901e+002, 9.005971e+001
4.679722e+002, 8.743431e+001
4.684543e+002, 8.418744e+001
4.689365e+002, 8.183522e+001
4.694186e+002, 8.117009e+001
4.699007e+002, 8.066792e+001
4.703828e+002, 7.956570e+001
4.708649e+002, 7.805322e+001
4.713470e+002, 7.650575e+001
4.718292e+002, 7.504494e+001
4.723113e+002, 7.367422e+001
4.727934e+002, 7.233788e+001
4.732755e+002, 7.084839e+001
4.737576e+002, 7.009010e+001
4.742397e+002, 7.061242e+001
4.747219e+002, 7.135246e+001
4.752040e+002, 7.174422e+001
4.756861e+002, 7.179972e+001
4.761682e+002, 7.171843e+001
4.766503e+002, 7.161006e+001
4.771324e+002, 7.151274e+001
4.776146e+002, 7.158300e+001
4.780967e+002, 7.193546e+001
4.785788e+002, 7.228113e+001
4.790609e+002, 7.227479e+001
4.795430e+002, 7.246672e+001
4.800251e+002, 7.347768e+001
4.805073e+002, 7.526850e+001
4.809894e+002, 7.709352e+001
4.814715e+002, 7.811749e+001
4.819536e+002, 7.842841e+001
4.824357e+002, 7.918565e+001
4.829178e+002, 8.030396e+001
4.834000e+002, 8.206795e+001
4.838821e+002, 8.485187e+001
4.843642e+002, 8.820390e+001
4.848463e+002, 9.152711e+001
4.853284e+002, 9.463773e+001
4.858105e+002, 9.784330e+001
4.862927e+002, 1.017776e+002
4.867748e+002, 1.062358e+002
4.872569e+002, 1.099578e+002
4.877390e+002, 1.127748e+002
4.882211e+002, 1.146219e+002
4.887032e+002, 1.151513e+002
4.891854e+002, 1.145452e+002
4.896675e+002, 1.133963e+002
4.901496e+002, 1.119977e+002
4.906317e+002, 1.099518e+002
4.911138e+002, 1.067645e+002
4.915959e+002, 1.026248e+002
4.920781e+002, 9.801862e+001
4.925602e+002, 9.301811e+001
4.930423e+002, 8.819142e+001
4.935244e+002, 8.484709e+001
4.940065e+002, 8.415405e+001
4.944886e+002, 8.274353e+001
4.949708e+002, 8.000142e+001
4.954529e+002, 7.689127e+001
4.959350e+002, 7.377287e+001
4.964171e+002, 7.089864e+001
4.968992e+002, 6.878984e+001
4.973813e+002, 6.794385e+001
4.978635e+002, 6.811029e+001
4.983456e+002, 6.765660e+001
4.988277e+002, 6.574821e+001
4.993098e+002, 6.447567e+001
4.997919e+002, 6.461085e+001
5.002740e+002, 6.515727e+001
5.007562e+002, 6.527895e+001
5.012383e+002, 6.481519e+001
5.017204e+002, 6.409254e+001
5.022025e+002, 6.323595e+001
5.026846e+002, 6.230206e+001
5.031667e+002, 6.200610e+001
5.036489e+002, 6.262336e+001
5.041310e+002, 6.338035e+001
5.046131e+002, 6.410295e+001
5.050952e+002, 6.463541e+001
5.055773e+002, 6.463496e+001
5.060594e+002, 6.381253e+001
5.065416e+002, 6.297971e+001
5.070237e+002, 6.301102e+001
5.075058e+002, 6.361174e+001
5.079879e+002, 6.363618e+001
5.084700e+002, 6.267634e+001
5.089521e+002, 6.163309e+001
5.094343e+002, 6.155073e+001
5.099164e+002, 6.243499e+001
5.103985e+002, 6.303755e+001
5.108806e+002, 6.319748e+001
5.113627e+002, 6.314754e+001
5.118448e+002, 6.271933e+001
5.123270e+002, 6.220107e+001
5.128091e+002, 6.228587e+001
5.132912e+002, 6.328972e+001
5.137733e+002, 6.474507e+001
5.142554e+002, 6.583147e+001
5.147375e+002, 6.657970e+001
5.152197e+002, 6.683207e+001
5.157018e+002, 6.596325e+001
5.161839e+002, 6.525397e+001
5.166660e+002, 6.556670e+001
5.171481e+002, 6.658989e+001
5.176302e+002, 6.748598e+001
5.181124e+002, 6.776305e+001
5.185945e+002, 6.757296e+001
5.190766e+002, 6.721910e+001
5.195587e+002, 6.655038e+001
5.200408e+002, 6.620643e+001
5.205229e+002, 6.662384e+001
5.210051e+002, 6.719679e+001
5.214872e+002, 6.758420e+001
5.219693e+002, 6.776657e+001
5.224514e+002, 6.782405e+001
5.229335e+002, 6.777248e+001
5.234156e+002, 6.763546e+001
5.238978e+002, 6.732045e+001
5.243799e+002, 6.679671e+001
5.248620e+002, 6.671492e+001
5.253441e+002, 6.754930e+001
5.258262e+002, 6.891656e+001
5.263083e+002, 7.004636e+001
5.267905e+002, 7.098961e+001
5.272726e+002, 7.158621e+001
5.277547e+002, 7.131272e+001
5.282368e+002, 7.094303e+001
5.287189e+002, 7.145628e+001
5.292010e+002, 7.285621e+001
5.296832e+002, 7.436966e+001
5.301653e+002, 7.545635e+001
5.306474e+002, 7.614149e+001
5.311295e+002, 7.664165e+001
5.316116e+002, 7.628288e+001
5.320938e+002, 7.659815e+001
5.325759e+002, 7.840753e+001
5.330580e+002, 8.050618e+001
5.335401e+002, 8.167170e+001
5.340222e+002, 8.182664e+001
5.345043e+002, 8.194810e+001
5.349865e+002, 8.303798e+001
5.354686e+002, 8.498907e+001
5.359507e+002, 8.654078e+001
5.364328e+002, 8.762776e+001
5.369149e+002, 8.843494e+001
5.373970e+002, 8.866511e+001
5.378792e+002, 8.885266e+001
5.383613e+002, 8.951820e+001
5.388434e+002, 9.076004e+001
5.393255e+002, 9.251067e+001
5.398076e+002, 9.516142e+001
5.402897e+002, 9.825188e+001
5.407719e+002, 1.004373e+002
5.412540e+002, 1.014437e+002
5.417361e+002, 1.023070e+002
5.422182e+002, 1.037981e+002
5.427003e+002, 1.057688e+002
5.431824e+002, 1.074511e+002
5.436646e+002, 1.084091e+002
5.441467e+002, 1.096460e+002
5.446288e+002, 1.119828e+002
5.451109e+002, 1.146007e+002
5.455930e+002, 1.161928e+002
5.460751e+002, 1.165741e+002
5.465573e+002, 1.168888e+002
5.470394e+002, 1.183748e+002
5.475215e+002, 1.210706e+002
5.480036e+002, 1.232947e+002
5.484857e+002, 1.241036e+002
5.489678e+002, 1.255530e+002
5.494500e+002, 1.285794e+002
5.499321e+002, 1.321467e+002
5.504142e+002, 1.350835e+002
5.508963e+002, 1.371069e+002
5.513784e+002, 1.388841e+002
5.518605e+002, 1.412450e+002
5.523427e+002, 1.441251e+002
5.528248e+002, 1.465697e+002
5.533069e+002, 1.485291e+002
5.537890e+002, 1.500901e+002
5.542711e+002, 1.508365e+002
5.547532e+002, 1.513351e+002
5.552354e+002, 1.524558e+002
5.557175e+002, 1.544892e+002
5.561996e+002, 1.567540e+002
5.566817e+002, 1.591447e+002
5.571638e+002, 1.613895e+002
5.576459e+002, 1.626274e+002
5.581281e+002, 1.626708e+002
5.586102e+002, 1.630111e+002
5.590923e+002, 1.648882e+002
5.595744e+002, 1.682769e+002
5.600565e+002, 1.724554e+002
5.605386e+002, 1.774470e+002
5.610208e+002, 1.830290e+002
5.615029e+002, 1.891630e+002
5.619850e+002, 1.958995e+002
5.624671e+002, 2.031020e+002
5.629492e+002, 2.108578e+002
5.634313e+002, 2.198140e+002
5.639135e+002, 2.309137e+002
5.643956e+002, 2.441429e+002
5.648777e+002, 2.566969e+002
5.653598e+002, 2.697581e+002
5.658419e+002, 2.801066e+002
5.663240e+002, 2.872743e+002
5.668062e+002, 2.913978e+002
5.672883e+002, 2.927980e+002
5.677704e+002, 2.915601e+002
5.682525e+002, 2.865064e+002
5.687346e+002, 2.756132e+002
5.692167e+002, 2.602362e+002
5.696989e+002, 2.437516e+002
5.701810e+002, 2.261911e+002
5.706631e+002, 2.089020e+002
5.711452e+002, 1.923930e+002
5.716273e+002, 1.769007e+002
5.721094e+002, 1.633963e+002
5.725916e+002, 1.522288e+002
5.730737e+002, 1.422422e+002
5.735558e+002, 1.331264e+002
5.740379e+002, 1.250182e+002
5.745200e+002, 1.183862e+002
5.750021e+002, 1.131388e+002
5.754843e+002, 1.085529e+002
5.759664e+002, 1.040607e+002
5.764485e+002, 9.976348e+001
5.769306e+002, 9.633936e+001
5.774127e+002, 9.442079e+001
5.778948e+002, 9.240117e+001
5.783770e+002, 8.960552e+001
5.788591e+002, 8.698882e+001
5.793412e+002, 8.530573e+001
5.798233e+002, 8.458266e+001
5.803054e+002, 8.429428e+001
5.807875e+002, 8.422007e+001
5.812697e+002, 8.425853e+001
5.817518e+002, 8.414595e+001
5.822339e+002, 8.386766e+001
5.827161e+002, 8.354070e+001
5.831982e+002, 8.305061e+001
5.836803e+002, 8.269237e+001
5.841624e+002, 8.292356e+001
5.846445e+002, 8.377278e+001
5.851266e+002, 8.478719e+001
5.856088e+002, 8.612580e+001
5.860909e+002, 8.736929e+001
5.865730e+002, 8.788652e+001
5.870551e+002, 8.793108e+001
5.875372e+002, 8.843639e+001
5.880193e+002, 8.989608e+001
5.885015e+002, 9.199529e+001
5.889836e+002, 9.404413e+001
5.894657e+002, 9.596526e+001
5.899478e+002, 9.801089e+001
5.904299e+002, 1.002218e+002
5.909120e+002, 1.025099e+002
5.913942e+002, 1.049501e+002
5.918763e+002, 1.074142e+002
5.923584e+002, 1.096611e+002
5.928405e+002, 1.115804e+002
5.933226e+002, 1.132282e+002
5.938047e+002, 1.148095e+002
5.942869e+002, 1.163182e+002
5.947690e+002, 1.170373e+002
5.952511e+002, 1.165071e+002
5.957332e+002, 1.157545e+002
5.962153e+002, 1.156673e+002
5.966974e+002, 1.160945e+002
5.971796e+002, 1.165813e+002
5.976617e+002, 1.169860e+002
5.981438e+002, 1.175178e+002
5.986259e+002, 1.188860e+002
5.991080e+002, 1.202971e+002
5.995901e+002, 1.199939e+002
6.000723e+002, 1.176389e+002
6.005544e+002, 1.150419e+002
6.010365e+002, 1.141566e+002
6.015186e+002, 1.150248e+002
6.020007e+002, 1.157686e+002
6.024828e+002, 1.164602e+002
6.029650e+002, 1.169288e+002
6.034471e+002, 1.175944e+002
6.039292e+002, 1.177652e+002
6.044113e+002, 1.164920e+002
6.048934e+002, 1.137446e+002
6.053755e+002, 1.107507e+002
6.058577e+002, 1.085536e+002
6.063398e+002, 1.069770e+002
6.068219e+002, 1.053446e+002
6.073040e+002, 1.036204e+002
6.077861e+002, 1.020511e+002
6.082682e+002, 1.008606e+002
6.087504e+002, 9.979808e+001
6.092325e+002, 9.847693e+001
6.097146e+002, 9.692228e+001
6.101967e+002, 9.502626e+001
6.106788e+002, 9.230276e+001
6.111609e+002, 8.955861e+001
6.116431e+002, 8.780623e+001
6.121252e+002, 8.673286e+001
6.126073e+002, 8.509781e+001
6.130894e+002, 8.221584e+001
6.135715e+002, 7.870406e+001
6.140536e+002, 7.587505e+001
6.145358e+002, 7.385378e+001
6.150179e+002, 7.225008e+001
6.155000e+002, 7.155898e+001
6.159821e+002, 7.078672e+001
6.164642e+002, 6.929926e+001
6.169464e+002, 6.746281e+001
6.174285e+002, 6.599593e+001
6.179106e+002, 6.518913e+001
6.183927e+002, 6.476590e+001
6.188748e+002, 6.445322e+001
6.193569e+002, 6.425512e+001
6.198391e+002, 6.422396e+001
6.203212e+002, 6.440861e+001
6.208033e+002, 6.458617e+001
6.212854e+002, 6.453497e+001
6.217675e+002, 6.431560e+001
6.222496e+002, 6.428786e+001
6.227318e+002, 6.439935e+001
6.232139e+002, 6.476025e+001
6.236960e+002, 6.534042e+001
6.241781e+002, 6.621971e+001
6.246602e+002, 6.763674e+001
6.251423e+002, 6.950671e+001
6.256245e+002, 7.130001e+001
6.261066e+002, 7.252717e+001
6.265887e+002, 7.341478e+001
6.270708e+002, 7.513649e+001
6.275529e+002, 7.823970e+001
6.280350e+002, 8.082527e+001
6.285172e+002, 8.214461e+001
6.289993e+002, 8.311163e+001
6.294814e+002, 8.441701e+001
6.299635e+002, 8.595271e+001
6.304456e+002, 8.701726e+001
6.309277e+002, 8.726555e+001
6.314099e+002, 8.692884e+001
6.318920e+002, 8.620120e+001
6.323741e+002, 8.510121e+001
6.328562e+002, 8.372588e+001
6.333383e+002, 8.211993e+001
6.338204e+002, 8.013454e+001
6.343026e+002, 7.749217e+001
6.347847e+002, 7.407099e+001
6.352668e+002, 7.111628e+001
6.357489e+002, 6.900954e+001
6.362310e+002, 6.682847e+001
6.367131e+002, 6.413561e+001
6.371953e+002, 6.132806e+001
6.376774e+002, 5.887124e+001
6.381595e+002, 5.687316e+001
6.386416e+002, 5.516221e+001
6.391237e+002, 5.364394e+001
6.396058e+002, 5.228407e+001
6.400880e+002, 5.078159e+001
6.405701e+002, 4.899360e+001
6.410522e+002, 4.768175e+001
6.415343e+002, 4.744356e+001
6.420164e+002, 4.760412e+001
6.424985e+002, 4.723836e+001
6.429807e+002, 4.631486e+001
6.434628e+002, 4.536080e+001
6.439449e+002, 4.444968e+001
6.444270e+002, 4.362297e+001
6.449091e+002, 4.292213e+001
6.453912e+002, 4.232861e+001
6.458734e+002, 4.174804e+001
6.463555e+002, 4.114520e+001
6.468376e+002, 4.069271e+001
6.473197e+002, 4.075014e+001
6.478018e+002, 4.150404e+001
6.482839e+002, 4.169952e+001
6.487661e+002, 4.089762e+001
6.492482e+002, 4.005492e+001
6.497303e+002, 3.924247e+001
6.502124e+002, 3.865297e+001
6.506945e+002, 3.868165e+001
6.511766e+002, 3.942841e+001
6.516588e+002, 3.999173e+001
6.521409e+002, 3.936296e+001
6.526230e+002, 3.816582e+001
6.531051e+002, 3.778667e+001
6.535872e+002, 3.828112e+001
6.540693e+002, 3.874711e+001
6.545515e+002, 3.875423e+001
6.550336e+002, 3.839073e+001
6.555157e+002, 3.780419e+001
6.559978e+002, 3.678683e+001
6.564799e+002, 3.604732e+001
6.569620e+002, 3.576312e+001
6.574442e+002, 3.559093e+001
6.579263e+002, 3.534290e+001
6.584084e+002, 3.507719e+001
6.588905e+002, 3.495565e+001
6.593726e+002, 3.504371e+001
6.598547e+002, 3.514956e+001
6.603369e+002, 3.489417e+001
6.608190e+002, 3.432963e+001
6.613011e+002, 3.432905e+001
6.617832e+002, 3.518978e+001
6.622653e+002, 3.589772e+001
6.627474e+002, 3.573728e+001
6.632296e+002, 3.512109e+001
6.637117e+002, 3.490948e+001
6.641938e+002, 3.527487e+001
6.646759e+002, 3.551130e+001
6.651580e+002, 3.520627e+001
6.656401e+002, 3.482492e+001
6.661223e+002, 3.494090e+001
6.666044e+002, 3.538505e+001
6.670865e+002, 3.549216e+001
6.675686e+002, 3.490765e+001
6.680507e+002, 3.399173e+001
6.685328e+002, 3.339904e+001
6.690150e+002, 3.315611e+001
6.694971e+002, 3.314282e+001
6.699792e+002, 3.364081e+001
6.704613e+002, 3.400447e+001
6.709434e+002, 3.387656e+001
6.714255e+002, 3.347969e+001
6.719077e+002, 3.311783e+001
6.723898e+002, 3.283393e+001
6.728719e+002, 3.269503e+001
6.733540e+002, 3.285879e+001
6.738361e+002, 3.314120e+001
6.743182e+002, 3.320074e+001
6.748004e+002, 3.305030e+001
6.752825e+002, 3.304198e+001
6.757646e+002, 3.340830e+001
6.762467e+002, 3.393611e+001
6.767288e+002, 3.410253e+001
6.772109e+002, 3.355563e+001
6.776931e+002, 3.347980e+001
6.781752e+002, 3.455374e+001
6.786573e+002, 3.534611e+001
6.791394e+002, 3.501860e+001
6.796215e+002, 3.406404e+001
6.801036e+002, 3.329101e+001
6.805858e+002, 3.297120e+001
6.810679e+002, 3.285661e+001
6.815500e+002, 3.265305e+001
6.820321e+002, 3.247345e+001
6.825142e+002, 3.275179e+001
6.829963e+002, 3.354756e+001
6.834785e+002, 3.423692e+001
6.839606e+002, 3.447181e+001
6.844427e+002, 3.438906e+001
6.849248e+002, 3.431374e+001
6.854069e+002, 3.433962e+001
6.858890e+002, 3.414035e+001
6.863712e+002, 3.326182e+001
6.868533e+002, 3.260192e+001
6.873354e+002, 3.305017e+001
6.878175e+002, 3.395763e+001
6.882996e+002, 3.401880e+001
6.887817e+002, 3.275504e+001
6.892639e+002, 3.121425e+001
6.897460e+002, 3.062195e+001
6.902281e+002, 3.087909e+001
6.907102e+002, 3.146739e+001
6.911923e+002, 3.249824e+001
6.916744e+002, 3.323452e+001
6.921566e+002, 3.321866e+001
6.926387e+002, 3.274205e+001
6.931208e+002, 3.235534e+001
6.936029e+002, 3.206723e+001
6.940850e+002, 3.180489e+001
6.945671e+002, 3.153966e+001
6.950493e+002, 3.131234e+001
6.955314e+002, 3.111347e+001
6.960135e+002, 3.098056e+001
6.964956e+002, 3.101653e+001
6.969777e+002, 3.124799e+001
6.974598e+002, 3.151249e+001
6.979420e+002, 3.164547e+001
6.984241e+002, 3.164250e+001
6.989062e+002, 3.128631e+001
6.993883e+002, 3.030453e+001
6.998704e+002, 2.975847e+001
7.003525e+002, 3.052657e+001
7.008347e+002, 3.167876e+001
7.013168e+002, 3.188354e+001
7.017989e+002, 3.104543e+001
7.022810e+002, 3.034695e+001
7.027631e+002, 3.020250e+001
7.032452e+002, 3.021225e+001
7.037274e+002, 3.013512e+001
7.042095e+002, 2.998831e+001
7.046916e+002, 2.982632e+001
7.051737e+002, 2.967037e+001
7.056558e+002, 2.952673e+001
7.061379e+002, 2.938961e+001
7.066201e+002, 2.926473e+001
7.071022e+002, 2.928206e+001
7.075843e+002, 2.953048e+001
7.080664e+002, 2.971189e+001
7.085485e+002, 2.973240e+001
7.090306e+002, 2.964186e+001
7.095128e+002, 2.943569e+001
7.099949e+002, 2.912893e+001
7.104770e+002, 2.890921e+001
7.109591e+002, 2.884465e+001
7.114412e+002, 2.887951e+001
7.119233e+002, 2.904590e+001
7.124055e+002, 2.926421e+001
7.128876e+002, 2.932357e+001
7.133697e+002, 2.919775e+001
7.138518e+002, 2.917136e+001
7.143339e+002, 2.955097e+001
7.148160e+002, 3.026613e+001
7.152982e+002, 3.081067e+001
7.157803e+002, 3.121196e+001
7.162624e+002, 3.137736e+001
7.167445e+002, 3.118102e+001
7.172266e+002, 3.082611e+001
7.177087e+002, 3.029756e+001
7.181909e+002, 2.969948e+001
7.186730e+002, 2.944025e+001
7.191551e+002, 2.989756e+001
7.196372e+002, 3.039074e+001
7.201193e+002, 3.038426e+001
7.206014e+002, 3.012852e+001
7.210836e+002, 3.009621e+001
7.215657e+002, 3.033127e+001
7.220478e+002, 3.050935e+001
7.225299e+002, 3.039853e+001
7.230120e+002, 3.001555e+001
7.234941e+002, 2.932209e+001
7.239763e+002, 2.793901e+001
7.244584e+002, 2.730662e+001
7.249405e+002, 2.804713e+001
7.254226e+002, 2.907197e+001
7.259047e+002, 3.006267e+001
7.263868e+002, 3.086030e+001
7.268690e+002, 3.112063e+001
7.273511e+002, 3.061363e+001
7.278332e+002, 2.999227e+001
7.283153e+002, 2.941304e+001
7.287974e+002, 2.907690e+001
7.292795e+002, 2.949083e+001
7.297617e+002, 3.050249e+001
7.302438e+002, 3.121277e+001
7.307259e+002, 3.111473e+001
7.312080e+002, 3.058332e+001
7.316901e+002, 3.039285e+001
7.321722e+002, 3.066275e+001
7.326544e+002, 3.075341e+001
7.331365e+002, 3.035840e+001
7.336186e+002, 3.021515e+001
7.341007e+002, 3.098066e+001
7.345828e+002, 3.197669e+001
7.350649e+002, 3.225778e+001
7.355471e+002, 3.164210e+001
7.360292e+002, 3.107264e+001
7.365113e+002, 3.094258e+001
7.369934e+002, 3.109882e+001
7.374755e+002, 3.157261e+001
7.379576e+002, 3.219894e+001
7.384398e+002, 3.252384e+001
7.389219e+002, 3.239315e+001
7.394040e+002, 3.208933e+001
7.398861e+002, 3.194242e+001
7.403682e+002, 3.195093e+001
7.408503e+002, 3.207371e+001
7.413325e+002, 3.240543e+001
7.418146e+002, 3.264939e+001
7.422967e+002, 3.254667e+001
7.427788e+002, 3.245707e+001
7.432609e+002, 3.284606e+001
7.437430e+002, 3.362026e+001
7.442252e+002, 3.397335e+001
7.447073e+002, 3.314764e+001
7.451894e+002, 3.237199e+001
7.456715e+002, 3.255623e+001
7.461536e+002, 3.326295e+001
7.466357e+002, 3.386840e+001
7.471179e+002, 3.423608e+001
7.476000e+002, 3.442325e+001
7.480821e+002, 3.445547e+001
7.485642e+002, 3.439159e+001
7.490463e+002, 3.446449e+001
7.495284e+002, 3.475650e+001
7.500106e+002, 3.477974e+001
7.504927e+002, 3.418772e+001
7.509748e+002, 3.370477e+001
7.514569e+002, 3.402559e+001
7.519390e+002, 3.478426e+001
7.524211e+002, 3.517985e+001
7.529033e+002, 3.497417e+001
7.533854e+002, 3.476755e+001
7.538675e+002, 3.495565e+001
7.543496e+002, 3.510278e+001
7.548317e+002, 3.461135e+001
7.553138e+002, 3.371828e+001
7.557960e+002, 3.314024e+001
7.562781e+002, 3.320556e+001
7.567602e+002, 3.365921e+001
7.572423e+002, 3.431334e+001
7.577244e+002, 3.514246e+001
7.582065e+002, 3.521384e+001
7.586887e+002, 3.416647e+001
7.591708e+002, 3.359302e+001
7.596529e+002, 3.452319e+001
7.601350e+002, 3.598628e+001
7.606171e+002, 3.647501e+001
7.610992e+002, 3.593658e+001
7.615814e+002, 3.549670e+001
7.620635e+002, 3.564305e+001
7.625456e+002, 3.552156e+001
7.630277e+002, 3.429369e+001
7.635098e+002, 3.279736e+001
7.639919e+002, 3.225120e+001
7.644741e+002, 3.274189e+001
7.649562e+002, 3.325604e+001
7.654383e+002, 3.290713e+001
7.659204e+002, 3.218060e+001
7.664025e+002, 3.239540e+001
7.668846e+002, 3.349764e+001
7.673668e+002, 3.376230e+001
7.678489e+002, 3.260529e+001
7.683310e+002, 3.134266e+001
7.688131e+002, 3.106831e+001
7.692952e+002, 3.162046e+001
7.697773e+002, 3.207141e+001
7.702595e+002, 3.254859e+001
7.707416e+002, 3.274564e+001
7.712237e+002, 3.243375e+001
7.717058e+002, 3.203140e+001
7.721879e+002, 3.178405e+001
7.726700e+002, 3.165747e+001
7.731522e+002, 3.150892e+001
7.736343e+002, 3.127750e+001
7.741164e+002, 3.113098e+001
7.745985e+002, 3.133965e+001
7.750806e+002, 3.171986e+001
7.755627e+002, 3.180042e+001
7.760449e+002, 3.158702e+001
7.765270e+002, 3.145121e+001
7.770091e+002, 3.155147e+001
7.774912e+002, 3.182903e+001
7.779733e+002, 3.223870e+001
7.784554e+002, 3.283935e+001
7.789376e+002, 3.310608e+001
7.794197e+002, 3.283680e+001
7.799019e+002, 3.250105e+001
7.803840e+002, 3.206869e+001
7.808661e+002, 3.170625e+001
7.813482e+002, 3.167544e+001
7.818303e+002, 3.190136e+001
7.823124e+002, 3.189059e+001
7.827946e+002, 3.110323e+001
7.832767e+002, 3.041481e+001
7.837588e+002, 3.068528e+001
7.842409e+002, 3.149670e+001
7.847230e+002, 3.219213e+001
7.852051e+002, 3.263358e+001
7.856873e+002, 3.283747e+001
7.861694e+002, 3.280991e+001
7.866515e+002, 3.256356e+001
7.871336e+002, 3.198315e+001
7.876157e+002, 3.087099e+001
7.880978e+002, 3.060269e+001
7.885800e+002, 3.175609e+001
7.890621e+002, 3.293208e+001
7.895442e+002, 3.340450e+001
7.900263e+002, 3.341636e+001
7.905084e+002, 3.327909e+001
7.909905e+002, 3.292719e+001
7.914727e+002, 3.283156e+001
7.919548e+002, 3.341861e+001
7.924369e+002, 3.398487e+001
7.929190e+002, 3.411697e+001
7.934011e+002, 3.391061e+001
7.938832e+002, 3.341412e+001
7.943654e+002, 3.272363e+001
7.948475e+002, 3.228907e+001
7.953296e+002, 3.260869e+001
7.958117e+002, 3.339766e+001
7.962938e+002, 3.382007e+001
7.967759e+002, 3.388795e+001
7.972581e+002, 3.437275e+001
7.977402e+002, 3.559429e+001
7.982223e+002, 3.670232e+001
7.987044e+002, 3.690516e+001
7.991865e+002, 3.635558e+001
7.996686e+002, 3.596600e+001
8.001508e+002, 3.568880e+001
8.006329e+002, 3.565029e+001
8.011150e+002, 3.622794e+001
8.015971e+002, 3.667437e+001
8.020792e+002, 3.642162e+001
8.025613e+002, 3.577631e+001
8.030435e+002, 3.532175e+001
8.035256e+002, 3.523640e+001
8.040077e+002, 3.527606e+001
8.044898e+002, 3.537675e+001
8.049719e+002, 3.542719e+001
8.054540e+002, 3.508688e+001
8.059362e+002, 3.451711e+001
8.064183e+002, 3.449718e+001
8.069004e+002, 3.530018e+001
8.073825e+002, 3.615581e+001
8.078646e+002, 3.611983e+001
8.083467e+002, 3.528072e+001
8.088289e+002, 3.479338e+001
8.093110e+002, 3.481522e+001
8.097931e+002, 3.475871e+001
8.102752e+002, 3.443836e+001
8.107573e+002, 3.406998e+001
8.112394e+002, 3.375341e+001
8.117216e+002, 3.352407e+001
8.122037e+002, 3.352678e+001
8.126858e+002, 3.393018e+001
8.131679e+002, 3.429129e+001
8.136500e+002, 3.448890e+001
8.141321e+002, 3.456046e+001
8.146143e+002, 3.458733e+001
8.150964e+002, 3.450752e+001
8.155785e+002, 3.408666e+001
8.160606e+002, 3.323771e+001
8.165427e+002, 3.240697e+001
8.170248e+002, 3.212640e+001
8.175070e+002, 3.228217e+001
8.179891e+002, 3.260120e+001
8.184712e+002, 3.307581e+001
8.189533e+002, 3.312566e+001
8.194354e+002, 3.246004e+001
8.199175e+002, 3.162777e+001
8.203997e+002, 3.127101e+001
8.208818e+002, 3.138097e+001
8.213639e+002, 3.142524e+001
8.218460e+002, 3.135853e+001
8.223281e+002, 3.129234e+001
8.228102e+002, 3.117388e+001
8.232924e+002, 3.111861e+001
8.237745e+002, 3.126684e+001
8.242566e+002, 3.153351e+001
8.247387e+002, 3.170425e+001
8.252208e+002, 3.171592e+001
8.257029e+002, 3.163517e+001
8.261851e+002, 3.146646e+001
8.266672e+002, 3.125312e+001
8.271493e+002, 3.102562e+001
8.276314e+002, 3.079838e+001
8.281135e+002, 3.059567e+001
8.285956e+002, 3.042710e+001
8.290778e+002, 3.029819e+001
8.295599e+002, 3.017675e+001
8.300420e+002, 3.009752e+001
8.305241e+002, 3.038879e+001
8.310062e+002, 3.114218e+001
8.314883e+002, 3.165168e+001
8.319705e+002, 3.171729e+001
8.324526e+002, 3.147810e+001
8.329347e+002, 3.089317e+001
8.334168e+002, 3.005003e+001
8.338989e+002, 2.980371e+001
8.343810e+002, 3.075366e+001
8.348632e+002, 3.137103e+001
8.353453e+002, 3.121219e+001
8.358274e+002, 3.098116e+001
8.363095e+002, 3.115474e+001
8.367916e+002, 3.157520e+001
8.372737e+002, 3.191600e+001
8.377559e+002, 3.208644e+001
8.382380e+002, 3.207821e+001
8.387201e+002, 3.173237e+001
8.392022e+002, 3.130590e+001
8.396843e+002, 3.115434e+001
8.401664e+002, 3.123198e+001
8.406486e+002, 3.140131e+001
8.411307e+002, 3.160775e+001
8.416128e+002, 3.169212e+001
8.420949e+002, 3.145534e+001
8.425770e+002, 3.100485e+001
8.430591e+002, 3.078333e+001
8.435413e+002, 3.074026e+001
8.440234e+002, 3.130723e+001
8.445055e+002, 3.308161e+001
8.449876e+002, 3.447202e+001
8.454697e+002, 3.411402e+001
8.459518e+002, 3.261845e+001
8.464340e+002, 3.173978e+001
8.469161e+002, 3.155688e+001
8.473982e+002, 3.174368e+001
8.478803e+002, 3.252550e+001
8.483624e+002, 3.338695e+001
8.488445e+002, 3.419456e+001
8.493267e+002, 3.485975e+001
8.498088e+002, 3.512302e+001
8.502909e+002, 3.503518e+001
8.507730e+002, 3.528282e+001
8.512551e+002, 3.659484e+001
8.517372e+002, 3.818044e+001
8.522194e+002, 3.919916e+001
8.527015e+002, 3.972587e+001
8.531836e+002, 3.978817e+001
8.536657e+002, 3.946339e+001
8.541478e+002, 3.925986e+001
8.546299e+002, 3.951477e+001
8.551121e+002, 4.012933e+001
8.555942e+002, 4.098119e+001
8.560763e+002, 4.213490e+001
8.565584e+002, 4.286206e+001
8.570405e+002, 4.283591e+001
8.575226e+002, 4.319782e+001
8.580048e+002, 4.463414e+001
8.584869e+002, 4.655774e+001
8.589690e+002, 4.817956e+001
8.594511e+002, 4.949313e+001
8.599332e+002, 5.067145e+001
8.604153e+002, 5.128176e+001
8.608975e+002, 5.233610e+001
8.613796e+002, 5.449923e+001
8.618617e+002, 5.691676e+001
8.623438e+002, 5.864263e+001
8.628259e+002, 5.994794e+001
8.633080e+002, 6.182427e+001
8.637902e+002, 6.467890e+001
8.642723e+002, 6.819609e+001
8.647544e+002, 7.259229e+001
8.652365e+002, 7.724311e+001
8.657186e+002, 8.081422e+001
8.662007e+002, 8.366443e+001
8.666829e+002, 8.738710e+001
8.671650e+002, 9.255817e+001
8.676471e+002, 9.845300e+001
8.681292e+002, 1.041681e+002
8.686113e+002, 1.098020e+002
8.690934e+002, 1.160824e+002
8.695756e+002, 1.231455e+002
8.700577e+002, 1.296710e+002
8.705398e+002, 1.349788e+002
8.710219e+002, 1.406702e+002
8.715040e+002, 1.486393e+002
8.719861e+002, 1.578213e+002
8.724683e+002, 1.644108e+002
8.729504e+002, 1.674606e+002
8.734325e+002, 1.695591e+002
8.739146e+002, 1.714091e+002
8.743967e+002, 1.715111e+002
8.748788e+002, 1.683375e+002
8.753610e+002, 1.635236e+002
8.758431e+002, 1.592680e+002
8.763252e+002, 1.557892e+002
8.768073e+002, 1.515071e+002
8.772894e+002, 1.453326e+002
8.777715e+002, 1.383960e+002
8.782537e+002, 1.311453e+002
8.787358e+002, 1.239321e+002
8.792179e+002, 1.173577e+002
8.797000e+002, 1.113788e+002
8.801821e+002, 1.055459e+002
8.806642e+002, 9.959718e+001
8.811464e+002, 9.367064e+001
8.816285e+002, 8.772884e+001
8.821106e+002, 8.194802e+001
8.825927e+002, 7.743385e+001
8.830748e+002, 7.429057e+001
8.835569e+002, 7.130818e+001
8.840391e+002, 6.803793e+001
8.845212e+002, 6.472941e+001
8.850033e+002, 6.161271e+001
8.854854e+002, 5.870521e+001
8.859675e+002, 5.600835e+001
8.864496e+002, 5.353602e+001
8.869318e+002, 5.126617e+001
8.874139e+002, 4.897869e+001
8.878960e+002, 4.713590e+001
8.883781e+002, 4.608348e+001
8.888602e+002, 4.561681e+001
8.893423e+002, 4.548953e+001
8.898245e+002, 4.592376e+001
8.903066e+002, 4.558279e+001
8.907887e+002, 4.333595e+001
8.912708e+002, 4.103341e+001
8.917529e+002, 3.987405e+001
8.922350e+002, 3.927562e+001
8.927172e+002, 3.828883e+001
8.931993e+002, 3.688873e+001
8.936814e+002, 3.589665e+001
8.941635e+002, 3.591466e+001
8.946456e+002, 3.634156e+001
8.951277e+002, 3.663694e+001
8.956099e+002, 3.674119e+001
8.960920e+002, 3.648301e+001
8.965741e+002, 3.587255e+001
8.970562e+002, 3.498362e+001
8.975383e+002, 3.383080e+001
8.980204e+002, 3.284808e+001
8.985026e+002, 3.277197e+001
8.989847e+002, 3.351017e+001
8.994668e+002, 3.377746e+001
8.999489e+002, 3.342916e+001
9.004310e+002, 3.352257e+001
9.009131e+002, 3.461034e+001
9.013953e+002, 3.554807e+001
9.018774e+002, 3.524322e+001
9.023595e+002, 3.399000e+001
9.028416e+002, 3.314081e+001
9.033237e+002, 3.295073e+001
9.038058e+002, 3.270243e+001
9.042880e+002, 3.215207e+001
9.047701e+002, 3.182745e+001
9.052522e+002, 3.234509e+001
9.057343e+002, 3.297358e+001
9.062164e+002, 3.257883e+001
9.066985e+002, 3.114278e+001
9.071807e+002, 3.022524e+001
9.076628e+002, 3.084249e+001
9.081449e+002, 3.157406e+001
9.086270e+002, 3.181203e+001
9.091091e+002, 3.162735e+001
9.095912e+002, 3.073425e+001
9.100734e+002, 2.950540e+001
9.105555e+002, 2.897538e+001
9.110376e+002, 2.961508e+001
9.115197e+002, 3.070955e+001
9.120018e+002, 3.176980e+001
9.124839e+002, 3.262751e+001
9.129661e+002, 3.293235e+001
9.134482e+002, 3.270266e+001
9.139303e+002, 3.188576e+001
9.144124e+002, 3.049516e+001
9.148945e+002, 2.936198e+001
9.153766e+002, 2.924926e+001
9.158588e+002, 2.988239e+001
9.163409e+002, 3.042002e+001
9.168230e+002, 3.084801e+001
9.173051e+002, 3.134318e+001
9.177872e+002, 3.197683e+001
9.182693e+002, 3.250183e+001
9.187515e+002, 3.286411e+001
9.192336e+002, 3.295522e+001
9.197157e+002, 3.251073e+001
9.201978e+002, 3.143367e+001
9.206799e+002, 3.076802e+001
9.211620e+002, 3.050000e+001
9.216442e+002, 3.067695e+001
9.221263e+002, 3.200513e+001
9.226084e+002, 3.312834e+001
9.230905e+002, 3.276023e+001
9.235726e+002, 3.155077e+001
9.240547e+002, 3.112815e+001
9.245369e+002, 3.198411e+001
9.250190e+002, 3.281446e+001
9.255011e+002, 3.337411e+001
9.259832e+002, 3.353129e+001
9.264653e+002, 3.292421e+001
9.269474e+002, 3.200611e+001
9.274296e+002, 3.122405e+001
9.279117e+002, 3.077069e+001
9.283938e+002, 3.102305e+001
9.288759e+002, 3.251778e+001
9.293580e+002, 3.404565e+001
9.298401e+002, 3.409130e+001
9.303223e+002, 3.329100e+001
9.308044e+002, 3.273503e+001
9.312865e+002, 3.251595e+001
9.317686e+002, 3.245507e+001
9.322507e+002, 3.248409e+001
9.327328e+002, 3.274626e+001
9.332150e+002, 3.351893e+001
9.336971e+002, 3.458715e+001
9.341792e+002, 3.512550e+001
9.346613e+002, 3.513247e+001
9.351434e+002, 3.477885e+001
9.356255e+002, 3.400749e+001
9.361077e+002, 3.349269e+001
9.365898e+002, 3.370127e+001
9.370719e+002, 3.441747e+001
9.375540e+002, 3.523695e+001
9.380361e+002, 3.627913e+001
9.385182e+002, 3.670291e+001
9.390004e+002, 3.607286e+001
9.394825e+002, 3.567532e+001
9.399646e+002, 3.598396e+001
9.404467e+002, 3.654749e+001
9.409288e+002, 3.715358e+001
9.414109e+002, 3.770061e+001
9.418931e+002, 3.765656e+001
9.423752e+002, 3.628058e+001
9.428573e+002, 3.565026e+001
9.433394e+002, 3.638116e+001
9.438215e+002, 3.749975e+001
9.443036e+002, 3.884931e+001
9.447858e+002, 4.010270e+001
9.452679e+002, 4.075874e+001
9.457500e+002, 4.083130e+001
9.462321e+002, 4.106559e+001
9.467142e+002, 4.201769e+001
9.471964e+002, 4.290539e+001
9.476785e+002, 4.307344e+001
9.481606e+002, 4.306575e+001
9.486427e+002, 4.353281e+001
9.491248e+002, 4.436398e+001
9.496069e+002, 4.515871e+001
9.500891e+002, 4.575828e+001
9.505712e+002, 4.613135e+001
9.510533e+002, 4.587701e+001
9.515354e+002, 4.561378e+001
9.520175e+002, 4.667536e+001
9.524996e+002, 4.854907e+001
9.529818e+002, 4.967576e+001
9.534639e+002, 4.986050e+001
9.539460e+002, 4.997980e+001
9.544281e+002, 5.057403e+001
9.549102e+002, 5.148797e+001
9.553923e+002, 5.254767e+001
9.558745e+002, 5.371979e+001
9.563566e+002, 5.452327e+001
9.568387e+002, 5.492426e+001
9.573208e+002, 5.565760e+001
9.578029e+002, 5.696270e+001
9.582850e+002, 5.859359e+001
9.587672e+002, 6.037839e+001
9.592493e+002, 6.225406e+001
9.597314e+002, 6.396096e+001
9.602135e+002, 6.543847e+001
9.606956e+002, 6.696165e+001
9.611777e+002, 6.842947e+001
9.616599e+002, 7.016120e+001
9.621420e+002, 7.230156e+001
9.626241e+002, 7.474299e+001
9.631062e+002, 7.734728e+001
9.635883e+002, 8.010958e+001
9.640704e+002, 8.324001e+001
9.645526e+002, 8.687044e+001
9.650347e+002, 9.065204e+001
9.655168e+002, 9.453976e+001
9.659989e+002, 9.858645e+001
9.664810e+002, 1.026037e+002
9.669631e+002, 1.068920e+002
9.674453e+002, 1.118236e+002
9.679274e+002, 1.174622e+002
9.684095e+002, 1.241001e+002
9.688916e+002, 1.326085e+002
9.693737e+002, 1.411837e+002
9.698558e+002, 1.489987e+002
9.703380e+002, 1.565978e+002
9.708201e+002, 1.643716e+002
9.713022e+002, 1.723765e+002
9.717843e+002, 1.806680e+002
9.722664e+002, 1.892377e+002
9.727485e+002, 1.979455e+002
9.732307e+002, 2.070146e+002
9.737128e+002, 2.158351e+002
9.741949e+002, 2.234696e+002
9.746770e+002, 2.305672e+002
9.751591e+002, 2.383362e+002
9.756412e+002, 2.468435e+002
9.761234e+002, 2.550033e+002
9.766055e+002, 2.620395e+002
9.770876e+002, 2.702105e+002
9.775698e+002, 2.824688e+002
9.780519e+002, 2.977687e+002
9.785340e+002, 3.130480e+002
9.790161e+002, 3.291319e+002
9.794982e+002, 3.499095e+002
9.799803e+002, 3.763758e+002
9.804625e+002, 4.067209e+002
9.809446e+002, 4.395883e+002
9.814267e+002, 4.752990e+002
9.819088e+002, 5.149285e+002
9.823909e+002, 5.582162e+002
9.828730e+002, 6.040480e+002
9.833552e+002, 6.523193e+002
9.838373e+002, 7.018875e+002
9.843194e+002, 7.531976e+002
9.848015e+002, 8.003890e+002
9.852836e+002, 8.385076e+002
9.857657e+002, 8.664808e+002
9.862479e+002, 8.791079e+002
9.867300e+002, 8.756428e+002
9.872121e+002, 8.603409e+002
9.876942e+002, 8.323177e+002
9.881763e+002, 7.951720e+002
9.886584e+002, 7.483969e+002
9.891406e+002, 6.966898e+002
9.896227e+002, 6.461331e+002
9.901048e+002, 5.963928e+002
9.905869e+002, 5.492316e+002
9.910690e+002, 5.046939e+002
9.915511e+002, 4.627423e+002
9.920333e+002, 4.222985e+002
9.925154e+002, 3.852553e+002
9.929975e+002, 3.529525e+002
9.934796e+002, 3.244453e+002
9.939617e+002, 2.983089e+002
9.944438e+002, 2.743685e+002
9.949260e+002, 2.535557e+002
9.954081e+002, 2.375045e+002
9.958902e+002, 2.223898e+002
9.963723e+002, 2.073947e+002
9.968544e+002, 1.931129e+002
9.973365e+002, 1.797355e+002
9.978187e+002, 1.674266e+002
9.983008e+002, 1.565247e+002
9.987829e+002, 1.470650e+002
9.992650e+002, 1.388483e+002
9.997471e+002, 1.325040e+002
1.000229e+003, 1.265411e+002
1.000711e+003, 1.202591e+002
1.001193e+003, 1.140101e+002
1.001676e+003, 1.079381e+002
1.002158e+003, 1.022030e+002
1.002640e+003, 9.715724e+001
1.003122e+003, 9.293520e+001
1.003604e+003, 8.905967e+001
1.004086e+003, 8.547182e+001
1.004568e+003, 8.187985e+001
1.005050e+003, 7.751402e+001
1.005533e+003, 7.330997e+001
1.006015e+003, 7.089723e+001
1.006497e+003, 6.995042e+001
1.006979e+003, 6.860610e+001
1.007461e+003, 6.597530e+001
1.007943e+003, 6.346726e+001
1.008425e+003, 6.259572e+001
1.008907e+003, 6.234955e+001
1.009389e+003, 6.150296e+001
1.009872e+003, 6.023869e+001
1.010354e+003, 5.887318e+001
1.010836e+003, 5.758335e+001
1.011318e+003, 5.681016e+001
1.011800e+003, 5.685603e+001
1.012282e+003, 5.713330e+001
1.012764e+003, 5.700386e+001
1.013246e+003, 5.652859e+001
1.013729e+003, 5.568019e+001
1.014211e+003, 5.460157e+001
1.014693e+003, 5.376441e+001
1.015175e+003, 5.328971e+001
1.015657e+003, 5.319555e+001
1.016139e+003, 5.354682e+001
1.016621e+003, 5.396937e+001
1.017103e+003, 5.351118e+001
1.017585e+003, 5.254767e+001
1.018068e+003, 5.315110e+001
1.018550e+003, 5.515272e+001
1.019032e+003, 5.616227e+001
1.019514e+003, 5.550201e+001
1.019996e+003, 5.445481e+001
1.020478e+003, 5.400285e+001
1.020960e+003, 5.405831e+001
1.021442e+003, 5.449870e+001
1.021924e+003, 5.530878e+001
1.022407e+003, 5.623312e+001
1.022889e+003, 5.729227e+001
1.023371e+003, 5.774951e+001
1.023853e+003, 5.723965e+001
1.024335e+003, 5.698792e+001
1.024817e+003, 5.815876e+001
1.025299e+003, 6.029615e+001
1.025781e+003, 6.192815e+001
1.026264e+003, 6.294708e+001
1.026746e+003, 6.447726e+001
1.027228e+003, 6.667452e+001
1.027710e+003, 6.864966e+001
1.028192e+003, 6.980477e+001
1.028674e+003, 7.152254e+001
1.029156e+003, 7.531461e+001
1.029638e+003, 8.062912e+001
1.030120e+003, 8.510516e+001
1.030603e+003, 8.795308e+001
1.031085e+003, 9.296598e+001
1.031567e+003, 1.009834e+002
1.032049e+003, 1.091699e+002
1.032531e+003, 1.165398e+002
1.033013e+003, 1.238082e+002
1.033495e+003, 1.317096e+002
1.033977e+003, 1.400927e+002
1.034459e+003, 1.482898e+002
1.034942e+003, 1.570354e+002
1.035424e+003, 1.639132e+002
1.035906e+003, 1.696333e+002
1.036388e+003, 1.722122e+002
1.036870e+003, 1.704644e+002
1.037352e+003, 1.658046e+002
1.037834e+003, 1.590931e+002
1.038316e+003, 1.505554e+002
1.038799e+003, 1.415497e+002
1.039281e+003, 1.312837e+002
1.039763e+003, 1.220468e+002
1.040245e+003, 1.140004e+002
1.040727e+003, 1.066881e+002
1.041209e+003, 1.000519e+002
1.041691e+003, 9.395479e+001
1.042173e+003, 8.818858e+001
1.042656e+003, 8.279138e+001
1.043138e+003, 7.820403e+001
1.043620e+003, 7.456351e+001
1.044102e+003, 7.148795e+001
1.044584e+003, 6.924946e+001
1.045066e+003, 6.720836e+001
1.045548e+003, 6.525020e+001
1.046030e+003, 6.330436e+001
1.046512e+003, 6.122700e+001
1.046995e+003, 5.909313e+001
1.047477e+003, 5.725742e+001
1.047959e+003, 5.592939e+001
1.048441e+003, 5.450228e+001
1.048923e+003, 5.273530e+001
1.049405e+003, 5.104854e+001
1.049887e+003, 4.952859e+001
1.050369e+003, 4.823610e+001
1.050851e+003, 4.735605e+001
1.051334e+003, 4.676499e+001
1.051816e+003, 4.592075e+001
1.052298e+003, 4.434251e+001
1.052780e+003, 4.358744e+001
1.053262e+003, 4.480620e+001
1.053744e+003, 4.595582e+001
1.054226e+003, 4.596498e+001
1.054708e+003, 4.554669e+001
1.055191e+003, 4.528574e+001
1.055673e+003, 4.528159e+001
1.056155e+003, 4.559545e+001
1.056637e+003, 4.623490e+001
1.057119e+003, 4.721082e+001
1.057601e+003, 4.907018e+001
1.058083e+003, 5.061517e+001
1.058565e+003, 5.070749e+001
1.059047e+003, 5.061520e+001
1.059530e+003, 5.164635e+001
1.060012e+003, 5.365488e+001
1.060494e+003, 5.587927e+001
1.060976e+003, 5.820573e+001
1.061458e+003, 6.038346e+001
1.061940e+003, 6.202361e+001
1.062422e+003, 6.388212e+001
1.062904e+003, 6.628218e+001
1.063386e+003, 6.915333e+001
1.063869e+003, 7.288511e+001
1.064351e+003, 7.695785e+001
1.064833e+003, 7.980666e+001
1.065315e+003, 8.077215e+001
1.065797e+003, 8.263780e+001
1.066279e+003, 8.730235e+001
1.066761e+003, 9.219591e+001
1.067243e+003, 9.548544e+001
1.067726e+003, 9.870730e+001
1.068208e+003, 1.035790e+002
1.068690e+003, 1.096267e+002
1.069172e+003, 1.156443e+002
1.069654e+003, 1.213265e+002
1.070136e+003, 1.264369e+002
1.070618e+003, 1.309290e+002
1.071100e+003, 1.347140e+002
1.071583e+003, 1.388615e+002
1.072065e+003, 1.413113e+002
1.072547e+003, 1.393737e+002
1.073029e+003, 1.344488e+002
1.073511e+003, 1.296557e+002
1.073993e+003, 1.257049e+002
1.074475e+003, 1.210261e+002
1.074957e+003, 1.146962e+002
1.075439e+003, 1.077777e+002
1.075922e+003, 1.001259e+002
1.076404e+003, 9.269928e+001
1.076886e+003, 8.615740e+001
1.077368e+003, 8.052953e+001
1.077850e+003, 7.587852e+001
1.078332e+003, 7.213544e+001
1.078814e+003, 6.878556e+001
1.079296e+003, 6.586230e+001
1.079779e+003, 6.294430e+001
1.080261e+003, 5.951168e+001
1.080743e+003, 5.632839e+001
1.081225e+003, 5.419409e+001
1.081707e+003, 5.269643e+001
1.082189e+003, 5.114735e+001
1.082671e+003, 4.945383e+001
1.083153e+003, 4.788372e+001
1.083635e+003, 4.661625e+001
1.084118e+003, 4.535746e+001
1.084600e+003, 4.351265e+001
1.085082e+003, 4.210735e+001
1.085564e+003, 4.235306e+001
1.086046e+003, 4.323889e+001
1.086528e+003, 4.336649e+001
1.087010e+003, 4.267178e+001
1.087492e+003, 4.190547e+001
1.087974e+003, 4.119587e+001
1.088457e+003, 4.073755e+001
1.088939e+003, 4.049495e+001
1.089421e+003, 4.065494e+001
1.089903e+003, 4.154052e+001
1.090385e+003, 4.274570e+001
1.090867e+003, 4.395345e+001
1.091349e+003, 4.503724e+001
1.091831e+003, 4.574331e+001
1.092314e+003, 4.585791e+001
1.092796e+003, 4.618795e+001
1.093278e+003, 4.713131e+001
1.093760e+003, 4.823567e+001
1.094242e+003, 4.934153e+001
1.094724e+003, 5.043534e+001
1.095206e+003, 5.140808e+001
1.095688e+003, 5.239062e+001
1.096171e+003, 5.384805e+001
1.096653e+003, 5.600612e+001
1.097135e+003, 5.752536e+001
1.097617e+003, 5.817046e+001
1.098099e+003, 5.789643e+001
1.098581e+003, 5.596709e+001
1.099063e+003, 5.379478e+001
1.099545e+003, 5.261814e+001
1.100027e+003, 5.197915e+001
1.100510e+003, 5.094810e+001
1.100992e+003, 4.938842e+001
1.101474e+003, 4.761478e+001
1.101956e+003, 4.526221e+001
1.102438e+003, 4.333419e+001
1.102920e+003, 4.236224e+001
1.103402e+003, 4.160453e+001
1.103884e+003, 4.047247e+001
1.104366e+003, 3.934173e+001
1.104849e+003, 3.893344e+001
1.105331e+003, 3.921240e+001
1.105813e+003, 3.901749e+001
1.106295e+003, 3.771719e+001
1.106777e+003, 3.666124e+001
1.107259e+003, 3.591980e+001
1.107741e+003, 3.559001e+001
1.108223e+003, 3.615033e+001
1.108706e+003, 3.682181e+001
1.109188e+003, 3.661016e+001
1.109670e+003, 3.571665e+001
1.110152e+003, 3.534908e+001
1.110634e+003, 3.594296e+001
1.111116e+003, 3.623462e+001
1.111598e+003, 3.584522e+001
1.112080e+003, 3.556789e+001
1.112563e+003, 3.556395e+001
1.113045e+003, 3.581811e+001
1.113527e+003, 3.646407e+001
1.114009e+003, 3.732808e+001
1.114491e+003, 3.790992e+001
1.114973e+003, 3.809420e+001
1.115455e+003, 3.849099e+001
1.115937e+003, 3.907796e+001
1.116419e+003, 3.992497e+001
1.116901e+003, 4.118637e+001
1.117384e+003, 4.251808e+001
1.117866e+003, 4.381344e+001
1.118348e+003, 4.497401e+001
1.118830e+003, 4.578002e+001
1.119312e+003, 4.621601e+001
1.119794e+003, 4.684399e+001
1.120276e+003, 4.759455e+001
1.120758e+003, 4.870086e+001
1.121241e+003, 5.015982e+001
1.121723e+003, 5.213227e+001
1.122205e+003, 5.502039e+001
1.122687e+003, 5.783625e+001
1.123169e+003, 5.917398e+001
1.123651e+003, 5.945433e+001
1.124133e+003, 6.116684e+001
1.124615e+003, 6.464317e+001
1.125098e+003, 6.787280e+001
1.125580e+003, 7.056213e+001
1.126062e+003, 7.405301e+001
1.126544e+003, 7.903111e+001
1.127026e+003, 8.399583e+001
1.127508e+003, 8.768163e+001
1.127990e+003, 9.052032e+001
1.128472e+003, 9.371701e+001
1.128954e+003, 9.731869e+001
1.129437e+003, 9.958457e+001
1.129919e+003, 1.004708e+002
1.130401e+003, 1.007105e+002
1.130883e+003, 1.004098e+002
1.131365e+003, 1.002002e+002
1.131847e+003, 1.005616e+002
1.132329e+003, 1.005366e+002
1.132811e+003, 9.858150e+001
1.133293e+003, 9.505257e+001
1.133776e+003, 9.147205e+001
1.134258e+003, 8.788261e+001
1.134740e+003, 8.471612e+001
1.135222e+003, 8.201008e+001
1.135704e+003, 7.939922e+001
1.136186e+003, 7.674962e+001
1.136668e+003, 7.454705e+001
1.137150e+003, 7.336553e+001
1.137633e+003, 7.272099e+001
1.138115e+003, 7.155132e+001
1.138597e+003, 7.012678e+001
1.139079e+003, 6.924944e+001
1.139561e+003, 6.890568e+001
1.140043e+003, 6.873833e+001
1.140525e+003, 6.870277e+001
1.141007e+003, 6.922025e+001
1.141490e+003, 7.060966e+001
1.141972e+003, 7.226381e+001
1.142454e+003, 7.318581e+001
1.142936e+003, 7.409587e+001
1.143418e+003, 7.635403e+001
1.143900e+003, 7.943266e+001
1.144382e+003, 8.207253e+001
1.144864e+003, 8.436031e+001
1.145346e+003, 8.747154e+001
1.145828e+003, 9.182003e+001
1.146311e+003, 9.586495e+001
1.146793e+003, 9.781725e+001
1.147275e+003, 9.962569e+001
1.147757e+003, 1.035114e+002
1.148239e+003, 1.078889e+002
1.148721e+003, 1.111138e+002
1.149203e+003, 1.132152e+002
1.149685e+003, 1.146784e+002
1.150168e+003, 1.155744e+002
1.150650e+003, 1.156580e+002
1.151132e+003, 1.147388e+002
1.151614e+003, 1.131803e+002
1.152096e+003, 1.111776e+002
1.152578e+003, 1.085836e+002
1.153060e+003, 1.049390e+002
1.153542e+003, 1.008982e+002
1.154025e+003, 9.729879e+001
1.154507e+003, 9.397280e+001
1.154989e+003, 9.007645e+001
1.155471e+003, 8.534096e+001
1.155953e+003, 8.052749e+001
1.156435e+003, 7.528654e+001
1.156917e+003, 7.066657e+001
1.157399e+003, 6.731702e+001
1.157881e+003, 6.437491e+001
1.158364e+003, 6.110494e+001
1.158846e+003, 5.789171e+001
1.159328e+003, 5.548656e+001
1.159810e+003, 5.393961e+001
1.160292e+003, 5.232029e+001
1.160774e+003, 5.061685e+001
1.161256e+003, 4.884051e+001
1.161738e+003, 4.668285e+001
1.162220e+003, 4.499093e+001
1.162703e+003, 4.443586e+001
1.163185e+003, 4.394171e+001
1.163667e+003, 4.233098e+001
1.164149e+003, 4.005398e+001
1.164631e+003, 3.862281e+001
1.165113e+003, 3.815186e+001
1.165595e+003, 3.785749e+001
1.166077e+003, 3.778502e+001
1.166560e+003, 3.773981e+001
1.167042e+003, 3.776328e+001
1.167524e+003, 3.738232e+001
1.168006e+003, 3.625535e+001
1.168488e+003, 3.480988e+001
1.168970e+003, 3.362542e+001
1.169452e+003, 3.273647e+001
1.169934e+003, 3.249932e+001
1.170417e+003, 3.284622e+001
1.170899e+003, 3.272014e+001
1.171381e+003, 3.206182e+001
1.171863e+003, 3.163271e+001
1.172345e+003, 3.167981e+001
1.172827e+003, 3.167364e+001
1.173309e+003, 3.115327e+001
1.173791e+003, 3.047530e+001
1.174273e+003, 3.011455e+001
1.174755e+003, 3.010339e+001
1.175238e+003, 3.076268e+001
1.175720e+003, 3.178399e+001
1.176202e+003, 3.234245e+001
1.176684e+003, 3.232813e+001
1.177166e+003, 3.194378e+001
1.177648e+003, 3.128224e+001
1.178130e+003, 3.062230e+001
1.178612e+003, 3.018281e+001
1.179095e+003, 2.987208e+001
1.179577e+003, 2.965351e+001
1.180059e+003, 2.946265e+001
1.180541e+003, 2.922388e+001
1.181023e+003, 2.894821e+001
1.181505e+003, 2.862577e+001
1.181987e+003, 2.829005e+001
1.182469e+003, 2.812076e+001
1.182952e+003, 2.828087e+001
1.183434e+003, 2.835575e+001
1.183916e+003, 2.786890e+001
1.184398e+003, 2.759953e+001
1.184880e+003, 2.833521e+001
1.185362e+003, 2.918864e+001
1.185844e+003, 2.927973e+001
1.186326e+003, 2.879422e+001
1.186808e+003, 2.820633e+001
1.187291e+003, 2.749385e+001
1.187773e+003, 2.732692e+001
1.188255e+003, 2.850265e+001
1.188737e+003, 2.907251e+001
1.189219e+003, 2.834486e+001
1.189701e+003, 2.767484e+001
1.190183e+003, 2.775143e+001
1.190665e+003, 2.801788e+001
1.191147e+003, 2.786929e+001
1.191630e+003, 2.740566e+001
1.192112e+003, 2.704630e+001
1.192594e+003, 2.680109e+001
1.193076e+003, 2.659964e+001
1.193558e+003, 2.642177e+001
1.194040e+003, 2.641579e+001
1.194522e+003, 2.664437e+001
1.195004e+003, 2.690687e+001
1.195487e+003, 2.711605e+001
1.195969e+003, 2.709643e+001
1.196451e+003, 2.645720e+001
1.196933e+003, 2.552039e+001
1.197415e+003, 2.575265e+001
1.197897e+003, 2.686331e+001
1.198379e+003, 2.709388e+001
1.198861e+003, 2.645039e+001
1.199344e+003, 2.589702e+001
1.199826e+003, 2.574267e+001
1.200308e+003, 2.597837e+001
1.200790e+003, 2.665586e+001
1.201272e+003, 2.734419e+001
1.201754e+003, 2.746713e+001
1.202236e+003, 2.732889e+001
1.202718e+003, 2.725251e+001
1.203200e+003, 2.729021e+001
1.203682e+003, 2.763787e+001
1.204165e+003, 2.813926e+001
1.204647e+003, 2.835699e+001
1.205129e+003, 2.817463e+001
1.205611e+003, 2.782873e+001
1.206093e+003, 2.714149e+001
1.206575e+003, 2.682398e+001
1.207057e+003, 2.775989e+001
1.207539e+003, 2.861685e+001
1.208022e+003, 2.805486e+001
1.208504e+003, 2.721600e+001
1.208986e+003, 2.780933e+001
1.209468e+003, 2.938041e+001
1.209950e+003, 2.988063e+001
1.210432e+003, 2.873058e+001
1.210914e+003, 2.800300e+001
1.211396e+003, 2.813297e+001
1.211879e+003, 2.824833e+001
1.212361e+003, 2.819135e+001
1.212843e+003, 2.816696e+001
1.213325e+003, 2.832499e+001
1.213807e+003, 2.849950e+001
1.214289e+003, 2.848380e+001
1.214771e+003, 2.831362e+001
1.215253e+003, 2.818787e+001
1.215735e+003, 2.814010e+001
1.216218e+003, 2.768818e+001
1.216700e+003, 2.674334e+001
1.217182e+003, 2.666322e+001
1.217664e+003, 2.781252e+001
1.218146e+003, 2.843210e+001
1.218628e+003, 2.741808e+001
1.219110e+003, 2.619922e+001
1.219592e+003, 2.674455e+001
1.220074e+003, 2.832404e+001
1.220557e+003, 2.944050e+001
1.221039e+003, 3.009909e+001
1.221521e+003, 3.022874e+001
1.222003e+003, 2.993186e+001
1.222485e+003, 2.935596e+001
1.222967e+003, 2.865260e+001
1.223449e+003, 2.834277e+001
1.223931e+003, 2.876756e+001
1.224414e+003, 2.926269e+001
1.224896e+003, 2.921604e+001
1.225378e+003, 2.913590e+001
1.225860e+003, 2.967905e+001
1.226342e+003, 3.019498e+001
1.226824e+003, 2.967854e+001
1.227306e+003, 2.871967e+001
1.227788e+003, 2.862999e+001
1.228271e+003, 2.952977e+001
1.228753e+003, 3.030473e+001
1.229235e+003, 3.089411e+001
1.229717e+003, 3.104696e+001
1.230199e+003, 3.044427e+001
1.230681e+003, 2.976713e+001
1.231163e+003, 2.872711e+001
1.231645e+003, 2.834684e+001
1.232127e+003, 2.986612e+001
1.232609e+003, 3.208158e+001
1.233092e+003, 3.254357e+001
1.233574e+003, 3.130599e+001
1.234056e+003, 3.082491e+001
1.234538e+003, 3.120298e+001
1.235020e+003, 3.150714e+001
1.235502e+003, 3.166252e+001
1.235984e+003, 3.146127e+001
1.236466e+003, 3.081230e+001
1.236949e+003, 3.044655e+001
1.237431e+003, 3.097475e+001
1.237913e+003, 3.184875e+001
1.238395e+003, 3.238781e+001
1.238877e+003, 3.249710e+001
1.239359e+003, 3.173119e+001
1.239841e+003, 3.043899e+001
1.240323e+003, 2.920246e+001
1.240806e+003, 2.827059e+001
1.241288e+003, 2.812612e+001
1.241770e+003, 2.882687e+001
1.242252e+003, 2.975537e+001
1.242734e+003, 3.084258e+001
1.243216e+003, 3.133981e+001
1.243698e+003, 3.019062e+001
1.244180e+003, 2.894826e+001
1.244662e+003, 2.884635e+001
1.245145e+003, 2.906409e+001
1.245627e+003, 2.858035e+001
1.246109e+003, 2.775239e+001
1.246591e+003, 2.759239e+001
1.247073e+003, 2.824223e+001
1.247555e+003, 2.863731e+001
1.248037e+003, 2.839711e+001
1.248519e+003, 2.853823e+001
1.249001e+003, 2.942959e+001
1.249484e+003, 3.002088e+001
1.249966e+003, 2.990371e+001
1.250448e+003, 2.955466e+001
1.250930e+003, 2.934176e+001
1.251412e+003, 2.913928e+001
1.251894e+003, 2.858295e+001
1.252376e+003, 2.782073e+001
1.252858e+003, 2.808633e+001
1.253341e+003, 2.927290e+001
1.253823e+003, 3.073547e+001
1.254305e+003, 3.223156e+001
1.254787e+003, 3.252216e+001
1.255269e+003, 3.135385e+001
1.255751e+003, 3.016206e+001
1.256233e+003, 2.992650e+001
1.256715e+003, 2.982930e+001
1.257198e+003, 2.865097e+001
1.257680e+003, 2.748487e+001
1.258162e+003, 2.785909e+001
1.258644e+003, 2.876765e+001
1.259126e+003, 2.892381e+001
1.259608e+003, 2.852712e+001
1.260090e+003, 2.818592e+001
1.260572e+003, 2.804198e+001
1.261054e+003, 2.821281e+001
1.261536e+003, 2.911615e+001
1.262019e+003, 2.946966e+001
1.262501e+003, 2.856894e+001
1.262983e+003, 2.771955e+001
1.263465e+003, 2.734714e+001
1.263947e+003, 2.709510e+001
1.264429e+003, 2.665319e+001
1.264911e+003, 2.631262e+001
1.265393e+003, 2.654827e+001
1.265876e+003, 2.727687e+001
1.266358e+003, 2.805486e+001
1.266840e+003, 2.891832e+001
1.267322e+003, 2.891139e+001
1.267804e+003, 2.800547e+001
1.268286e+003, 2.731269e+001
1.268768e+003, 2.709389e+001
1.269250e+003, 2.711037e+001
1.269733e+003, 2.723351e+001
1.270215e+003, 2.727591e+001
1.270697e+003, 2.689520e+001
1.271179e+003, 2.651981e+001
1.271661e+003, 2.691669e+001
1.272143e+003, 2.759196e+001
1.272625e+003, 2.785169e+001
1.273107e+003, 2.783984e+001
1.273589e+003, 2.780262e+001
1.274072e+003, 2.785682e+001
1.274554e+003, 2.830838e+001
1.275036e+003, 2.935547e+001
1.275518e+003, 2.981569e+001
1.276000e+003, 2.870539e+001
1.276482e+003, 2.786857e+001
1.276964e+003, 2.794921e+001
1.277446e+003, 2.823692e+001
1.277929e+003, 2.856099e+001
1.278411e+003, 2.871170e+001
1.278893e+003, 2.837558e+001
1.279375e+003, 2.781213e+001
1.279857e+003, 2.778866e+001
1.280339e+003, 2.832005e+001
1.280821e+003, 2.838923e+001
1.281303e+003, 2.799190e+001
1.281786e+003, 2.764280e+001
1.282268e+003, 2.740806e+001
##END=



