##NAMES=Eosphorite
##RRUFFID=R130480
##IDEAL CHEMISTRY=Mn^2+^AlPO_4_(OH)_2_&#183;H_2_O
##LOCALITY=Taraqual, Minas Gerais, Brazil
##OWNER=RRUFF
##SOURCE=Rock Currier
##DESCRIPTION=Sprays of tan colored bladed crystals
##STATUS=The identification of this mineral has been confirmed only by single crystal X-ray diffraction.
##URL=rruff.info/R130480
8.806445e+001, 2.130062e+003
8.854657e+001, 2.079752e+003
8.902869e+001, 2.062372e+003
8.951080e+001, 2.094349e+003
8.999292e+001, 2.151812e+003
9.047504e+001, 2.213193e+003
9.095715e+001, 2.274374e+003
9.143927e+001, 2.333716e+003
9.192139e+001, 2.388866e+003
9.240350e+001, 2.439886e+003
9.288562e+001, 2.489674e+003
9.336774e+001, 2.522309e+003
9.384985e+001, 2.521755e+003
9.433197e+001, 2.490013e+003
9.481409e+001, 2.463096e+003
9.529620e+001, 2.431125e+003
9.577832e+001, 2.401114e+003
9.626044e+001, 2.374417e+003
9.674255e+001, 2.350566e+003
9.722467e+001, 2.328269e+003
9.770679e+001, 2.306428e+003
9.818890e+001, 2.287515e+003
9.867102e+001, 2.272223e+003
9.915314e+001, 2.258705e+003
9.963525e+001, 2.245231e+003
1.001174e+002, 2.230891e+003
1.005995e+002, 2.216129e+003
1.010816e+002, 2.202789e+003
1.015637e+002, 2.191940e+003
1.020458e+002, 2.180976e+003
1.025280e+002, 2.168078e+003
1.030101e+002, 2.154350e+003
1.034922e+002, 2.141469e+003
1.039743e+002, 2.130498e+003
1.044564e+002, 2.121359e+003
1.049385e+002, 2.115533e+003
1.054207e+002, 2.115837e+003
1.059028e+002, 2.115932e+003
1.063849e+002, 2.112858e+003
1.068670e+002, 2.106366e+003
1.073491e+002, 2.097154e+003
1.078312e+002, 2.084609e+003
1.083134e+002, 2.068979e+003
1.087955e+002, 2.055696e+003
1.092776e+002, 2.046231e+003
1.097597e+002, 2.039213e+003
1.102418e+002, 2.032797e+003
1.107239e+002, 2.026777e+003
1.112061e+002, 2.021249e+003
1.116882e+002, 2.016056e+003
1.121703e+002, 2.011208e+003
1.126524e+002, 2.007297e+003
1.131345e+002, 2.005123e+003
1.136166e+002, 2.004555e+003
1.140988e+002, 2.003461e+003
1.145809e+002, 2.001155e+003
1.150630e+002, 1.998543e+003
1.155451e+002, 1.996113e+003
1.160272e+002, 1.993872e+003
1.165093e+002, 1.991588e+003
1.169915e+002, 1.988909e+003
1.174736e+002, 1.985592e+003
1.179557e+002, 1.982446e+003
1.184378e+002, 1.979146e+003
1.189199e+002, 1.976172e+003
1.194020e+002, 1.973950e+003
1.198842e+002, 1.972588e+003
1.203663e+002, 1.971758e+003
1.208484e+002, 1.970732e+003
1.213305e+002, 1.969057e+003
1.218126e+002, 1.967645e+003
1.222947e+002, 1.966998e+003
1.227769e+002, 1.966506e+003
1.232590e+002, 1.965292e+003
1.237411e+002, 1.962825e+003
1.242232e+002, 1.959458e+003
1.247053e+002, 1.956776e+003
1.251874e+002, 1.955336e+003
1.256696e+002, 1.953836e+003
1.261517e+002, 1.951661e+003
1.266338e+002, 1.948974e+003
1.271159e+002, 1.946443e+003
1.275980e+002, 1.944737e+003
1.280801e+002, 1.943440e+003
1.285623e+002, 1.941225e+003
1.290444e+002, 1.937670e+003
1.295265e+002, 1.933458e+003
1.300086e+002, 1.929184e+003
1.304907e+002, 1.924876e+003
1.309728e+002, 1.920433e+003
1.314550e+002, 1.915772e+003
1.319371e+002, 1.910932e+003
1.324192e+002, 1.905907e+003
1.329013e+002, 1.900212e+003
1.333834e+002, 1.894402e+003
1.338655e+002, 1.890201e+003
1.343477e+002, 1.888283e+003
1.348298e+002, 1.887186e+003
1.353119e+002, 1.886528e+003
1.357940e+002, 1.886133e+003
1.362761e+002, 1.885692e+003
1.367582e+002, 1.884891e+003
1.372404e+002, 1.883714e+003
1.377225e+002, 1.883092e+003
1.382046e+002, 1.884537e+003
1.386867e+002, 1.885231e+003
1.391688e+002, 1.883893e+003
1.396509e+002, 1.880825e+003
1.401331e+002, 1.877277e+003
1.406152e+002, 1.874511e+003
1.410973e+002, 1.872874e+003
1.415794e+002, 1.870884e+003
1.420615e+002, 1.867905e+003
1.425436e+002, 1.865110e+003
1.430258e+002, 1.863490e+003
1.435079e+002, 1.863109e+003
1.439900e+002, 1.862918e+003
1.444721e+002, 1.861339e+003
1.449542e+002, 1.857178e+003
1.454363e+002, 1.854839e+003
1.459185e+002, 1.855937e+003
1.464006e+002, 1.858345e+003
1.468827e+002, 1.859654e+003
1.473648e+002, 1.859138e+003
1.478469e+002, 1.857512e+003
1.483290e+002, 1.855698e+003
1.488112e+002, 1.853632e+003
1.492933e+002, 1.851744e+003
1.497754e+002, 1.850180e+003
1.502575e+002, 1.848905e+003
1.507396e+002, 1.847846e+003
1.512217e+002, 1.847126e+003
1.517039e+002, 1.846456e+003
1.521860e+002, 1.845431e+003
1.526681e+002, 1.843994e+003
1.531502e+002, 1.842663e+003
1.536323e+002, 1.841835e+003
1.541144e+002, 1.841530e+003
1.545966e+002, 1.841459e+003
1.550787e+002, 1.842031e+003
1.555608e+002, 1.842525e+003
1.560429e+002, 1.842432e+003
1.565250e+002, 1.841648e+003
1.570071e+002, 1.840398e+003
1.574893e+002, 1.838796e+003
1.579714e+002, 1.836414e+003
1.584535e+002, 1.834887e+003
1.589356e+002, 1.835369e+003
1.594177e+002, 1.836216e+003
1.598998e+002, 1.835869e+003
1.603820e+002, 1.833755e+003
1.608641e+002, 1.830945e+003
1.613462e+002, 1.830138e+003
1.618283e+002, 1.833788e+003
1.623104e+002, 1.836032e+003
1.627925e+002, 1.835252e+003
1.632747e+002, 1.833274e+003
1.637568e+002, 1.832172e+003
1.642389e+002, 1.833009e+003
1.647210e+002, 1.835209e+003
1.652031e+002, 1.836354e+003
1.656852e+002, 1.835257e+003
1.661674e+002, 1.834482e+003
1.666495e+002, 1.834727e+003
1.671316e+002, 1.835561e+003
1.676137e+002, 1.836144e+003
1.680958e+002, 1.835927e+003
1.685779e+002, 1.835127e+003
1.690601e+002, 1.835122e+003
1.695422e+002, 1.836531e+003
1.700243e+002, 1.837920e+003
1.705064e+002, 1.838742e+003
1.709885e+002, 1.839055e+003
1.714706e+002, 1.839164e+003
1.719528e+002, 1.839307e+003
1.724349e+002, 1.839333e+003
1.729170e+002, 1.838832e+003
1.733991e+002, 1.837107e+003
1.738812e+002, 1.835395e+003
1.743633e+002, 1.834826e+003
1.748455e+002, 1.835425e+003
1.753276e+002, 1.835969e+003
1.758097e+002, 1.835639e+003
1.762918e+002, 1.834739e+003
1.767739e+002, 1.833782e+003
1.772560e+002, 1.832721e+003
1.777382e+002, 1.831766e+003
1.782203e+002, 1.831284e+003
1.787024e+002, 1.831407e+003
1.791845e+002, 1.831599e+003
1.796666e+002, 1.831690e+003
1.801487e+002, 1.831658e+003
1.806309e+002, 1.831443e+003
1.811130e+002, 1.830975e+003
1.815951e+002, 1.830332e+003
1.820772e+002, 1.829661e+003
1.825593e+002, 1.828792e+003
1.830414e+002, 1.828218e+003
1.835236e+002, 1.828430e+003
1.840057e+002, 1.828927e+003
1.844878e+002, 1.828929e+003
1.849699e+002, 1.827837e+003
1.854520e+002, 1.825900e+003
1.859341e+002, 1.824740e+003
1.864163e+002, 1.824868e+003
1.868984e+002, 1.825297e+003
1.873805e+002, 1.825996e+003
1.878626e+002, 1.826808e+003
1.883447e+002, 1.827547e+003
1.888268e+002, 1.828116e+003
1.893090e+002, 1.828510e+003
1.897911e+002, 1.828474e+003
1.902732e+002, 1.827627e+003
1.907553e+002, 1.826759e+003
1.912374e+002, 1.825811e+003
1.917195e+002, 1.825000e+003
1.922017e+002, 1.824785e+003
1.926838e+002, 1.825614e+003
1.931659e+002, 1.827572e+003
1.936480e+002, 1.828640e+003
1.941301e+002, 1.828524e+003
1.946122e+002, 1.828045e+003
1.950944e+002, 1.827227e+003
1.955765e+002, 1.826262e+003
1.960586e+002, 1.825596e+003
1.965407e+002, 1.825542e+003
1.970228e+002, 1.826160e+003
1.975049e+002, 1.827550e+003
1.979871e+002, 1.831037e+003
1.984692e+002, 1.834133e+003
1.989513e+002, 1.834843e+003
1.994334e+002, 1.833289e+003
1.999155e+002, 1.831547e+003
2.003976e+002, 1.831147e+003
2.008798e+002, 1.832151e+003
2.013619e+002, 1.833632e+003
2.018440e+002, 1.836157e+003
2.023261e+002, 1.838782e+003
2.028082e+002, 1.840823e+003
2.032903e+002, 1.842252e+003
2.037725e+002, 1.842880e+003
2.042546e+002, 1.841875e+003
2.047367e+002, 1.839885e+003
2.052188e+002, 1.838777e+003
2.057009e+002, 1.839595e+003
2.061830e+002, 1.841195e+003
2.066652e+002, 1.842265e+003
2.071473e+002, 1.842885e+003
2.076294e+002, 1.842597e+003
2.081115e+002, 1.840094e+003
2.085936e+002, 1.836578e+003
2.090757e+002, 1.833968e+003
2.095579e+002, 1.833705e+003
2.100400e+002, 1.834488e+003
2.105221e+002, 1.833414e+003
2.110042e+002, 1.829518e+003
2.114863e+002, 1.825941e+003
2.119685e+002, 1.824364e+003
2.124506e+002, 1.824025e+003
2.129327e+002, 1.823952e+003
2.134148e+002, 1.823827e+003
2.138969e+002, 1.823570e+003
2.143790e+002, 1.822980e+003
2.148612e+002, 1.822212e+003
2.153433e+002, 1.820756e+003
2.158254e+002, 1.817569e+003
2.163075e+002, 1.813902e+003
2.167896e+002, 1.811570e+003
2.172717e+002, 1.811829e+003
2.177539e+002, 1.814026e+003
2.182360e+002, 1.815271e+003
2.187181e+002, 1.815291e+003
2.192002e+002, 1.814567e+003
2.196823e+002, 1.812087e+003
2.201644e+002, 1.809236e+003
2.206466e+002, 1.808135e+003
2.211287e+002, 1.810266e+003
2.216108e+002, 1.814861e+003
2.220929e+002, 1.817523e+003
2.225750e+002, 1.816911e+003
2.230571e+002, 1.815586e+003
2.235393e+002, 1.812938e+003
2.240214e+002, 1.810040e+003
2.245035e+002, 1.808474e+003
2.249856e+002, 1.809276e+003
2.254677e+002, 1.811995e+003
2.259498e+002, 1.813768e+003
2.264320e+002, 1.813340e+003
2.269141e+002, 1.813319e+003
2.273962e+002, 1.814993e+003
2.278783e+002, 1.817225e+003
2.283604e+002, 1.818175e+003
2.288425e+002, 1.816716e+003
2.293247e+002, 1.813263e+003
2.298068e+002, 1.810166e+003
2.302889e+002, 1.807605e+003
2.307710e+002, 1.805158e+003
2.312531e+002, 1.802557e+003
2.317352e+002, 1.800026e+003
2.322174e+002, 1.797997e+003
2.326995e+002, 1.796733e+003
2.331816e+002, 1.796065e+003
2.336637e+002, 1.795284e+003
2.341458e+002, 1.795099e+003
2.346279e+002, 1.794031e+003
2.351101e+002, 1.790631e+003
2.355922e+002, 1.786114e+003
2.360743e+002, 1.783123e+003
2.365564e+002, 1.783237e+003
2.370385e+002, 1.785233e+003
2.375206e+002, 1.785003e+003
2.380028e+002, 1.780919e+003
2.384849e+002, 1.777651e+003
2.389670e+002, 1.777467e+003
2.394491e+002, 1.779279e+003
2.399312e+002, 1.780695e+003
2.404133e+002, 1.780776e+003
2.408955e+002, 1.779771e+003
2.413776e+002, 1.778057e+003
2.418597e+002, 1.775101e+003
2.423418e+002, 1.772846e+003
2.428239e+002, 1.772643e+003
2.433060e+002, 1.773839e+003
2.437882e+002, 1.774687e+003
2.442703e+002, 1.774637e+003
2.447524e+002, 1.773843e+003
2.452345e+002, 1.772409e+003
2.457166e+002, 1.770134e+003
2.461987e+002, 1.768281e+003
2.466809e+002, 1.767796e+003
2.471630e+002, 1.768290e+003
2.476451e+002, 1.768479e+003
2.481272e+002, 1.768007e+003
2.486093e+002, 1.767086e+003
2.490914e+002, 1.765944e+003
2.495736e+002, 1.764583e+003
2.500557e+002, 1.763235e+003
2.505378e+002, 1.762104e+003
2.510199e+002, 1.761116e+003
2.515020e+002, 1.759913e+003
2.519841e+002, 1.758200e+003
2.524663e+002, 1.756579e+003
2.529484e+002, 1.755747e+003
2.534305e+002, 1.755602e+003
2.539126e+002, 1.755182e+003
2.543947e+002, 1.753387e+003
2.548768e+002, 1.750663e+003
2.553590e+002, 1.749314e+003
2.558411e+002, 1.750416e+003
2.563232e+002, 1.751814e+003
2.568053e+002, 1.752084e+003
2.572874e+002, 1.751389e+003
2.577695e+002, 1.750302e+003
2.582516e+002, 1.749286e+003
2.587338e+002, 1.748213e+003
2.592159e+002, 1.746269e+003
2.596980e+002, 1.742494e+003
2.601801e+002, 1.739240e+003
2.606622e+002, 1.738207e+003
2.611443e+002, 1.738577e+003
2.616265e+002, 1.738502e+003
2.621086e+002, 1.736563e+003
2.625907e+002, 1.733249e+003
2.630728e+002, 1.730914e+003
2.635549e+002, 1.730103e+003
2.640370e+002, 1.729468e+003
2.645192e+002, 1.728700e+003
2.650013e+002, 1.727668e+003
2.654834e+002, 1.726157e+003
2.659655e+002, 1.723983e+003
2.664476e+002, 1.721281e+003
2.669297e+002, 1.718361e+003
2.674119e+002, 1.714620e+003
2.678940e+002, 1.711751e+003
2.683761e+002, 1.710995e+003
2.688582e+002, 1.711043e+003
2.693403e+002, 1.710068e+003
2.698224e+002, 1.706980e+003
2.703046e+002, 1.702894e+003
2.707867e+002, 1.701112e+003
2.712688e+002, 1.703534e+003
2.717509e+002, 1.704910e+003
2.722330e+002, 1.703552e+003
2.727151e+002, 1.701057e+003
2.731973e+002, 1.698891e+003
2.736794e+002, 1.697626e+003
2.741615e+002, 1.697096e+003
2.746436e+002, 1.697032e+003
2.751257e+002, 1.697806e+003
2.756078e+002, 1.698297e+003
2.760900e+002, 1.698232e+003
2.765721e+002, 1.697940e+003
2.770542e+002, 1.697541e+003
2.775363e+002, 1.697105e+003
2.780184e+002, 1.696884e+003
2.785005e+002, 1.697465e+003
2.789827e+002, 1.699639e+003
2.794648e+002, 1.700797e+003
2.799469e+002, 1.700388e+003
2.804290e+002, 1.699412e+003
2.809111e+002, 1.698275e+003
2.813932e+002, 1.697176e+003
2.818754e+002, 1.696383e+003
2.823575e+002, 1.696298e+003
2.828396e+002, 1.697170e+003
2.833217e+002, 1.698075e+003
2.838038e+002, 1.699360e+003
2.842859e+002, 1.700407e+003
2.847681e+002, 1.700634e+003
2.852502e+002, 1.700183e+003
2.857323e+002, 1.699770e+003
2.862144e+002, 1.700162e+003
2.866965e+002, 1.701516e+003
2.871786e+002, 1.702802e+003
2.876608e+002, 1.703986e+003
2.881429e+002, 1.705149e+003
2.886250e+002, 1.706583e+003
2.891071e+002, 1.708068e+003
2.895892e+002, 1.708958e+003
2.900714e+002, 1.708566e+003
2.905535e+002, 1.706855e+003
2.910356e+002, 1.706570e+003
2.915177e+002, 1.709348e+003
2.919998e+002, 1.711836e+003
2.924819e+002, 1.712905e+003
2.929641e+002, 1.713033e+003
2.934462e+002, 1.713234e+003
2.939283e+002, 1.714166e+003
2.944104e+002, 1.715714e+003
2.948925e+002, 1.717111e+003
2.953746e+002, 1.717701e+003
2.958568e+002, 1.718878e+003
2.963389e+002, 1.721586e+003
2.968210e+002, 1.724804e+003
2.973031e+002, 1.727074e+003
2.977852e+002, 1.727693e+003
2.982673e+002, 1.727161e+003
2.987495e+002, 1.726969e+003
2.992316e+002, 1.727177e+003
2.997137e+002, 1.727691e+003
3.001958e+002, 1.728484e+003
3.006779e+002, 1.729573e+003
3.011600e+002, 1.731092e+003
3.016422e+002, 1.733058e+003
3.021243e+002, 1.735176e+003
3.026064e+002, 1.736921e+003
3.030885e+002, 1.738257e+003
3.035706e+002, 1.739192e+003
3.040527e+002, 1.739911e+003
3.045349e+002, 1.740152e+003
3.050170e+002, 1.739332e+003
3.054991e+002, 1.737544e+003
3.059812e+002, 1.735839e+003
3.064633e+002, 1.735622e+003
3.069454e+002, 1.737607e+003
3.074276e+002, 1.738599e+003
3.079097e+002, 1.738564e+003
3.083918e+002, 1.737777e+003
3.088739e+002, 1.736070e+003
3.093560e+002, 1.733661e+003
3.098381e+002, 1.731170e+003
3.103203e+002, 1.729095e+003
3.108024e+002, 1.727470e+003
3.112845e+002, 1.726053e+003
3.117666e+002, 1.725773e+003
3.122487e+002, 1.724741e+003
3.127308e+002, 1.721504e+003
3.132130e+002, 1.716979e+003
3.136951e+002, 1.713281e+003
3.141772e+002, 1.711876e+003
3.146593e+002, 1.712297e+003
3.151414e+002, 1.711345e+003
3.156235e+002, 1.707282e+003
3.161057e+002, 1.703816e+003
3.165878e+002, 1.702144e+003
3.170699e+002, 1.701239e+003
3.175520e+002, 1.699605e+003
3.180341e+002, 1.696566e+003
3.185162e+002, 1.692690e+003
3.189984e+002, 1.689483e+003
3.194805e+002, 1.687857e+003
3.199626e+002, 1.685733e+003
3.204447e+002, 1.682727e+003
3.209268e+002, 1.679424e+003
3.214089e+002, 1.676260e+003
3.218911e+002, 1.673383e+003
3.223732e+002, 1.670830e+003
3.228553e+002, 1.668603e+003
3.233374e+002, 1.666605e+003
3.238195e+002, 1.665333e+003
3.243016e+002, 1.665646e+003
3.247838e+002, 1.665924e+003
3.252659e+002, 1.665030e+003
3.257480e+002, 1.662986e+003
3.262301e+002, 1.660682e+003
3.267122e+002, 1.659036e+003
3.271943e+002, 1.658229e+003
3.276765e+002, 1.656509e+003
3.281586e+002, 1.652093e+003
3.286407e+002, 1.648634e+003
3.291228e+002, 1.648369e+003
3.296049e+002, 1.650169e+003
3.300870e+002, 1.651248e+003
3.305692e+002, 1.649593e+003
3.310513e+002, 1.645712e+003
3.315334e+002, 1.643559e+003
3.320155e+002, 1.645150e+003
3.324976e+002, 1.646284e+003
3.329797e+002, 1.646182e+003
3.334619e+002, 1.645358e+003
3.339440e+002, 1.644562e+003
3.344261e+002, 1.644136e+003
3.349082e+002, 1.643772e+003
3.353904e+002, 1.642672e+003
3.358725e+002, 1.640118e+003
3.363546e+002, 1.637971e+003
3.368367e+002, 1.636391e+003
3.373188e+002, 1.635161e+003
3.378009e+002, 1.634215e+003
3.382831e+002, 1.633491e+003
3.387652e+002, 1.632803e+003
3.392473e+002, 1.631837e+003
3.397294e+002, 1.630308e+003
3.402115e+002, 1.629412e+003
3.406936e+002, 1.629918e+003
3.411758e+002, 1.630277e+003
3.416579e+002, 1.629404e+003
3.421400e+002, 1.627582e+003
3.426221e+002, 1.625996e+003
3.431042e+002, 1.625766e+003
3.435863e+002, 1.626882e+003
3.440685e+002, 1.627172e+003
3.445506e+002, 1.625473e+003
3.450327e+002, 1.624064e+003
3.455148e+002, 1.623599e+003
3.459969e+002, 1.623721e+003
3.464790e+002, 1.623884e+003
3.469612e+002, 1.623817e+003
3.474433e+002, 1.623487e+003
3.479254e+002, 1.622749e+003
3.484075e+002, 1.621302e+003
3.488896e+002, 1.619926e+003
3.493717e+002, 1.618363e+003
3.498539e+002, 1.617117e+003
3.503360e+002, 1.616897e+003
3.508181e+002, 1.617847e+003
3.513002e+002, 1.619029e+003
3.517823e+002, 1.618837e+003
3.522644e+002, 1.616555e+003
3.527466e+002, 1.615270e+003
3.532287e+002, 1.616135e+003
3.537108e+002, 1.617216e+003
3.541929e+002, 1.617734e+003
3.546750e+002, 1.617564e+003
3.551571e+002, 1.616798e+003
3.556393e+002, 1.615308e+003
3.561214e+002, 1.613101e+003
3.566035e+002, 1.611482e+003
3.570856e+002, 1.611058e+003
3.575677e+002, 1.610543e+003
3.580498e+002, 1.609483e+003
3.585320e+002, 1.608026e+003
3.590141e+002, 1.606404e+003
3.594962e+002, 1.604676e+003
3.599783e+002, 1.602964e+003
3.604604e+002, 1.601654e+003
3.609425e+002, 1.600931e+003
3.614247e+002, 1.600163e+003
3.619068e+002, 1.599376e+003
3.623889e+002, 1.598350e+003
3.628710e+002, 1.596586e+003
3.633531e+002, 1.593902e+003
3.638352e+002, 1.591448e+003
3.643174e+002, 1.590821e+003
3.647995e+002, 1.592216e+003
3.652816e+002, 1.593397e+003
3.657637e+002, 1.593813e+003
3.662458e+002, 1.594043e+003
3.667279e+002, 1.594843e+003
3.672101e+002, 1.596010e+003
3.676922e+002, 1.596283e+003
3.681743e+002, 1.593973e+003
3.686564e+002, 1.589827e+003
3.691385e+002, 1.587460e+003
3.696206e+002, 1.587773e+003
3.701028e+002, 1.588363e+003
3.705849e+002, 1.587969e+003
3.710670e+002, 1.586829e+003
3.715491e+002, 1.585226e+003
3.720312e+002, 1.582789e+003
3.725133e+002, 1.580397e+003
3.729955e+002, 1.579689e+003
3.734776e+002, 1.580918e+003
3.739597e+002, 1.581337e+003
3.744418e+002, 1.578840e+003
3.749239e+002, 1.575465e+003
3.754060e+002, 1.573914e+003
3.758882e+002, 1.574739e+003
3.763703e+002, 1.575942e+003
3.768524e+002, 1.576024e+003
3.773345e+002, 1.575290e+003
3.778166e+002, 1.575095e+003
3.782987e+002, 1.575987e+003
3.787809e+002, 1.577052e+003
3.792630e+002, 1.577280e+003
3.797451e+002, 1.576771e+003
3.802272e+002, 1.576048e+003
3.807093e+002, 1.575036e+003
3.811914e+002, 1.574018e+003
3.816736e+002, 1.573456e+003
3.821557e+002, 1.573406e+003
3.826378e+002, 1.573345e+003
3.831199e+002, 1.572705e+003
3.836020e+002, 1.571761e+003
3.840841e+002, 1.571645e+003
3.845663e+002, 1.573396e+003
3.850484e+002, 1.574955e+003
3.855305e+002, 1.574765e+003
3.860126e+002, 1.573342e+003
3.864947e+002, 1.572389e+003
3.869768e+002, 1.572704e+003
3.874590e+002, 1.573653e+003
3.879411e+002, 1.573772e+003
3.884232e+002, 1.572588e+003
3.889053e+002, 1.572105e+003
3.893874e+002, 1.573167e+003
3.898695e+002, 1.574924e+003
3.903517e+002, 1.576502e+003
3.908338e+002, 1.577731e+003
3.913159e+002, 1.578709e+003
3.917980e+002, 1.579581e+003
3.922801e+002, 1.580367e+003
3.927622e+002, 1.580606e+003
3.932444e+002, 1.580219e+003
3.937265e+002, 1.579422e+003
3.942086e+002, 1.577889e+003
3.946907e+002, 1.576011e+003
3.951728e+002, 1.574729e+003
3.956549e+002, 1.574644e+003
3.961371e+002, 1.575463e+003
3.966192e+002, 1.576020e+003
3.971013e+002, 1.576812e+003
3.975834e+002, 1.576692e+003
3.980655e+002, 1.574671e+003
3.985476e+002, 1.572154e+003
3.990298e+002, 1.570646e+003
3.995119e+002, 1.570502e+003
3.999940e+002, 1.570861e+003
4.004761e+002, 1.570549e+003
4.009582e+002, 1.569312e+003
4.014403e+002, 1.568289e+003
4.019225e+002, 1.567580e+003
4.024046e+002, 1.566959e+003
4.028867e+002, 1.566593e+003
4.033688e+002, 1.566240e+003
4.038509e+002, 1.565368e+003
4.043330e+002, 1.563549e+003
4.048152e+002, 1.560941e+003
4.052973e+002, 1.558415e+003
4.057794e+002, 1.555488e+003
4.062615e+002, 1.553420e+003
4.067436e+002, 1.553320e+003
4.072257e+002, 1.553655e+003
4.077079e+002, 1.552692e+003
4.081900e+002, 1.549929e+003
4.086721e+002, 1.546636e+003
4.091542e+002, 1.544641e+003
4.096363e+002, 1.544195e+003
4.101184e+002, 1.543537e+003
4.106006e+002, 1.542580e+003
4.110827e+002, 1.541276e+003
4.115648e+002, 1.539360e+003
4.120469e+002, 1.537024e+003
4.125290e+002, 1.534896e+003
4.130111e+002, 1.533509e+003
4.134933e+002, 1.532623e+003
4.139754e+002, 1.531393e+003
4.144575e+002, 1.529636e+003
4.149396e+002, 1.528054e+003
4.154217e+002, 1.526788e+003
4.159038e+002, 1.525966e+003
4.163860e+002, 1.525941e+003
4.168681e+002, 1.526991e+003
4.173502e+002, 1.528180e+003
4.178323e+002, 1.528768e+003
4.183144e+002, 1.528753e+003
4.187965e+002, 1.528035e+003
4.192787e+002, 1.526273e+003
4.197608e+002, 1.524229e+003
4.202429e+002, 1.522765e+003
4.207250e+002, 1.521828e+003
4.212071e+002, 1.520866e+003
4.216892e+002, 1.519381e+003
4.221714e+002, 1.517895e+003
4.226535e+002, 1.517306e+003
4.231356e+002, 1.517680e+003
4.236177e+002, 1.517923e+003
4.240998e+002, 1.517108e+003
4.245819e+002, 1.515604e+003
4.250641e+002, 1.515045e+003
4.255462e+002, 1.516462e+003
4.260283e+002, 1.517521e+003
4.265104e+002, 1.516709e+003
4.269925e+002, 1.514916e+003
4.274746e+002, 1.513987e+003
4.279568e+002, 1.514600e+003
4.284389e+002, 1.515785e+003
4.289210e+002, 1.516114e+003
4.294031e+002, 1.515311e+003
4.298852e+002, 1.514281e+003
4.303673e+002, 1.512357e+003
4.308495e+002, 1.510735e+003
4.313316e+002, 1.510578e+003
4.318137e+002, 1.511607e+003
4.322958e+002, 1.512473e+003
4.327779e+002, 1.512166e+003
4.332600e+002, 1.510858e+003
4.337422e+002, 1.509999e+003
4.342243e+002, 1.509587e+003
4.347064e+002, 1.509647e+003
4.351885e+002, 1.510872e+003
4.356706e+002, 1.512246e+003
4.361527e+002, 1.512330e+003
4.366349e+002, 1.510822e+003
4.371170e+002, 1.509132e+003
4.375991e+002, 1.509455e+003
4.380812e+002, 1.512537e+003
4.385633e+002, 1.514863e+003
4.390454e+002, 1.516186e+003
4.395276e+002, 1.516945e+003
4.400097e+002, 1.516920e+003
4.404918e+002, 1.516458e+003
4.409739e+002, 1.516211e+003
4.414560e+002, 1.516554e+003
4.419381e+002, 1.517429e+003
4.424203e+002, 1.518811e+003
4.429024e+002, 1.521031e+003
4.433845e+002, 1.522874e+003
4.438666e+002, 1.523449e+003
4.443487e+002, 1.523824e+003
4.448308e+002, 1.524996e+003
4.453130e+002, 1.527133e+003
4.457951e+002, 1.529312e+003
4.462772e+002, 1.530454e+003
4.467593e+002, 1.530871e+003
4.472414e+002, 1.532252e+003
4.477235e+002, 1.535000e+003
4.482057e+002, 1.538270e+003
4.486878e+002, 1.541602e+003
4.491699e+002, 1.544974e+003
4.496520e+002, 1.548268e+003
4.501341e+002, 1.551487e+003
4.506162e+002, 1.554600e+003
4.510984e+002, 1.557227e+003
4.515805e+002, 1.559550e+003
4.520626e+002, 1.562909e+003
4.525447e+002, 1.568229e+003
4.530268e+002, 1.574319e+003
4.535089e+002, 1.578683e+003
4.539911e+002, 1.580971e+003
4.544732e+002, 1.583693e+003
4.549553e+002, 1.587393e+003
4.554374e+002, 1.591799e+003
4.559195e+002, 1.596736e+003
4.564016e+002, 1.602156e+003
4.568838e+002, 1.607860e+003
4.573659e+002, 1.613793e+003
4.578480e+002, 1.619914e+003
4.583301e+002, 1.625700e+003
4.588122e+002, 1.630372e+003
4.592943e+002, 1.635707e+003
4.597765e+002, 1.643184e+003
4.602586e+002, 1.651214e+003
4.607407e+002, 1.657650e+003
4.612228e+002, 1.661784e+003
4.617049e+002, 1.664682e+003
4.621870e+002, 1.668063e+003
4.626692e+002, 1.672658e+003
4.631513e+002, 1.675325e+003
4.636334e+002, 1.674905e+003
4.641155e+002, 1.673841e+003
4.645976e+002, 1.673191e+003
4.650797e+002, 1.672723e+003
4.655619e+002, 1.671718e+003
4.660440e+002, 1.669765e+003
4.665261e+002, 1.666975e+003
4.670082e+002, 1.663692e+003
4.674903e+002, 1.659979e+003
4.679724e+002, 1.655553e+003
4.684546e+002, 1.649503e+003
4.689367e+002, 1.643278e+003
4.694188e+002, 1.638082e+003
4.699009e+002, 1.633938e+003
4.703830e+002, 1.629798e+003
4.708651e+002, 1.624732e+003
4.713473e+002, 1.618988e+003
4.718294e+002, 1.613549e+003
4.723115e+002, 1.608602e+003
4.727936e+002, 1.603504e+003
4.732757e+002, 1.597572e+003
4.737578e+002, 1.591277e+003
4.742400e+002, 1.585596e+003
4.747221e+002, 1.581017e+003
4.752042e+002, 1.576501e+003
4.756863e+002, 1.571321e+003
4.761684e+002, 1.565631e+003
4.766505e+002, 1.559912e+003
4.771327e+002, 1.554271e+003
4.776148e+002, 1.548675e+003
4.780969e+002, 1.542906e+003
4.785790e+002, 1.536916e+003
4.790611e+002, 1.531539e+003
4.795432e+002, 1.527415e+003
4.800254e+002, 1.523441e+003
4.805075e+002, 1.518790e+003
4.809896e+002, 1.513659e+003
4.814717e+002, 1.508757e+003
4.819538e+002, 1.504474e+003
4.824359e+002, 1.500656e+003
4.829181e+002, 1.496873e+003
4.834002e+002, 1.493264e+003
4.838823e+002, 1.489447e+003
4.843644e+002, 1.484870e+003
4.848465e+002, 1.480496e+003
4.853286e+002, 1.476958e+003
4.858108e+002, 1.474318e+003
4.862929e+002, 1.472409e+003
4.867750e+002, 1.471288e+003
4.872571e+002, 1.470780e+003
4.877392e+002, 1.469286e+003
4.882213e+002, 1.466390e+003
4.887035e+002, 1.463116e+003
4.891856e+002, 1.459071e+003
4.896677e+002, 1.455175e+003
4.901498e+002, 1.452556e+003
4.906319e+002, 1.451477e+003
4.911140e+002, 1.450763e+003
4.915962e+002, 1.449120e+003
4.920783e+002, 1.446702e+003
4.925604e+002, 1.445039e+003
4.930425e+002, 1.444877e+003
4.935246e+002, 1.444320e+003
4.940067e+002, 1.441261e+003
4.944889e+002, 1.436776e+003
4.949710e+002, 1.433253e+003
4.954531e+002, 1.431559e+003
4.959352e+002, 1.430621e+003
4.964173e+002, 1.430093e+003
4.968994e+002, 1.429702e+003
4.973816e+002, 1.428218e+003
4.978637e+002, 1.425003e+003
4.983458e+002, 1.421324e+003
4.988279e+002, 1.419014e+003
4.993100e+002, 1.418328e+003
4.997921e+002, 1.417832e+003
5.002743e+002, 1.417957e+003
5.007564e+002, 1.417817e+003
5.012385e+002, 1.416623e+003
5.017206e+002, 1.414627e+003
5.022027e+002, 1.412649e+003
5.026848e+002, 1.411144e+003
5.031670e+002, 1.409994e+003
5.036491e+002, 1.408867e+003
5.041312e+002, 1.407615e+003
5.046133e+002, 1.406637e+003
5.050954e+002, 1.406275e+003
5.055775e+002, 1.405904e+003
5.060597e+002, 1.404965e+003
5.065418e+002, 1.403556e+003
5.070239e+002, 1.402309e+003
5.075060e+002, 1.401883e+003
5.079881e+002, 1.401960e+003
5.084702e+002, 1.400849e+003
5.089524e+002, 1.397831e+003
5.094345e+002, 1.395261e+003
5.099166e+002, 1.394063e+003
5.103987e+002, 1.393579e+003
5.108808e+002, 1.393408e+003
5.113629e+002, 1.393488e+003
5.118451e+002, 1.393521e+003
5.123271e+002, 1.393705e+003
5.128093e+002, 1.393663e+003
5.132914e+002, 1.391914e+003
5.137735e+002, 1.387947e+003
5.142556e+002, 1.384298e+003
5.147377e+002, 1.382948e+003
5.152198e+002, 1.383325e+003
5.157020e+002, 1.383213e+003
5.161841e+002, 1.382393e+003
5.166662e+002, 1.381316e+003
5.171483e+002, 1.379942e+003
5.176304e+002, 1.378499e+003
5.181125e+002, 1.377392e+003
5.185947e+002, 1.376712e+003
5.190768e+002, 1.376227e+003
5.195589e+002, 1.375740e+003
5.200410e+002, 1.375291e+003
5.205231e+002, 1.374376e+003
5.210052e+002, 1.372042e+003
5.214874e+002, 1.370386e+003
5.219695e+002, 1.370653e+003
5.224516e+002, 1.371805e+003
5.229337e+002, 1.372428e+003
5.234158e+002, 1.371995e+003
5.238979e+002, 1.370840e+003
5.243801e+002, 1.369242e+003
5.248622e+002, 1.366981e+003
5.253443e+002, 1.365521e+003
5.258264e+002, 1.365763e+003
5.263085e+002, 1.365892e+003
5.267906e+002, 1.364888e+003
5.272728e+002, 1.363250e+003
5.277549e+002, 1.362016e+003
5.282370e+002, 1.361758e+003
5.287191e+002, 1.361715e+003
5.292012e+002, 1.360689e+003
5.296833e+002, 1.358773e+003
5.301655e+002, 1.357483e+003
5.306476e+002, 1.357310e+003
5.311297e+002, 1.357676e+003
5.316118e+002, 1.358175e+003
5.320939e+002, 1.358764e+003
5.325760e+002, 1.358946e+003
5.330582e+002, 1.358352e+003
5.335403e+002, 1.357552e+003
5.340224e+002, 1.356954e+003
5.345045e+002, 1.356521e+003
5.349866e+002, 1.356063e+003
5.354688e+002, 1.355490e+003
5.359509e+002, 1.354942e+003
5.364330e+002, 1.354711e+003
5.369151e+002, 1.355069e+003
5.373972e+002, 1.355109e+003
5.378793e+002, 1.354411e+003
5.383615e+002, 1.353820e+003
5.388436e+002, 1.353992e+003
5.393257e+002, 1.354644e+003
5.398078e+002, 1.354987e+003
5.402899e+002, 1.354528e+003
5.407720e+002, 1.353762e+003
5.412542e+002, 1.353983e+003
5.417363e+002, 1.355623e+003
5.422184e+002, 1.356745e+003
5.427005e+002, 1.356490e+003
5.431826e+002, 1.356092e+003
5.436647e+002, 1.356234e+003
5.441469e+002, 1.356860e+003
5.446290e+002, 1.357605e+003
5.451111e+002, 1.358415e+003
5.455932e+002, 1.359142e+003
5.460753e+002, 1.359287e+003
5.465574e+002, 1.358893e+003
5.470396e+002, 1.359332e+003
5.475217e+002, 1.361444e+003
5.480038e+002, 1.364190e+003
5.484859e+002, 1.365880e+003
5.489680e+002, 1.366433e+003
5.494501e+002, 1.367165e+003
5.499323e+002, 1.368101e+003
5.504144e+002, 1.369478e+003
5.508965e+002, 1.371901e+003
5.513786e+002, 1.374999e+003
5.518607e+002, 1.377465e+003
5.523428e+002, 1.378526e+003
5.528250e+002, 1.378923e+003
5.533071e+002, 1.380470e+003
5.537892e+002, 1.383505e+003
5.542713e+002, 1.387197e+003
5.547534e+002, 1.392253e+003
5.552355e+002, 1.397249e+003
5.557177e+002, 1.401466e+003
5.561998e+002, 1.404932e+003
5.566819e+002, 1.407937e+003
5.571640e+002, 1.410605e+003
5.576461e+002, 1.412994e+003
5.581282e+002, 1.415487e+003
5.586104e+002, 1.418354e+003
5.590925e+002, 1.419641e+003
5.595746e+002, 1.418756e+003
5.600567e+002, 1.416108e+003
5.605388e+002, 1.411811e+003
5.610209e+002, 1.406089e+003
5.615031e+002, 1.400394e+003
5.619852e+002, 1.395199e+003
5.624673e+002, 1.390365e+003
5.629494e+002, 1.385964e+003
5.634315e+002, 1.381861e+003
5.639136e+002, 1.377414e+003
5.643958e+002, 1.372291e+003
5.648779e+002, 1.366806e+003
5.653600e+002, 1.361351e+003
5.658421e+002, 1.355588e+003
5.663242e+002, 1.351077e+003
5.668063e+002, 1.348625e+003
5.672885e+002, 1.346603e+003
5.677706e+002, 1.344009e+003
5.682527e+002, 1.341140e+003
5.687348e+002, 1.338855e+003
5.692169e+002, 1.337579e+003
5.696990e+002, 1.336828e+003
5.701812e+002, 1.335555e+003
5.706633e+002, 1.333470e+003
5.711454e+002, 1.332072e+003
5.716275e+002, 1.331940e+003
5.721096e+002, 1.332063e+003
5.725917e+002, 1.331801e+003
5.730739e+002, 1.331411e+003
5.735560e+002, 1.331557e+003
5.740381e+002, 1.332693e+003
5.745202e+002, 1.334107e+003
5.750023e+002, 1.335112e+003
5.754844e+002, 1.335718e+003
5.759666e+002, 1.335787e+003
5.764487e+002, 1.335051e+003
5.769308e+002, 1.334563e+003
5.774129e+002, 1.335746e+003
5.778950e+002, 1.338634e+003
5.783771e+002, 1.340389e+003
5.788593e+002, 1.340137e+003
5.793414e+002, 1.339619e+003
5.798235e+002, 1.339254e+003
5.803056e+002, 1.339245e+003
5.807877e+002, 1.339897e+003
5.812698e+002, 1.341292e+003
5.817520e+002, 1.343204e+003
5.822341e+002, 1.345471e+003
5.827162e+002, 1.348224e+003
5.831984e+002, 1.350223e+003
5.836805e+002, 1.350936e+003
5.841626e+002, 1.351517e+003
5.846447e+002, 1.352150e+003
5.851268e+002, 1.352903e+003
5.856089e+002, 1.353808e+003
5.860911e+002, 1.354873e+003
5.865732e+002, 1.356227e+003
5.870553e+002, 1.357804e+003
5.875374e+002, 1.359759e+003
5.880195e+002, 1.362703e+003
5.885016e+002, 1.366778e+003
5.889838e+002, 1.371515e+003
5.894659e+002, 1.377400e+003
5.899480e+002, 1.383484e+003
5.904301e+002, 1.387059e+003
5.909122e+002, 1.387030e+003
5.913943e+002, 1.386765e+003
5.918765e+002, 1.387255e+003
5.923586e+002, 1.388052e+003
5.928407e+002, 1.388775e+003
5.933228e+002, 1.389330e+003
5.938049e+002, 1.389710e+003
5.942870e+002, 1.389959e+003
5.947692e+002, 1.389956e+003
5.952513e+002, 1.389074e+003
5.957334e+002, 1.386789e+003
5.962155e+002, 1.384532e+003
5.966976e+002, 1.382538e+003
5.971797e+002, 1.380547e+003
5.976619e+002, 1.378562e+003
5.981440e+002, 1.376446e+003
5.986261e+002, 1.373763e+003
5.991082e+002, 1.370001e+003
5.995903e+002, 1.365735e+003
6.000724e+002, 1.361960e+003
6.005546e+002, 1.358668e+003
6.010367e+002, 1.355704e+003
6.015188e+002, 1.353119e+003
6.020009e+002, 1.350672e+003
6.024830e+002, 1.348037e+003
6.029651e+002, 1.345214e+003
6.034473e+002, 1.342389e+003
6.039294e+002, 1.339316e+003
6.044115e+002, 1.336515e+003
6.048936e+002, 1.334430e+003
6.053757e+002, 1.332850e+003
6.058578e+002, 1.331412e+003
6.063400e+002, 1.329978e+003
6.068221e+002, 1.328470e+003
6.073042e+002, 1.326654e+003
6.077863e+002, 1.324344e+003
6.082684e+002, 1.323063e+003
6.087505e+002, 1.324688e+003
6.092327e+002, 1.325141e+003
6.097148e+002, 1.322126e+003
6.101969e+002, 1.317811e+003
6.106790e+002, 1.314998e+003
6.111611e+002, 1.314474e+003
6.116432e+002, 1.314598e+003
6.121254e+002, 1.313987e+003
6.126075e+002, 1.312854e+003
6.130896e+002, 1.312002e+003
6.135717e+002, 1.311570e+003
6.140538e+002, 1.310607e+003
6.145359e+002, 1.308133e+003
6.150181e+002, 1.304906e+003
6.155002e+002, 1.303284e+003
6.159823e+002, 1.304098e+003
6.164644e+002, 1.304395e+003
6.169465e+002, 1.303366e+003
6.174286e+002, 1.301733e+003
6.179108e+002, 1.299963e+003
6.183929e+002, 1.298157e+003
6.188750e+002, 1.296290e+003
6.193571e+002, 1.294316e+003
6.198392e+002, 1.292457e+003
6.203214e+002, 1.291439e+003
6.208035e+002, 1.291728e+003
6.212856e+002, 1.291449e+003
6.217677e+002, 1.290401e+003
6.222498e+002, 1.288720e+003
6.227319e+002, 1.285882e+003
6.232141e+002, 1.282484e+003
6.236962e+002, 1.280076e+003
6.241783e+002, 1.279769e+003
6.246604e+002, 1.279712e+003
6.251425e+002, 1.277519e+003
6.256246e+002, 1.274016e+003
6.261068e+002, 1.272380e+003
6.265889e+002, 1.273506e+003
6.270710e+002, 1.274685e+003
6.275531e+002, 1.273317e+003
6.280352e+002, 1.269529e+003
6.285173e+002, 1.266061e+003
6.289995e+002, 1.261954e+003
6.294816e+002, 1.259351e+003
6.299637e+002, 1.260124e+003
6.304458e+002, 1.261695e+003
6.309279e+002, 1.261376e+003
6.314100e+002, 1.258997e+003
6.318922e+002, 1.256363e+003
6.323743e+002, 1.255031e+003
6.328564e+002, 1.254531e+003
6.333385e+002, 1.252920e+003
6.338206e+002, 1.249754e+003
6.343027e+002, 1.247284e+003
6.347849e+002, 1.246515e+003
6.352670e+002, 1.246354e+003
6.357491e+002, 1.245861e+003
6.362312e+002, 1.245029e+003
6.367133e+002, 1.243847e+003
6.371954e+002, 1.241957e+003
6.376776e+002, 1.240035e+003
6.381597e+002, 1.238789e+003
6.386418e+002, 1.237936e+003
6.391239e+002, 1.236694e+003
6.396060e+002, 1.234819e+003
6.400881e+002, 1.232799e+003
6.405703e+002, 1.231283e+003
6.410524e+002, 1.230346e+003
6.415345e+002, 1.229170e+003
6.420166e+002, 1.227543e+003
6.424987e+002, 1.225946e+003
6.429808e+002, 1.224440e+003
6.434630e+002, 1.223042e+003
6.439451e+002, 1.221780e+003
6.444272e+002, 1.220656e+003
6.449093e+002, 1.219572e+003
6.453914e+002, 1.218428e+003
6.458735e+002, 1.217266e+003
6.463557e+002, 1.216090e+003
6.468378e+002, 1.214876e+003
6.473199e+002, 1.214197e+003
6.478020e+002, 1.214570e+003
6.482841e+002, 1.215187e+003
6.487662e+002, 1.214639e+003
6.492484e+002, 1.212678e+003
6.497305e+002, 1.210977e+003
6.502126e+002, 1.209844e+003
6.506947e+002, 1.208816e+003
6.511768e+002, 1.207541e+003
6.516589e+002, 1.206211e+003
6.521411e+002, 1.205145e+003
6.526232e+002, 1.204468e+003
6.531053e+002, 1.204230e+003
6.535874e+002, 1.204740e+003
6.540695e+002, 1.206014e+003
6.545516e+002, 1.206348e+003
6.550338e+002, 1.205458e+003
6.555159e+002, 1.204187e+003
6.559980e+002, 1.202451e+003
6.564801e+002, 1.200747e+003
6.569622e+002, 1.199675e+003
6.574443e+002, 1.199328e+003
6.579265e+002, 1.199172e+003
6.584086e+002, 1.199109e+003
6.588907e+002, 1.199019e+003
6.593728e+002, 1.198880e+003
6.598549e+002, 1.198614e+003
6.603370e+002, 1.197945e+003
6.608192e+002, 1.196738e+003
6.613013e+002, 1.195160e+003
6.617834e+002, 1.193480e+003
6.622655e+002, 1.191614e+003
6.627476e+002, 1.189937e+003
6.632297e+002, 1.187664e+003
6.637119e+002, 1.186464e+003
6.641940e+002, 1.187894e+003
6.646761e+002, 1.190267e+003
6.651582e+002, 1.191297e+003
6.656403e+002, 1.190382e+003
6.661224e+002, 1.188896e+003
6.666046e+002, 1.187839e+003
6.670867e+002, 1.187092e+003
6.675688e+002, 1.186371e+003
6.680509e+002, 1.185669e+003
6.685330e+002, 1.185054e+003
6.690151e+002, 1.184600e+003
6.694973e+002, 1.184194e+003
6.699794e+002, 1.183549e+003
6.704615e+002, 1.182335e+003
6.709436e+002, 1.181838e+003
6.714257e+002, 1.182927e+003
6.719078e+002, 1.183869e+003
6.723900e+002, 1.183584e+003
6.728721e+002, 1.182578e+003
6.733542e+002, 1.181830e+003
6.738363e+002, 1.181678e+003
6.743184e+002, 1.181598e+003
6.748005e+002, 1.180677e+003
6.752827e+002, 1.179084e+003
6.757648e+002, 1.178824e+003
6.762469e+002, 1.180489e+003
6.767290e+002, 1.181481e+003
6.772111e+002, 1.180094e+003
6.776932e+002, 1.177572e+003
6.781754e+002, 1.176201e+003
6.786575e+002, 1.176252e+003
6.791396e+002, 1.175953e+003
6.796217e+002, 1.174330e+003
6.801038e+002, 1.172711e+003
6.805859e+002, 1.172176e+003
6.810681e+002, 1.172458e+003
6.815502e+002, 1.172974e+003
6.820323e+002, 1.173468e+003
6.825144e+002, 1.173631e+003
6.829965e+002, 1.172905e+003
6.834786e+002, 1.171228e+003
6.839608e+002, 1.169736e+003
6.844429e+002, 1.168304e+003
6.849250e+002, 1.167289e+003
6.854071e+002, 1.167044e+003
6.858892e+002, 1.167174e+003
6.863713e+002, 1.167371e+003
6.868535e+002, 1.167615e+003
6.873356e+002, 1.167598e+003
6.878177e+002, 1.167172e+003
6.882998e+002, 1.166422e+003
6.887819e+002, 1.165229e+003
6.892640e+002, 1.163770e+003
6.897462e+002, 1.162598e+003
6.902283e+002, 1.161920e+003
6.907104e+002, 1.161511e+003
6.911925e+002, 1.161026e+003
6.916746e+002, 1.160412e+003
6.921567e+002, 1.160238e+003
6.926389e+002, 1.161403e+003
6.931210e+002, 1.161758e+003
6.936031e+002, 1.160094e+003
6.940852e+002, 1.157820e+003
6.945673e+002, 1.156345e+003
6.950494e+002, 1.155836e+003
6.955316e+002, 1.155609e+003
6.960137e+002, 1.155392e+003
6.964958e+002, 1.155156e+003
6.969779e+002, 1.154957e+003
6.974600e+002, 1.154732e+003
6.979421e+002, 1.154127e+003
6.984243e+002, 1.152994e+003
6.989064e+002, 1.151678e+003
6.993885e+002, 1.150602e+003
6.998706e+002, 1.149787e+003
7.003527e+002, 1.148979e+003
7.008348e+002, 1.147936e+003
7.013170e+002, 1.147216e+003
7.017991e+002, 1.147012e+003
7.022812e+002, 1.147119e+003
7.027633e+002, 1.147515e+003
7.032454e+002, 1.148094e+003
7.037275e+002, 1.148426e+003
7.042097e+002, 1.148171e+003
7.046918e+002, 1.147570e+003
7.051739e+002, 1.146908e+003
7.056560e+002, 1.146205e+003
7.061381e+002, 1.145735e+003
7.066202e+002, 1.145654e+003
7.071024e+002, 1.145306e+003
7.075845e+002, 1.143818e+003
7.080666e+002, 1.141216e+003
7.085487e+002, 1.139809e+003
7.090308e+002, 1.140900e+003
7.095129e+002, 1.141375e+003
7.099951e+002, 1.139966e+003
7.104772e+002, 1.138366e+003
7.109593e+002, 1.138233e+003
7.114414e+002, 1.139344e+003
7.119235e+002, 1.140201e+003
7.124056e+002, 1.139928e+003
7.128878e+002, 1.138980e+003
7.133699e+002, 1.137755e+003
7.138520e+002, 1.136373e+003
7.143341e+002, 1.135930e+003
7.148162e+002, 1.136842e+003
7.152983e+002, 1.137622e+003
7.157805e+002, 1.136968e+003
7.162626e+002, 1.135165e+003
7.167447e+002, 1.133821e+003
7.172268e+002, 1.132846e+003
7.177089e+002, 1.132435e+003
7.181910e+002, 1.133744e+003
7.186732e+002, 1.134653e+003
7.191553e+002, 1.132861e+003
7.196374e+002, 1.129448e+003
7.201195e+002, 1.127454e+003
7.206016e+002, 1.128500e+003
7.210837e+002, 1.130416e+003
7.215659e+002, 1.130093e+003
7.220480e+002, 1.127999e+003
7.225301e+002, 1.126895e+003
7.230122e+002, 1.127226e+003
7.234943e+002, 1.127368e+003
7.239764e+002, 1.126207e+003
7.244586e+002, 1.124308e+003
7.249407e+002, 1.123136e+003
7.254228e+002, 1.123000e+003
7.259049e+002, 1.122787e+003
7.263870e+002, 1.121829e+003
7.268691e+002, 1.121391e+003
7.273513e+002, 1.122669e+003
7.278334e+002, 1.124795e+003
7.283155e+002, 1.126346e+003
7.287976e+002, 1.126847e+003
7.292797e+002, 1.126698e+003
7.297618e+002, 1.126084e+003
7.302440e+002, 1.125162e+003
7.307261e+002, 1.124569e+003
7.312082e+002, 1.124358e+003
7.316903e+002, 1.123894e+003
7.321724e+002, 1.122777e+003
7.326545e+002, 1.121556e+003
7.331367e+002, 1.121227e+003
7.336188e+002, 1.122159e+003
7.341009e+002, 1.121733e+003
7.345830e+002, 1.118154e+003
7.350651e+002, 1.115369e+003
7.355472e+002, 1.115383e+003
7.360294e+002, 1.116533e+003
7.365115e+002, 1.116777e+003
7.369936e+002, 1.115909e+003
7.374757e+002, 1.115295e+003
7.379578e+002, 1.116244e+003
7.384399e+002, 1.117818e+003
7.389221e+002, 1.117947e+003
7.394042e+002, 1.116731e+003
7.398863e+002, 1.115847e+003
7.403684e+002, 1.115775e+003
7.408505e+002, 1.115853e+003
7.413326e+002, 1.115476e+003
7.418148e+002, 1.114683e+003
7.422969e+002, 1.113900e+003
7.427790e+002, 1.113224e+003
7.432611e+002, 1.112426e+003
7.437432e+002, 1.111227e+003
7.442253e+002, 1.110117e+003
7.447075e+002, 1.109464e+003
7.451896e+002, 1.109219e+003
7.456717e+002, 1.109171e+003
7.461538e+002, 1.109247e+003
7.466359e+002, 1.109375e+003
7.471180e+002, 1.109535e+003
7.476002e+002, 1.109680e+003
7.480823e+002, 1.109639e+003
7.485644e+002, 1.109393e+003
7.490465e+002, 1.108953e+003
7.495286e+002, 1.108308e+003
7.500107e+002, 1.107489e+003
7.504929e+002, 1.106522e+003
7.509750e+002, 1.105149e+003
7.514571e+002, 1.104279e+003
7.519392e+002, 1.104365e+003
7.524213e+002, 1.104411e+003
7.529034e+002, 1.103929e+003
7.533856e+002, 1.103208e+003
7.538677e+002, 1.102685e+003
7.543498e+002, 1.102452e+003
7.548319e+002, 1.102214e+003
7.553140e+002, 1.101913e+003
7.557961e+002, 1.101383e+003
7.562783e+002, 1.099931e+003
7.567604e+002, 1.097842e+003
7.572425e+002, 1.096867e+003
7.577246e+002, 1.097665e+003
7.582067e+002, 1.099017e+003
7.586888e+002, 1.099555e+003
7.591710e+002, 1.099282e+003
7.596531e+002, 1.098662e+003
7.601352e+002, 1.096860e+003
7.606173e+002, 1.096005e+003
7.610994e+002, 1.097365e+003
7.615815e+002, 1.098902e+003
7.620637e+002, 1.098802e+003
7.625458e+002, 1.097493e+003
7.630279e+002, 1.096951e+003
7.635100e+002, 1.098586e+003
7.639921e+002, 1.100018e+003
7.644742e+002, 1.098808e+003
7.649564e+002, 1.096196e+003
7.654385e+002, 1.094381e+003
7.659206e+002, 1.093618e+003
7.664027e+002, 1.093367e+003
7.668848e+002, 1.093357e+003
7.673669e+002, 1.093337e+003
7.678491e+002, 1.092592e+003
7.683312e+002, 1.090752e+003
7.688133e+002, 1.089617e+003
7.692954e+002, 1.089747e+003
7.697775e+002, 1.089856e+003
7.702596e+002, 1.089403e+003
7.707418e+002, 1.088587e+003
7.712239e+002, 1.087489e+003
7.717060e+002, 1.086040e+003
7.721881e+002, 1.085140e+003
7.726702e+002, 1.085770e+003
7.731523e+002, 1.086496e+003
7.736345e+002, 1.085989e+003
7.741166e+002, 1.084719e+003
7.745987e+002, 1.083587e+003
7.750808e+002, 1.082905e+003
7.755629e+002, 1.082784e+003
7.760450e+002, 1.083499e+003
7.765272e+002, 1.084782e+003
7.770093e+002, 1.085297e+003
7.774914e+002, 1.084912e+003
7.779735e+002, 1.084523e+003
7.784556e+002, 1.084551e+003
7.789377e+002, 1.084282e+003
7.794199e+002, 1.082589e+003
7.799020e+002, 1.079943e+003
7.803841e+002, 1.078666e+003
7.808662e+002, 1.080053e+003
7.813483e+002, 1.081005e+003
7.818304e+002, 1.080504e+003
7.823126e+002, 1.079511e+003
7.827947e+002, 1.078470e+003
7.832768e+002, 1.077654e+003
7.837589e+002, 1.077585e+003
7.842410e+002, 1.078521e+003
7.847231e+002, 1.079699e+003
7.852053e+002, 1.080410e+003
7.856874e+002, 1.080589e+003
7.861695e+002, 1.079678e+003
7.866516e+002, 1.077586e+003
7.871337e+002, 1.075972e+003
7.876158e+002, 1.075528e+003
7.880980e+002, 1.076065e+003
7.885801e+002, 1.077566e+003
7.890622e+002, 1.080402e+003
7.895443e+002, 1.081745e+003
7.900264e+002, 1.080831e+003
7.905085e+002, 1.079464e+003
7.909907e+002, 1.077133e+003
7.914728e+002, 1.075158e+003
7.919549e+002, 1.074991e+003
7.924370e+002, 1.076433e+003
7.929191e+002, 1.078026e+003
7.934012e+002, 1.079468e+003
7.938834e+002, 1.080123e+003
7.943655e+002, 1.078798e+003
7.948476e+002, 1.076359e+003
7.953297e+002, 1.074430e+003
7.958118e+002, 1.073314e+003
7.962939e+002, 1.073350e+003
7.967761e+002, 1.074933e+003
7.972582e+002, 1.077082e+003
7.977403e+002, 1.077279e+003
7.982224e+002, 1.074915e+003
7.987045e+002, 1.073194e+003
7.991866e+002, 1.072504e+003
7.996688e+002, 1.071963e+003
8.001509e+002, 1.070855e+003
8.006330e+002, 1.069851e+003
8.011151e+002, 1.069858e+003
8.015972e+002, 1.070990e+003
8.020793e+002, 1.072380e+003
8.025615e+002, 1.074385e+003
8.030436e+002, 1.075972e+003
8.035257e+002, 1.076201e+003
8.040078e+002, 1.075736e+003
8.044899e+002, 1.075567e+003
8.049720e+002, 1.075858e+003
8.054542e+002, 1.076131e+003
8.059363e+002, 1.076011e+003
8.064184e+002, 1.075630e+003
8.069005e+002, 1.075402e+003
8.073826e+002, 1.075290e+003
8.078647e+002, 1.074439e+003
8.083469e+002, 1.072513e+003
8.088290e+002, 1.070683e+003
8.093111e+002, 1.069744e+003
8.097932e+002, 1.069506e+003
8.102753e+002, 1.069412e+003
8.107574e+002, 1.069460e+003
8.112396e+002, 1.069658e+003
8.117217e+002, 1.070119e+003
8.122038e+002, 1.070604e+003
8.126859e+002, 1.071412e+003
8.131680e+002, 1.071999e+003
8.136501e+002, 1.071385e+003
8.141323e+002, 1.069474e+003
8.146144e+002, 1.067824e+003
8.150965e+002, 1.067692e+003
8.155786e+002, 1.068093e+003
8.160607e+002, 1.067931e+003
8.165428e+002, 1.067366e+003
8.170250e+002, 1.066918e+003
8.175071e+002, 1.066681e+003
8.179892e+002, 1.066221e+003
8.184713e+002, 1.065141e+003
8.189534e+002, 1.063596e+003
8.194355e+002, 1.062107e+003
8.199177e+002, 1.060605e+003
8.203998e+002, 1.059445e+003
8.208819e+002, 1.058754e+003
8.213640e+002, 1.058261e+003
8.218461e+002, 1.057992e+003
8.223282e+002, 1.057752e+003
8.228104e+002, 1.057063e+003
8.232925e+002, 1.055676e+003
8.237746e+002, 1.054796e+003
8.242567e+002, 1.055120e+003
8.247388e+002, 1.055535e+003
8.252209e+002, 1.055421e+003
8.257031e+002, 1.054996e+003
8.261852e+002, 1.054600e+003
8.266673e+002, 1.054314e+003
8.271494e+002, 1.054051e+003
8.276315e+002, 1.053792e+003
8.281136e+002, 1.053461e+003
8.285958e+002, 1.052872e+003
8.290779e+002, 1.052073e+003
8.295600e+002, 1.051261e+003
8.300421e+002, 1.050466e+003
8.305242e+002, 1.049747e+003
8.310063e+002, 1.049082e+003
8.314885e+002, 1.048622e+003
8.319706e+002, 1.049014e+003
8.324527e+002, 1.051187e+003
8.329348e+002, 1.051688e+003
8.334169e+002, 1.048973e+003
8.338990e+002, 1.046496e+003
8.343812e+002, 1.045496e+003
8.348633e+002, 1.045529e+003
8.353454e+002, 1.046435e+003
8.358275e+002, 1.048232e+003
8.363096e+002, 1.049070e+003
8.367917e+002, 1.047670e+003
8.372739e+002, 1.045860e+003
8.377560e+002, 1.044535e+003
8.382381e+002, 1.043635e+003
8.387202e+002, 1.043088e+003
8.392023e+002, 1.042830e+003
8.396844e+002, 1.042769e+003
8.401666e+002, 1.042908e+003
8.406487e+002, 1.042977e+003
8.411308e+002, 1.042444e+003
8.416129e+002, 1.041379e+003
8.420950e+002, 1.040166e+003
8.425771e+002, 1.038794e+003
8.430593e+002, 1.037963e+003
8.435414e+002, 1.038203e+003
8.440235e+002, 1.038896e+003
8.445056e+002, 1.038896e+003
8.449877e+002, 1.038068e+003
8.454698e+002, 1.037256e+003
8.459520e+002, 1.036897e+003
8.464341e+002, 1.035971e+003
8.469162e+002, 1.033191e+003
8.473983e+002, 1.030574e+003
8.478804e+002, 1.030305e+003
8.483625e+002, 1.032013e+003
8.488447e+002, 1.033128e+003
8.493268e+002, 1.032685e+003
8.498089e+002, 1.031719e+003
8.502910e+002, 1.030237e+003
8.507731e+002, 1.028917e+003
8.512552e+002, 1.028765e+003
8.517374e+002, 1.029530e+003
8.522195e+002, 1.030214e+003
8.527016e+002, 1.030356e+003
8.531837e+002, 1.030176e+003
8.536658e+002, 1.029927e+003
8.541479e+002, 1.029598e+003
8.546301e+002, 1.028891e+003
8.551122e+002, 1.027775e+003
8.555943e+002, 1.027864e+003
8.560764e+002, 1.030034e+003
8.565585e+002, 1.032361e+003
8.570406e+002, 1.032759e+003
8.575228e+002, 1.031383e+003
8.580049e+002, 1.029990e+003
8.584870e+002, 1.028690e+003
8.589691e+002, 1.027213e+003
8.594512e+002, 1.025129e+003
8.599333e+002, 1.023301e+003
8.604155e+002, 1.022151e+003
8.608976e+002, 1.021594e+003
8.613797e+002, 1.021555e+003
8.618618e+002, 1.022156e+003
8.623439e+002, 1.022466e+003
8.628260e+002, 1.022059e+003
8.633082e+002, 1.021245e+003
8.637903e+002, 1.019881e+003
8.642724e+002, 1.018428e+003
8.647545e+002, 1.017725e+003
8.652366e+002, 1.017864e+003
8.657188e+002, 1.018143e+003
8.662009e+002, 1.018054e+003
8.666830e+002, 1.017685e+003
8.671651e+002, 1.017016e+003
8.676472e+002, 1.016151e+003
8.681293e+002, 1.015970e+003
8.686115e+002, 1.016640e+003
8.690936e+002, 1.016819e+003
8.695757e+002, 1.015476e+003
8.700578e+002, 1.013733e+003
8.705399e+002, 1.014190e+003
8.710220e+002, 1.017773e+003
8.715042e+002, 1.018744e+003
8.719863e+002, 1.015088e+003
8.724684e+002, 1.012061e+003
8.729505e+002, 1.011981e+003
8.734326e+002, 1.012687e+003
8.739147e+002, 1.012297e+003
8.743969e+002, 1.010956e+003
8.748790e+002, 1.009904e+003
8.753611e+002, 1.009655e+003
8.758432e+002, 1.009353e+003
8.763253e+002, 1.008525e+003
8.768074e+002, 1.007676e+003
8.772896e+002, 1.006950e+003
8.777717e+002, 1.006627e+003
8.782538e+002, 1.007552e+003
8.787359e+002, 1.010003e+003
8.792180e+002, 1.012028e+003
8.797001e+002, 1.011338e+003
8.801823e+002, 1.009242e+003
8.806644e+002, 1.008107e+003
8.811465e+002, 1.007776e+003
8.816286e+002, 1.007364e+003
8.821107e+002, 1.006640e+003
8.825928e+002, 1.006173e+003
8.830750e+002, 1.006589e+003
8.835571e+002, 1.007398e+003
8.840392e+002, 1.006678e+003
8.845213e+002, 1.003990e+003
8.850034e+002, 1.002461e+003
8.854855e+002, 1.002968e+003
8.859677e+002, 1.003240e+003
8.864498e+002, 1.001992e+003
8.869319e+002, 9.999319e+002
8.874140e+002, 9.982174e+002
8.878961e+002, 9.969117e+002
8.883782e+002, 9.956126e+002
8.888604e+002, 9.937661e+002
8.893425e+002, 9.926555e+002
8.898246e+002, 9.931938e+002
8.903067e+002, 9.941749e+002
8.907888e+002, 9.949559e+002
8.912709e+002, 9.952310e+002
8.917531e+002, 9.943598e+002
8.922352e+002, 9.918076e+002
8.927173e+002, 9.890968e+002
8.931994e+002, 9.869750e+002
8.936815e+002, 9.854737e+002
8.941636e+002, 9.845723e+002
8.946458e+002, 9.843317e+002
8.951279e+002, 9.852999e+002
8.956100e+002, 9.874816e+002
8.960921e+002, 9.892584e+002
8.965742e+002, 9.889246e+002
8.970563e+002, 9.871944e+002
8.975385e+002, 9.857442e+002
8.980206e+002, 9.845947e+002
8.985027e+002, 9.842883e+002
8.989848e+002, 9.850129e+002
8.994669e+002, 9.855023e+002
8.999490e+002, 9.848903e+002
9.004312e+002, 9.835746e+002
9.009133e+002, 9.823859e+002
9.013954e+002, 9.811866e+002
9.018775e+002, 9.808371e+002
9.023596e+002, 9.822709e+002
9.028417e+002, 9.829562e+002
9.033239e+002, 9.814889e+002
9.038060e+002, 9.794473e+002
9.042881e+002, 9.784675e+002
9.047702e+002, 9.783340e+002
9.052523e+002, 9.775866e+002
9.057344e+002, 9.751843e+002
9.062166e+002, 9.734476e+002
9.066987e+002, 9.733941e+002
9.071808e+002, 9.737505e+002
9.076629e+002, 9.736866e+002
9.081450e+002, 9.733267e+002
9.086271e+002, 9.730878e+002
9.091093e+002, 9.730687e+002
9.095914e+002, 9.728906e+002
9.100735e+002, 9.722098e+002
9.105556e+002, 9.713089e+002
9.110377e+002, 9.704727e+002
9.115198e+002, 9.696614e+002
9.120020e+002, 9.687950e+002
9.124841e+002, 9.678625e+002
9.129662e+002, 9.667654e+002
9.134483e+002, 9.653625e+002
9.139304e+002, 9.643300e+002
9.144125e+002, 9.653727e+002
9.148947e+002, 9.680730e+002
9.153768e+002, 9.688162e+002
9.158589e+002, 9.673702e+002
9.163410e+002, 9.660002e+002
9.168231e+002, 9.655693e+002
9.173052e+002, 9.653524e+002
9.177874e+002, 9.645120e+002
9.182695e+002, 9.631379e+002
9.187516e+002, 9.620865e+002
9.192337e+002, 9.613401e+002
9.197158e+002, 9.609763e+002
9.201979e+002, 9.612627e+002
9.206801e+002, 9.615956e+002
9.211622e+002, 9.616375e+002
9.216443e+002, 9.615150e+002
9.221264e+002, 9.614821e+002
9.226085e+002, 9.616053e+002
9.230906e+002, 9.613524e+002
9.235728e+002, 9.602500e+002
9.240549e+002, 9.592451e+002
9.245370e+002, 9.585291e+002
9.250191e+002, 9.581897e+002
9.255012e+002, 9.584709e+002
9.259833e+002, 9.591850e+002
9.264655e+002, 9.598182e+002
9.269476e+002, 9.602076e+002
9.274297e+002, 9.603448e+002
9.279118e+002, 9.601913e+002
9.283939e+002, 9.598062e+002
9.288760e+002, 9.590281e+002
9.293582e+002, 9.581235e+002
9.298403e+002, 9.577811e+002
9.303224e+002, 9.580953e+002
9.308045e+002, 9.583479e+002
9.312866e+002, 9.579188e+002
9.317687e+002, 9.571826e+002
9.322509e+002, 9.568293e+002
9.327330e+002, 9.567988e+002
9.332151e+002, 9.569547e+002
9.336972e+002, 9.572533e+002
9.341793e+002, 9.569191e+002
9.346614e+002, 9.554828e+002
9.351436e+002, 9.538973e+002
9.356257e+002, 9.536095e+002
9.361078e+002, 9.545486e+002
9.365899e+002, 9.552535e+002
9.370720e+002, 9.556467e+002
9.375541e+002, 9.561100e+002
9.380363e+002, 9.567765e+002
9.385184e+002, 9.574031e+002
9.390005e+002, 9.579145e+002
9.394826e+002, 9.581926e+002
9.399647e+002, 9.578138e+002
9.404468e+002, 9.561321e+002
9.409290e+002, 9.555470e+002
9.414111e+002, 9.567165e+002
9.418932e+002, 9.580918e+002
9.423753e+002, 9.597291e+002
9.428574e+002, 9.610051e+002
9.433395e+002, 9.609318e+002
9.438217e+002, 9.598790e+002
9.443038e+002, 9.597139e+002
9.447859e+002, 9.612939e+002
9.452680e+002, 9.629553e+002
9.457501e+002, 9.642532e+002
9.462322e+002, 9.652789e+002
9.467144e+002, 9.657851e+002
9.471965e+002, 9.662052e+002
9.476786e+002, 9.673235e+002
9.481607e+002, 9.692356e+002
9.486428e+002, 9.711514e+002
9.491249e+002, 9.724395e+002
9.496071e+002, 9.736693e+002
9.500892e+002, 9.751866e+002
9.505713e+002, 9.771424e+002
9.510534e+002, 9.799679e+002
9.515355e+002, 9.835154e+002
9.520176e+002, 9.869631e+002
9.524998e+002, 9.899597e+002
9.529819e+002, 9.934346e+002
9.534640e+002, 9.988124e+002
9.539461e+002, 1.005437e+003
9.544282e+002, 1.011734e+003
9.549103e+002, 1.017574e+003
9.553925e+002, 1.021214e+003
9.558746e+002, 1.022296e+003
9.563567e+002, 1.024641e+003
9.568388e+002, 1.031094e+003
9.573209e+002, 1.039868e+003
9.578030e+002, 1.046973e+003
9.582852e+002, 1.052134e+003
9.587673e+002, 1.058870e+003
9.592494e+002, 1.067401e+003
9.597315e+002, 1.076587e+003
9.602136e+002, 1.086148e+003
9.606957e+002, 1.096156e+003
9.611779e+002, 1.106382e+003
9.616600e+002, 1.117128e+003
9.621421e+002, 1.129873e+003
9.626242e+002, 1.146031e+003
9.631063e+002, 1.161352e+003
9.635884e+002, 1.174442e+003
9.640706e+002, 1.188370e+003
9.645527e+002, 1.205859e+003
9.650348e+002, 1.223684e+003
9.655169e+002, 1.238308e+003
9.659990e+002, 1.249749e+003
9.664811e+002, 1.259939e+003
9.669633e+002, 1.269323e+003
9.674454e+002, 1.277124e+003
9.679275e+002, 1.283826e+003
9.684096e+002, 1.288267e+003
9.688917e+002, 1.289787e+003
9.693738e+002, 1.288491e+003
9.698560e+002, 1.284423e+003
9.703381e+002, 1.277629e+003
9.708202e+002, 1.269185e+003
9.713023e+002, 1.258981e+003
9.717844e+002, 1.248005e+003
9.722665e+002, 1.236191e+003
9.727487e+002, 1.224518e+003
9.732308e+002, 1.214938e+003
9.737129e+002, 1.206578e+003
9.741950e+002, 1.196432e+003
9.746771e+002, 1.183370e+003
9.751592e+002, 1.170133e+003
9.756414e+002, 1.159267e+003
9.761235e+002, 1.149693e+003
9.766056e+002, 1.139444e+003
9.770877e+002, 1.129265e+003
9.775698e+002, 1.121393e+003
9.780519e+002, 1.115815e+003
9.785341e+002, 1.110101e+003
9.790162e+002, 1.102793e+003
9.794983e+002, 1.095143e+003
9.799804e+002, 1.089105e+003
9.804625e+002, 1.084242e+003
9.809446e+002, 1.078611e+003
9.814268e+002, 1.072356e+003
9.819089e+002, 1.067339e+003
9.823910e+002, 1.064070e+003
9.828731e+002, 1.060965e+003
9.833552e+002, 1.056698e+003
9.838373e+002, 1.051970e+003
9.843195e+002, 1.048666e+003
9.848016e+002, 1.046867e+003
9.852837e+002, 1.044841e+003
9.857658e+002, 1.042539e+003
9.862479e+002, 1.039912e+003
9.867300e+002, 1.036722e+003
9.872122e+002, 1.033857e+003
9.876943e+002, 1.032312e+003
9.881764e+002, 1.031800e+003
9.886585e+002, 1.030745e+003
9.891406e+002, 1.028922e+003
9.896227e+002, 1.027147e+003
9.901049e+002, 1.025179e+003
9.905870e+002, 1.023756e+003
9.910691e+002, 1.023258e+003
9.915512e+002, 1.023382e+003
9.920333e+002, 1.023972e+003
9.925154e+002, 1.024999e+003
9.929976e+002, 1.025473e+003
9.934797e+002, 1.024993e+003
9.939618e+002, 1.024577e+003
9.944439e+002, 1.024120e+003
9.949260e+002, 1.023910e+003
9.954081e+002, 1.024001e+003
9.958903e+002, 1.024464e+003
9.963724e+002, 1.025484e+003
9.968545e+002, 1.027057e+003
9.973366e+002, 1.028632e+003
9.978187e+002, 1.030386e+003
9.983008e+002, 1.031737e+003
9.987830e+002, 1.032074e+003
9.992651e+002, 1.032383e+003
9.997472e+002, 1.033197e+003
1.000229e+003, 1.034560e+003
1.000711e+003, 1.036549e+003
1.001194e+003, 1.039155e+003
1.001676e+003, 1.041877e+003
1.002158e+003, 1.044516e+003
1.002640e+003, 1.047194e+003
1.003122e+003, 1.050125e+003
1.003604e+003, 1.053025e+003
1.004086e+003, 1.055492e+003
1.004568e+003, 1.057711e+003
1.005050e+003, 1.060320e+003
1.005533e+003, 1.063501e+003
1.006015e+003, 1.066301e+003
1.006497e+003, 1.067572e+003
1.006979e+003, 1.068635e+003
1.007461e+003, 1.071057e+003
1.007943e+003, 1.073984e+003
1.008425e+003, 1.075867e+003
1.008907e+003, 1.076903e+003
1.009390e+003, 1.078515e+003
1.009872e+003, 1.081308e+003
1.010354e+003, 1.083945e+003
1.010836e+003, 1.085174e+003
1.011318e+003, 1.085387e+003
1.011800e+003, 1.084716e+003
1.012282e+003, 1.083664e+003
1.012764e+003, 1.083811e+003
1.013246e+003, 1.085068e+003
1.013729e+003, 1.085690e+003
1.014211e+003, 1.084761e+003
1.014693e+003, 1.082676e+003
1.015175e+003, 1.079952e+003
1.015657e+003, 1.076483e+003
1.016139e+003, 1.071420e+003
1.016621e+003, 1.065214e+003
1.017103e+003, 1.060438e+003
1.017586e+003, 1.057471e+003
1.018068e+003, 1.054161e+003
1.018550e+003, 1.049175e+003
1.019032e+003, 1.043417e+003
1.019514e+003, 1.038491e+003
1.019996e+003, 1.034226e+003
1.020478e+003, 1.029396e+003
1.020960e+003, 1.024018e+003
1.021442e+003, 1.019018e+003
1.021925e+003, 1.014612e+003
1.022407e+003, 1.010889e+003
1.022889e+003, 1.008053e+003
1.023371e+003, 1.005489e+003
1.023853e+003, 1.001843e+003
1.024335e+003, 9.971006e+002
1.024817e+003, 9.926498e+002
1.025299e+003, 9.884363e+002
1.025781e+003, 9.849199e+002
1.026264e+003, 9.822575e+002
1.026746e+003, 9.800518e+002
1.027228e+003, 9.780573e+002
1.027710e+003, 9.762474e+002
1.028192e+003, 9.746789e+002
1.028674e+003, 9.735168e+002
1.029156e+003, 9.711085e+002
1.029638e+003, 9.668184e+002
1.030120e+003, 9.634786e+002
1.030603e+003, 9.619481e+002
1.031085e+003, 9.612889e+002
1.031567e+003, 9.611101e+002
1.032049e+003, 9.609935e+002
1.032531e+003, 9.597205e+002
1.033013e+003, 9.569035e+002
1.033495e+003, 9.547064e+002
1.033977e+003, 9.533923e+002
1.034460e+003, 9.521945e+002
1.034942e+003, 9.512549e+002
1.035424e+003, 9.498907e+002
1.035906e+003, 9.471826e+002
1.036388e+003, 9.437919e+002
1.036870e+003, 9.416663e+002
1.037352e+003, 9.412432e+002
1.037834e+003, 9.406143e+002
1.038317e+003, 9.400209e+002
1.038799e+003, 9.388415e+002
1.039281e+003, 9.363382e+002
1.039763e+003, 9.337977e+002
1.040245e+003, 9.322158e+002
1.040727e+003, 9.313393e+002
1.041209e+003, 9.304779e+002
1.041691e+003, 9.297886e+002
1.042173e+003, 9.286193e+002
1.042656e+003, 9.264530e+002
1.043138e+003, 9.244659e+002
1.043620e+003, 9.228000e+002
1.044102e+003, 9.215355e+002
1.044584e+003, 9.209801e+002
1.045066e+003, 9.208246e+002
1.045548e+003, 9.203389e+002
1.046030e+003, 9.194850e+002
1.046512e+003, 9.182503e+002
1.046995e+003, 9.162100e+002
1.047477e+003, 9.143493e+002
1.047959e+003, 9.127874e+002
1.048441e+003, 9.116671e+002
1.048923e+003, 9.113871e+002
1.049405e+003, 9.115749e+002
1.049887e+003, 9.112387e+002
1.050369e+003, 9.100279e+002
1.050852e+003, 9.095613e+002
1.051334e+003, 9.110995e+002
1.051816e+003, 9.121823e+002
1.052298e+003, 9.115270e+002
1.052780e+003, 9.104838e+002
1.053262e+003, 9.101949e+002
1.053744e+003, 9.103830e+002
1.054226e+003, 9.101857e+002
1.054708e+003, 9.093749e+002
1.055191e+003, 9.089294e+002
1.055673e+003, 9.092982e+002
1.056155e+003, 9.098301e+002
1.056637e+003, 9.106183e+002
1.057119e+003, 9.111515e+002
1.057601e+003, 9.110999e+002
1.058083e+003, 9.104435e+002
1.058565e+003, 9.088210e+002
1.059047e+003, 9.060527e+002
1.059530e+003, 9.046706e+002
1.060012e+003, 9.070434e+002
1.060494e+003, 9.089958e+002
1.060976e+003, 9.083156e+002
1.061458e+003, 9.068978e+002
1.061940e+003, 9.066048e+002
1.062422e+003, 9.066898e+002
1.062904e+003, 9.050889e+002
1.063387e+003, 9.014406e+002
1.063869e+003, 8.988614e+002
1.064351e+003, 8.998015e+002
1.064833e+003, 9.003752e+002
1.065315e+003, 8.982872e+002
1.065797e+003, 8.956426e+002
1.066279e+003, 8.942448e+002
1.066761e+003, 8.935889e+002
1.067244e+003, 8.923135e+002
1.067726e+003, 8.902762e+002
1.068208e+003, 8.892283e+002
1.068690e+003, 8.913621e+002
1.069172e+003, 8.926363e+002
1.069654e+003, 8.902398e+002
1.070136e+003, 8.871844e+002
1.070618e+003, 8.859020e+002
1.071100e+003, 8.856761e+002
1.071583e+003, 8.850535e+002
1.072065e+003, 8.838531e+002
1.072547e+003, 8.829572e+002
1.073029e+003, 8.829818e+002
1.073511e+003, 8.829191e+002
1.073993e+003, 8.823556e+002
1.074475e+003, 8.814573e+002
1.074957e+003, 8.800837e+002
1.075439e+003, 8.786102e+002
1.075922e+003, 8.773734e+002
1.076404e+003, 8.765258e+002
1.076886e+003, 8.764860e+002
1.077368e+003, 8.778788e+002
1.077850e+003, 8.790276e+002
1.078332e+003, 8.790912e+002
1.078814e+003, 8.786956e+002
1.079297e+003, 8.780988e+002
1.079779e+003, 8.774454e+002
1.080261e+003, 8.769766e+002
1.080743e+003, 8.766091e+002
1.081225e+003, 8.759013e+002
1.081707e+003, 8.745925e+002
1.082189e+003, 8.733148e+002
1.082671e+003, 8.720858e+002
1.083153e+003, 8.712891e+002
1.083635e+003, 8.712101e+002
1.084118e+003, 8.716847e+002
1.084600e+003, 8.730549e+002
1.085082e+003, 8.747717e+002
1.085564e+003, 8.751141e+002
1.086046e+003, 8.733167e+002
1.086528e+003, 8.717108e+002
1.087010e+003, 8.719948e+002
1.087492e+003, 8.718922e+002
1.087975e+003, 8.691188e+002
1.088457e+003, 8.661577e+002
1.088939e+003, 8.658131e+002
1.089421e+003, 8.673629e+002
1.089903e+003, 8.685627e+002
1.090385e+003, 8.688989e+002
1.090867e+003, 8.689076e+002
1.091349e+003, 8.690148e+002
1.091832e+003, 8.685505e+002
1.092314e+003, 8.664952e+002
1.092796e+003, 8.643884e+002
1.093278e+003, 8.637164e+002
1.093760e+003, 8.639194e+002
1.094242e+003, 8.638212e+002
1.094724e+003, 8.632172e+002
1.095206e+003, 8.624804e+002
1.095688e+003, 8.611735e+002
1.096171e+003, 8.605225e+002
1.096653e+003, 8.618257e+002
1.097135e+003, 8.630271e+002
1.097617e+003, 8.624452e+002
1.098099e+003, 8.609792e+002
1.098581e+003, 8.598942e+002
1.099063e+003, 8.593652e+002
1.099545e+003, 8.593604e+002
1.100027e+003, 8.606717e+002
1.100510e+003, 8.611465e+002
1.100992e+003, 8.594691e+002
1.101474e+003, 8.576995e+002
1.101956e+003, 8.567406e+002
1.102438e+003, 8.564442e+002
1.102920e+003, 8.565107e+002
1.103402e+003, 8.570039e+002
1.103884e+003, 8.584191e+002
1.104367e+003, 8.614823e+002
1.104849e+003, 8.638340e+002
1.105331e+003, 8.652623e+002
1.105813e+003, 8.656512e+002
1.106295e+003, 8.642806e+002
1.106777e+003, 8.624271e+002
1.107259e+003, 8.607731e+002
1.107741e+003, 8.596287e+002
1.108224e+003, 8.600847e+002
1.108706e+003, 8.631861e+002
1.109188e+003, 8.639778e+002
1.109670e+003, 8.595551e+002
1.110152e+003, 8.562224e+002
1.110634e+003, 8.563358e+002
1.111116e+003, 8.570600e+002
1.111598e+003, 8.566367e+002
1.112080e+003, 8.554769e+002
1.112563e+003, 8.543474e+002
1.113045e+003, 8.532549e+002
1.113527e+003, 8.522506e+002
1.114009e+003, 8.514792e+002
1.114491e+003, 8.505488e+002
1.114973e+003, 8.489559e+002
1.115455e+003, 8.478517e+002
1.115937e+003, 8.483196e+002
1.116419e+003, 8.490973e+002
1.116902e+003, 8.482490e+002
1.117384e+003, 8.460162e+002
1.117866e+003, 8.453541e+002
1.118348e+003, 8.474764e+002
1.118830e+003, 8.482762e+002
1.119312e+003, 8.468313e+002
1.119794e+003, 8.456731e+002
1.120276e+003, 8.460159e+002
1.120759e+003, 8.464108e+002
1.121241e+003, 8.451953e+002
1.121723e+003, 8.430899e+002
1.122205e+003, 8.428322e+002
1.122687e+003, 8.451161e+002
1.123169e+003, 8.458821e+002
1.123651e+003, 8.445792e+002
1.124133e+003, 8.436190e+002
1.124615e+003, 8.437470e+002
1.125098e+003, 8.438336e+002
1.125580e+003, 8.430306e+002
1.126062e+003, 8.418129e+002
1.126544e+003, 8.410090e+002
1.127026e+003, 8.406339e+002
1.127508e+003, 8.415247e+002
1.127990e+003, 8.440106e+002
1.128472e+003, 8.447295e+002
1.128954e+003, 8.429254e+002
1.129437e+003, 8.411684e+002
1.129919e+003, 8.407133e+002
1.130401e+003, 8.408495e+002
1.130883e+003, 8.406415e+002
1.131365e+003, 8.403437e+002
1.131847e+003, 8.413568e+002
1.132329e+003, 8.435449e+002
1.132811e+003, 8.438652e+002
1.133294e+003, 8.421596e+002
1.133776e+003, 8.413671e+002
1.134258e+003, 8.424680e+002
1.134740e+003, 8.440240e+002
1.135222e+003, 8.449352e+002
1.135704e+003, 8.451127e+002
1.136186e+003, 8.436849e+002
1.136668e+003, 8.414252e+002
1.137151e+003, 8.421625e+002
1.137633e+003, 8.451352e+002
1.138115e+003, 8.457984e+002
1.138597e+003, 8.435635e+002
1.139079e+003, 8.417556e+002
1.139561e+003, 8.422230e+002
1.140043e+003, 8.436210e+002
1.140525e+003, 8.446788e+002
1.141007e+003, 8.453241e+002
1.141490e+003, 8.452969e+002
1.141972e+003, 8.447844e+002
1.142454e+003, 8.437235e+002
1.142936e+003, 8.425865e+002
1.143418e+003, 8.433193e+002
1.143900e+003, 8.462939e+002
1.144382e+003, 8.483736e+002
1.144864e+003, 8.467197e+002
1.145346e+003, 8.440422e+002
1.145829e+003, 8.431505e+002
1.146311e+003, 8.430226e+002
1.146793e+003, 8.423908e+002
1.147275e+003, 8.414777e+002
1.147757e+003, 8.409918e+002
1.148239e+003, 8.409389e+002
1.148721e+003, 8.406377e+002
1.149203e+003, 8.396821e+002
1.149686e+003, 8.389466e+002
1.150168e+003, 8.394443e+002
1.150650e+003, 8.398786e+002
1.151132e+003, 8.390302e+002
1.151614e+003, 8.378031e+002
1.152096e+003, 8.372296e+002
1.152578e+003, 8.371985e+002
1.153060e+003, 8.372032e+002
1.153542e+003, 8.371353e+002
1.154025e+003, 8.369007e+002
1.154507e+003, 8.360756e+002
1.154989e+003, 8.356153e+002
1.155471e+003, 8.363768e+002
1.155953e+003, 8.370339e+002
1.156435e+003, 8.363967e+002
1.156917e+003, 8.353136e+002
1.157399e+003, 8.352167e+002
1.157881e+003, 8.359996e+002
1.158364e+003, 8.359105e+002
1.158846e+003, 8.340759e+002
1.159328e+003, 8.327034e+002
1.159810e+003, 8.320569e+002
1.160292e+003, 8.317341e+002
1.160774e+003, 8.318622e+002
1.161256e+003, 8.320143e+002
1.161738e+003, 8.318015e+002
1.162221e+003, 8.314043e+002
1.162703e+003, 8.313203e+002
1.163185e+003, 8.316650e+002
1.163667e+003, 8.313092e+002
1.164149e+003, 8.297578e+002
1.164631e+003, 8.289979e+002
1.165113e+003, 8.294737e+002
1.165595e+003, 8.304675e+002
1.166078e+003, 8.319848e+002
1.166560e+003, 8.328675e+002
1.167042e+003, 8.314057e+002
1.167524e+003, 8.283066e+002
1.168006e+003, 8.269643e+002
1.168488e+003, 8.274235e+002
1.168970e+003, 8.282948e+002
1.169452e+003, 8.295416e+002
1.169934e+003, 8.299009e+002
1.170417e+003, 8.289880e+002
1.170899e+003, 8.279160e+002
1.171381e+003, 8.274931e+002
1.171863e+003, 8.274177e+002
1.172345e+003, 8.271757e+002
1.172827e+003, 8.268593e+002
1.173309e+003, 8.270555e+002
1.173791e+003, 8.274688e+002
1.174273e+003, 8.265792e+002
1.174756e+003, 8.245667e+002
1.175238e+003, 8.235339e+002
1.175720e+003, 8.242380e+002
1.176202e+003, 8.250568e+002
1.176684e+003, 8.245058e+002
1.177166e+003, 8.235334e+002
1.177648e+003, 8.234539e+002
1.178130e+003, 8.236267e+002
1.178613e+003, 8.229205e+002
1.179095e+003, 8.217833e+002
1.179577e+003, 8.212581e+002
1.180059e+003, 8.214195e+002
1.180541e+003, 8.216285e+002
1.181023e+003, 8.216102e+002
1.181505e+003, 8.216207e+002
1.181987e+003, 8.221263e+002
1.182469e+003, 8.223457e+002
1.182952e+003, 8.211787e+002
1.183434e+003, 8.199839e+002
1.183916e+003, 8.204785e+002
1.184398e+003, 8.218342e+002
1.184880e+003, 8.221261e+002
1.185362e+003, 8.211144e+002
1.185844e+003, 8.204964e+002
1.186326e+003, 8.212379e+002
1.186808e+003, 8.215078e+002
1.187291e+003, 8.203041e+002
1.187773e+003, 8.194137e+002
1.188255e+003, 8.201435e+002
1.188737e+003, 8.210797e+002
1.189219e+003, 8.206512e+002
1.189701e+003, 8.193991e+002
1.190183e+003, 8.191235e+002
1.190665e+003, 8.202553e+002
1.191148e+003, 8.199255e+002
1.191630e+003, 8.170140e+002
1.192112e+003, 8.159987e+002
1.192594e+003, 8.184281e+002
1.193076e+003, 8.204041e+002
1.193558e+003, 8.197658e+002
1.194040e+003, 8.181145e+002
1.194522e+003, 8.174753e+002
1.195005e+003, 8.175637e+002
1.195487e+003, 8.170041e+002
1.195969e+003, 8.158589e+002
1.196451e+003, 8.161065e+002
1.196933e+003, 8.177468e+002
1.197415e+003, 8.183935e+002
1.197897e+003, 8.174781e+002
1.198379e+003, 8.164969e+002
1.198861e+003, 8.163796e+002
1.199344e+003, 8.168736e+002
1.199826e+003, 8.180209e+002
1.200308e+003, 8.192747e+002
1.200790e+003, 8.194702e+002
1.201272e+003, 8.189084e+002
1.201754e+003, 8.180453e+002
1.202236e+003, 8.170948e+002
1.202718e+003, 8.165271e+002
1.203200e+003, 8.163890e+002
1.203683e+003, 8.159368e+002
1.204165e+003, 8.144513e+002
1.204647e+003, 8.132925e+002
1.205129e+003, 8.138231e+002
1.205611e+003, 8.147571e+002
1.206093e+003, 8.152523e+002
1.206575e+003, 8.153171e+002
1.207057e+003, 8.150919e+002
1.207540e+003, 8.145038e+002
1.208022e+003, 8.130089e+002
1.208504e+003, 8.103385e+002
1.208986e+003, 8.089843e+002
1.209468e+003, 8.104616e+002
1.209950e+003, 8.119133e+002
1.210432e+003, 8.127292e+002
1.210914e+003, 8.133567e+002
1.211396e+003, 8.142551e+002
1.211879e+003, 8.148739e+002
1.212361e+003, 8.144760e+002
1.212843e+003, 8.133375e+002
1.213325e+003, 8.126109e+002
1.213807e+003, 8.124848e+002
1.214289e+003, 8.117680e+002
1.214771e+003, 8.101244e+002
1.215253e+003, 8.093751e+002
1.215735e+003, 8.100885e+002
1.216218e+003, 8.107069e+002
1.216700e+003, 8.103705e+002
1.217182e+003, 8.096389e+002
1.217664e+003, 8.091394e+002
1.218146e+003, 8.088995e+002
1.218628e+003, 8.090137e+002
1.219110e+003, 8.094575e+002
1.219592e+003, 8.103112e+002
1.220075e+003, 8.114063e+002
1.220557e+003, 8.118735e+002
1.221039e+003, 8.115842e+002
1.221521e+003, 8.111796e+002
1.222003e+003, 8.110131e+002
1.222485e+003, 8.108327e+002
1.222967e+003, 8.105121e+002
1.223449e+003, 8.099134e+002
1.223932e+003, 8.085805e+002
1.224414e+003, 8.071004e+002
1.224896e+003, 8.061853e+002
1.225378e+003, 8.057676e+002
1.225860e+003, 8.056113e+002
1.226342e+003, 8.056451e+002
1.226824e+003, 8.058751e+002
1.227306e+003, 8.065616e+002
1.227788e+003, 8.067001e+002
1.228271e+003, 8.049510e+002
1.228753e+003, 8.038923e+002
1.229235e+003, 8.053541e+002
1.229717e+003, 8.072220e+002
1.230199e+003, 8.081868e+002
1.230681e+003, 8.081915e+002
1.231163e+003, 8.069143e+002
1.231645e+003, 8.044081e+002
1.232127e+003, 8.032221e+002
1.232610e+003, 8.035896e+002
1.233092e+003, 8.047861e+002
1.233574e+003, 8.074073e+002
1.234056e+003, 8.084892e+002
1.234538e+003, 8.068797e+002
1.235020e+003, 8.047198e+002
1.235502e+003, 8.035518e+002
1.235984e+003, 8.029381e+002
1.236467e+003, 8.020615e+002
1.236949e+003, 8.011432e+002
1.237431e+003, 8.012881e+002
1.237913e+003, 8.022565e+002
1.238395e+003, 8.032227e+002
1.238877e+003, 8.039352e+002
1.239359e+003, 8.034960e+002
1.239841e+003, 8.018717e+002
1.240323e+003, 8.009211e+002
1.240806e+003, 8.020270e+002
1.241288e+003, 8.032008e+002
1.241770e+003, 8.022751e+002
1.242252e+003, 8.007713e+002
1.242734e+003, 7.999554e+002
1.243216e+003, 7.996266e+002
1.243698e+003, 7.996734e+002
1.244180e+003, 7.998721e+002
1.244662e+003, 7.997612e+002
1.245145e+003, 7.993153e+002
1.245627e+003, 7.992842e+002
1.246109e+003, 8.005514e+002
1.246591e+003, 8.009896e+002
1.247073e+003, 7.993321e+002
1.247555e+003, 7.980412e+002
1.248037e+003, 7.982825e+002
1.248519e+003, 7.987716e+002
1.249002e+003, 7.986947e+002
1.249484e+003, 7.981951e+002
1.249966e+003, 7.974667e+002
1.250448e+003, 7.965371e+002
1.250930e+003, 7.957264e+002
1.251412e+003, 7.949482e+002
1.251894e+003, 7.954704e+002
1.252376e+003, 7.974509e+002
1.252859e+003, 7.988681e+002
1.253341e+003, 7.991083e+002
1.253823e+003, 7.989970e+002
1.254305e+003, 7.990856e+002
1.254787e+003, 7.992113e+002
1.255269e+003, 7.989120e+002
1.255751e+003, 7.986761e+002
1.256233e+003, 7.997835e+002
1.256715e+003, 8.014242e+002
1.257198e+003, 8.022228e+002
1.257680e+003, 8.021777e+002
1.258162e+003, 8.014655e+002
1.258644e+003, 8.003226e+002
1.259126e+003, 7.995593e+002
1.259608e+003, 7.995406e+002
1.260090e+003, 7.998674e+002
1.260572e+003, 8.008399e+002
1.261054e+003, 8.014832e+002
1.261537e+003, 8.011013e+002
1.262019e+003, 8.004527e+002
1.262501e+003, 8.001475e+002
1.262983e+003, 7.999454e+002
1.263465e+003, 7.992527e+002
1.263947e+003, 7.982151e+002
1.264429e+003, 7.980319e+002
1.264911e+003, 7.990692e+002
1.265394e+003, 7.997786e+002
1.265876e+003, 8.002629e+002
1.266358e+003, 7.996599e+002
1.266840e+003, 7.975294e+002
1.267322e+003, 7.961181e+002
1.267804e+003, 7.967122e+002
1.268286e+003, 7.981121e+002
1.268768e+003, 7.989474e+002
1.269250e+003, 7.993887e+002
1.269733e+003, 7.997668e+002
1.270215e+003, 8.000858e+002
1.270697e+003, 8.003325e+002
1.271179e+003, 8.005420e+002
1.271661e+003, 8.008477e+002
1.272143e+003, 8.012100e+002
1.272625e+003, 8.014758e+002
1.273107e+003, 8.015878e+002
1.273589e+003, 8.012745e+002
1.274072e+003, 7.995452e+002
1.274554e+003, 7.985125e+002
1.275036e+003, 8.003718e+002
1.275518e+003, 8.019744e+002
1.276000e+003, 8.008180e+002
1.276482e+003, 7.985916e+002
1.276964e+003, 7.968596e+002
1.277446e+003, 7.959255e+002
1.277929e+003, 7.962604e+002
1.278411e+003, 7.981028e+002
1.278893e+003, 7.986798e+002
1.279375e+003, 7.974908e+002
1.279857e+003, 7.970548e+002
1.280339e+003, 7.978234e+002
1.280821e+003, 7.982398e+002
1.281303e+003, 7.977457e+002
1.281786e+003, 7.974874e+002
1.282268e+003, 7.982233e+002
##END=



