##NAMES=Galeite
##RRUFFID=R160078
##IDEAL CHEMISTRY=Na_15_(S^6+^O_4_)_5_ClF_4_
##LOCALITY=Searles Lake, San Bernardino County, California, USA
##OWNER=UAMM
##SOURCE=Rock Currier
##DESCRIPTION=Colorless to pale grey barrel-shaped crystals, intergrown with schairerite
##STATUS=The identification of this mineral has been confirmed by single-crystal X-ray diffraction.
##URL=rruff.info/R160078
8.813672e+001, 1.187476e+004
8.861884e+001, 1.198762e+004
8.910095e+001, 1.212252e+004
8.958307e+001, 1.234958e+004
9.006519e+001, 1.263062e+004
9.054730e+001, 1.288053e+004
9.102942e+001, 1.310086e+004
9.151154e+001, 1.329726e+004
9.199365e+001, 1.347646e+004
9.247577e+001, 1.364301e+004
9.295789e+001, 1.379894e+004
9.344000e+001, 1.394411e+004
9.392212e+001, 1.406804e+004
9.440424e+001, 1.417804e+004
9.488635e+001, 1.429361e+004
9.536847e+001, 1.441745e+004
9.585059e+001, 1.454473e+004
9.633270e+001, 1.467429e+004
9.681482e+001, 1.480992e+004
9.729694e+001, 1.495327e+004
9.777905e+001, 1.510455e+004
9.826117e+001, 1.526295e+004
9.874329e+001, 1.542761e+004
9.922540e+001, 1.559688e+004
9.970752e+001, 1.576790e+004
1.001896e+002, 1.593698e+004
1.006718e+002, 1.610785e+004
1.011539e+002, 1.628417e+004
1.016360e+002, 1.646779e+004
1.021181e+002, 1.665479e+004
1.026002e+002, 1.684237e+004
1.030823e+002, 1.702987e+004
1.035645e+002, 1.722320e+004
1.040466e+002, 1.742846e+004
1.045287e+002, 1.763804e+004
1.050108e+002, 1.784140e+004
1.054929e+002, 1.802996e+004
1.059750e+002, 1.822559e+004
1.064572e+002, 1.843721e+004
1.069393e+002, 1.868041e+004
1.074214e+002, 1.891462e+004
1.079035e+002, 1.913722e+004
1.083856e+002, 1.935376e+004
1.088677e+002, 1.957224e+004
1.093499e+002, 1.980618e+004
1.098320e+002, 2.003674e+004
1.103141e+002, 2.025571e+004
1.107962e+002, 2.044755e+004
1.112783e+002, 2.065058e+004
1.117604e+002, 2.087634e+004
1.122426e+002, 2.112300e+004
1.127247e+002, 2.136102e+004
1.132068e+002, 2.158113e+004
1.136889e+002, 2.179456e+004
1.141710e+002, 2.200665e+004
1.146531e+002, 2.222293e+004
1.151353e+002, 2.243284e+004
1.156174e+002, 2.263378e+004
1.160995e+002, 2.282465e+004
1.165816e+002, 2.301762e+004
1.170637e+002, 2.321928e+004
1.175458e+002, 2.342306e+004
1.180280e+002, 2.362451e+004
1.185101e+002, 2.382052e+004
1.189922e+002, 2.401224e+004
1.194743e+002, 2.419568e+004
1.199564e+002, 2.437013e+004
1.204385e+002, 2.454503e+004
1.209207e+002, 2.472513e+004
1.214028e+002, 2.490918e+004
1.218849e+002, 2.509446e+004
1.223670e+002, 2.528370e+004
1.228491e+002, 2.547399e+004
1.233312e+002, 2.566160e+004
1.238134e+002, 2.584767e+004
1.242955e+002, 2.602883e+004
1.247776e+002, 2.619687e+004
1.252597e+002, 2.635572e+004
1.257418e+002, 2.651865e+004
1.262239e+002, 2.669466e+004
1.267061e+002, 2.688182e+004
1.271882e+002, 2.707052e+004
1.276703e+002, 2.726135e+004
1.281524e+002, 2.745478e+004
1.286345e+002, 2.765199e+004
1.291166e+002, 2.785268e+004
1.295988e+002, 2.805467e+004
1.300809e+002, 2.825650e+004
1.305630e+002, 2.845792e+004
1.310451e+002, 2.865945e+004
1.315272e+002, 2.885896e+004
1.320093e+002, 2.905650e+004
1.324915e+002, 2.925623e+004
1.329736e+002, 2.945779e+004
1.334557e+002, 2.965789e+004
1.339378e+002, 2.984865e+004
1.344199e+002, 3.003023e+004
1.349020e+002, 3.021313e+004
1.353842e+002, 3.040168e+004
1.358663e+002, 3.059033e+004
1.363484e+002, 3.077456e+004
1.368305e+002, 3.095548e+004
1.373126e+002, 3.112466e+004
1.377947e+002, 3.126677e+004
1.382769e+002, 3.137678e+004
1.387590e+002, 3.148644e+004
1.392411e+002, 3.160963e+004
1.397232e+002, 3.174835e+004
1.402053e+002, 3.184600e+004
1.406874e+002, 3.189127e+004
1.411696e+002, 3.191373e+004
1.416517e+002, 3.195363e+004
1.421338e+002, 3.202279e+004
1.426159e+002, 3.208741e+004
1.430980e+002, 3.214000e+004
1.435801e+002, 3.218093e+004
1.440623e+002, 3.221313e+004
1.445444e+002, 3.223668e+004
1.450265e+002, 3.225404e+004
1.455086e+002, 3.226721e+004
1.459907e+002, 3.226971e+004
1.464728e+002, 3.227929e+004
1.469550e+002, 3.230445e+004
1.474371e+002, 3.235813e+004
1.479192e+002, 3.239843e+004
1.484013e+002, 3.241494e+004
1.488834e+002, 3.241915e+004
1.493655e+002, 3.243663e+004
1.498477e+002, 3.247958e+004
1.503298e+002, 3.252495e+004
1.508119e+002, 3.256471e+004
1.512940e+002, 3.260445e+004
1.517761e+002, 3.262998e+004
1.522583e+002, 3.262706e+004
1.527404e+002, 3.260715e+004
1.532225e+002, 3.260313e+004
1.537046e+002, 3.263272e+004
1.541867e+002, 3.266784e+004
1.546688e+002, 3.269566e+004
1.551510e+002, 3.271155e+004
1.556331e+002, 3.272466e+004
1.561152e+002, 3.273360e+004
1.565973e+002, 3.274013e+004
1.570794e+002, 3.275060e+004
1.575615e+002, 3.276146e+004
1.580437e+002, 3.278010e+004
1.585258e+002, 3.281124e+004
1.590079e+002, 3.287329e+004
1.594900e+002, 3.293001e+004
1.599721e+002, 3.297088e+004
1.604542e+002, 3.299750e+004
1.609364e+002, 3.301887e+004
1.614185e+002, 3.302889e+004
1.619006e+002, 3.303948e+004
1.623827e+002, 3.306019e+004
1.628648e+002, 3.311048e+004
1.633469e+002, 3.315662e+004
1.638291e+002, 3.317686e+004
1.643112e+002, 3.317399e+004
1.647933e+002, 3.317957e+004
1.652754e+002, 3.322098e+004
1.657575e+002, 3.327452e+004
1.662396e+002, 3.331530e+004
1.667218e+002, 3.331965e+004
1.672039e+002, 3.331954e+004
1.676860e+002, 3.333599e+004
1.681681e+002, 3.336882e+004
1.686502e+002, 3.340551e+004
1.691323e+002, 3.344364e+004
1.696145e+002, 3.347952e+004
1.700966e+002, 3.350782e+004
1.705787e+002, 3.351905e+004
1.710608e+002, 3.352641e+004
1.715429e+002, 3.353792e+004
1.720250e+002, 3.355384e+004
1.725072e+002, 3.358176e+004
1.729893e+002, 3.363948e+004
1.734714e+002, 3.371321e+004
1.739535e+002, 3.377741e+004
1.744356e+002, 3.381338e+004
1.749177e+002, 3.383697e+004
1.753999e+002, 3.386844e+004
1.758820e+002, 3.390948e+004
1.763641e+002, 3.394939e+004
1.768462e+002, 3.397622e+004
1.773283e+002, 3.399410e+004
1.778104e+002, 3.401416e+004
1.782926e+002, 3.404049e+004
1.787747e+002, 3.407179e+004
1.792568e+002, 3.410630e+004
1.797389e+002, 3.414334e+004
1.802210e+002, 3.418315e+004
1.807031e+002, 3.422649e+004
1.811853e+002, 3.427241e+004
1.816674e+002, 3.431692e+004
1.821495e+002, 3.436489e+004
1.826316e+002, 3.440968e+004
1.831137e+002, 3.443082e+004
1.835958e+002, 3.442457e+004
1.840780e+002, 3.440862e+004
1.845601e+002, 3.440357e+004
1.850422e+002, 3.440926e+004
1.855243e+002, 3.442099e+004
1.860064e+002, 3.444264e+004
1.864885e+002, 3.447030e+004
1.869707e+002, 3.448534e+004
1.874528e+002, 3.448398e+004
1.879349e+002, 3.447938e+004
1.884170e+002, 3.449062e+004
1.888991e+002, 3.451730e+004
1.893812e+002, 3.455165e+004
1.898634e+002, 3.459711e+004
1.903455e+002, 3.464960e+004
1.908276e+002, 3.468233e+004
1.913097e+002, 3.468808e+004
1.917918e+002, 3.468478e+004
1.922739e+002, 3.470644e+004
1.927561e+002, 3.475391e+004
1.932382e+002, 3.480180e+004
1.937203e+002, 3.483296e+004
1.942024e+002, 3.484873e+004
1.946845e+002, 3.487499e+004
1.951666e+002, 3.491684e+004
1.956488e+002, 3.496413e+004
1.961309e+002, 3.499538e+004
1.966130e+002, 3.500939e+004
1.970951e+002, 3.502121e+004
1.975772e+002, 3.503893e+004
1.980593e+002, 3.506277e+004
1.985415e+002, 3.509082e+004
1.990236e+002, 3.512595e+004
1.995057e+002, 3.516195e+004
1.999878e+002, 3.518002e+004
2.004699e+002, 3.517598e+004
2.009520e+002, 3.517501e+004
2.014342e+002, 3.519469e+004
2.019163e+002, 3.523732e+004
2.023984e+002, 3.527370e+004
2.028805e+002, 3.530223e+004
2.033626e+002, 3.532309e+004
2.038447e+002, 3.533434e+004
2.043269e+002, 3.533298e+004
2.048090e+002, 3.533227e+004
2.052911e+002, 3.534059e+004
2.057732e+002, 3.535944e+004
2.062553e+002, 3.537626e+004
2.067374e+002, 3.538816e+004
2.072196e+002, 3.539907e+004
2.077017e+002, 3.542182e+004
2.081838e+002, 3.546095e+004
2.086659e+002, 3.549984e+004
2.091480e+002, 3.552657e+004
2.096301e+002, 3.553686e+004
2.101123e+002, 3.555729e+004
2.105944e+002, 3.559337e+004
2.110765e+002, 3.563876e+004
2.115586e+002, 3.567455e+004
2.120407e+002, 3.569789e+004
2.125228e+002, 3.571830e+004
2.130050e+002, 3.573859e+004
2.134871e+002, 3.575535e+004
2.139692e+002, 3.578609e+004
2.144513e+002, 3.584068e+004
2.149334e+002, 3.590605e+004
2.154155e+002, 3.594191e+004
2.158977e+002, 3.593571e+004
2.163798e+002, 3.592349e+004
2.168619e+002, 3.592298e+004
2.173440e+002, 3.593445e+004
2.178261e+002, 3.595616e+004
2.183082e+002, 3.599204e+004
2.187904e+002, 3.603620e+004
2.192725e+002, 3.607068e+004
2.197546e+002, 3.609173e+004
2.202367e+002, 3.610899e+004
2.207188e+002, 3.612780e+004
2.212009e+002, 3.615158e+004
2.216831e+002, 3.616932e+004
2.221652e+002, 3.618110e+004
2.226473e+002, 3.618747e+004
2.231294e+002, 3.618686e+004
2.236115e+002, 3.617127e+004
2.240936e+002, 3.616368e+004
2.245758e+002, 3.617756e+004
2.250579e+002, 3.622480e+004
2.255400e+002, 3.626590e+004
2.260221e+002, 3.630012e+004
2.265042e+002, 3.632838e+004
2.269863e+002, 3.635107e+004
2.274685e+002, 3.636535e+004
2.279506e+002, 3.637884e+004
2.284327e+002, 3.639311e+004
2.289148e+002, 3.640164e+004
2.293969e+002, 3.642664e+004
2.298790e+002, 3.647529e+004
2.303612e+002, 3.653772e+004
2.308433e+002, 3.658824e+004
2.313254e+002, 3.661811e+004
2.318075e+002, 3.664891e+004
2.322896e+002, 3.669057e+004
2.327717e+002, 3.674866e+004
2.332539e+002, 3.680284e+004
2.337360e+002, 3.685401e+004
2.342181e+002, 3.689938e+004
2.347002e+002, 3.693054e+004
2.351823e+002, 3.693234e+004
2.356644e+002, 3.694158e+004
2.361466e+002, 3.697661e+004
2.366287e+002, 3.705507e+004
2.371108e+002, 3.710924e+004
2.375929e+002, 3.712846e+004
2.380750e+002, 3.712702e+004
2.385571e+002, 3.713448e+004
2.390393e+002, 3.715823e+004
2.395214e+002, 3.717977e+004
2.400035e+002, 3.719209e+004
2.404856e+002, 3.719233e+004
2.409677e+002, 3.719425e+004
2.414498e+002, 3.719898e+004
2.419320e+002, 3.720602e+004
2.424141e+002, 3.721438e+004
2.428962e+002, 3.722485e+004
2.433783e+002, 3.723707e+004
2.438604e+002, 3.725152e+004
2.443425e+002, 3.726923e+004
2.448247e+002, 3.728747e+004
2.453068e+002, 3.730613e+004
2.457889e+002, 3.732578e+004
2.462710e+002, 3.734787e+004
2.467531e+002, 3.737449e+004
2.472352e+002, 3.739927e+004
2.477174e+002, 3.741865e+004
2.481995e+002, 3.742961e+004
2.486816e+002, 3.744701e+004
2.491637e+002, 3.746988e+004
2.496458e+002, 3.749920e+004
2.501279e+002, 3.753796e+004
2.506101e+002, 3.759466e+004
2.510922e+002, 3.764439e+004
2.515743e+002, 3.767759e+004
2.520564e+002, 3.769144e+004
2.525385e+002, 3.771094e+004
2.530206e+002, 3.773807e+004
2.535028e+002, 3.776921e+004
2.539849e+002, 3.779938e+004
2.544670e+002, 3.782883e+004
2.549491e+002, 3.785789e+004
2.554312e+002, 3.788576e+004
2.559133e+002, 3.791186e+004
2.563955e+002, 3.794616e+004
2.568776e+002, 3.799775e+004
2.573597e+002, 3.804748e+004
2.578418e+002, 3.807194e+004
2.583239e+002, 3.805661e+004
2.588061e+002, 3.805025e+004
2.592882e+002, 3.806393e+004
2.597703e+002, 3.809739e+004
2.602524e+002, 3.813130e+004
2.607345e+002, 3.816752e+004
2.612166e+002, 3.820201e+004
2.616988e+002, 3.823193e+004
2.621809e+002, 3.825649e+004
2.626630e+002, 3.827714e+004
2.631451e+002, 3.829195e+004
2.636272e+002, 3.830240e+004
2.641093e+002, 3.831958e+004
2.645915e+002, 3.834537e+004
2.650736e+002, 3.837566e+004
2.655557e+002, 3.841167e+004
2.660378e+002, 3.845978e+004
2.665199e+002, 3.848831e+004
2.670020e+002, 3.848459e+004
2.674842e+002, 3.845786e+004
2.679663e+002, 3.845673e+004
2.684484e+002, 3.848822e+004
2.689305e+002, 3.852847e+004
2.694126e+002, 3.856021e+004
2.698947e+002, 3.858073e+004
2.703769e+002, 3.860577e+004
2.708590e+002, 3.863883e+004
2.713411e+002, 3.867640e+004
2.718232e+002, 3.870540e+004
2.723053e+002, 3.872316e+004
2.727874e+002, 3.873988e+004
2.732696e+002, 3.876057e+004
2.737517e+002, 3.878470e+004
2.742338e+002, 3.881712e+004
2.747159e+002, 3.886195e+004
2.751980e+002, 3.891191e+004
2.756801e+002, 3.894694e+004
2.761623e+002, 3.896399e+004
2.766444e+002, 3.898118e+004
2.771265e+002, 3.901080e+004
2.776086e+002, 3.905518e+004
2.780907e+002, 3.908839e+004
2.785728e+002, 3.910888e+004
2.790550e+002, 3.912047e+004
2.795371e+002, 3.912565e+004
2.800192e+002, 3.912262e+004
2.805013e+002, 3.912781e+004
2.809834e+002, 3.915135e+004
2.814655e+002, 3.919255e+004
2.819477e+002, 3.922994e+004
2.824298e+002, 3.926128e+004
2.829119e+002, 3.929221e+004
2.833940e+002, 3.933041e+004
2.838761e+002, 3.937546e+004
2.843582e+002, 3.942331e+004
2.848404e+002, 3.947763e+004
2.853225e+002, 3.953424e+004
2.858046e+002, 3.956582e+004
2.862867e+002, 3.956815e+004
2.867688e+002, 3.956261e+004
2.872509e+002, 3.957364e+004
2.877331e+002, 3.960021e+004
2.882152e+002, 3.962775e+004
2.886973e+002, 3.965726e+004
2.891794e+002, 3.968376e+004
2.896615e+002, 3.968445e+004
2.901436e+002, 3.965787e+004
2.906258e+002, 3.963006e+004
2.911079e+002, 3.962799e+004
2.915900e+002, 3.964775e+004
2.920721e+002, 3.966576e+004
2.925542e+002, 3.967526e+004
2.930363e+002, 3.968127e+004
2.935185e+002, 3.969458e+004
2.940006e+002, 3.971541e+004
2.944827e+002, 3.973643e+004
2.949648e+002, 3.974877e+004
2.954469e+002, 3.975654e+004
2.959290e+002, 3.977307e+004
2.964112e+002, 3.980295e+004
2.968933e+002, 3.983821e+004
2.973754e+002, 3.986332e+004
2.978575e+002, 3.988008e+004
2.983396e+002, 3.990259e+004
2.988217e+002, 3.994429e+004
2.993039e+002, 3.999705e+004
2.997860e+002, 4.004377e+004
3.002681e+002, 4.008127e+004
3.007502e+002, 4.011540e+004
3.012323e+002, 4.015742e+004
3.017144e+002, 4.020311e+004
3.021966e+002, 4.023615e+004
3.026787e+002, 4.023557e+004
3.031608e+002, 4.022245e+004
3.036429e+002, 4.022696e+004
3.041250e+002, 4.025296e+004
3.046071e+002, 4.028541e+004
3.050893e+002, 4.031430e+004
3.055714e+002, 4.033971e+004
3.060535e+002, 4.036071e+004
3.065356e+002, 4.037570e+004
3.070177e+002, 4.038718e+004
3.074998e+002, 4.039684e+004
3.079820e+002, 4.040492e+004
3.084641e+002, 4.041246e+004
3.089462e+002, 4.042145e+004
3.094283e+002, 4.043058e+004
3.099104e+002, 4.043785e+004
3.103925e+002, 4.043315e+004
3.108747e+002, 4.043451e+004
3.113568e+002, 4.045885e+004
3.118389e+002, 4.050373e+004
3.123210e+002, 4.054874e+004
3.128031e+002, 4.058580e+004
3.132852e+002, 4.061696e+004
3.137674e+002, 4.064379e+004
3.142495e+002, 4.066069e+004
3.147316e+002, 4.068073e+004
3.152137e+002, 4.071557e+004
3.156958e+002, 4.075971e+004
3.161779e+002, 4.079513e+004
3.166601e+002, 4.080265e+004
3.171422e+002, 4.080567e+004
3.176243e+002, 4.081913e+004
3.181064e+002, 4.084748e+004
3.185885e+002, 4.088104e+004
3.190706e+002, 4.092132e+004
3.195528e+002, 4.096385e+004
3.200349e+002, 4.100015e+004
3.205170e+002, 4.102091e+004
3.209991e+002, 4.104030e+004
3.214812e+002, 4.106438e+004
3.219633e+002, 4.109468e+004
3.224455e+002, 4.112622e+004
3.229276e+002, 4.116134e+004
3.234097e+002, 4.119648e+004
3.238918e+002, 4.122729e+004
3.243739e+002, 4.124938e+004
3.248560e+002, 4.127140e+004
3.253382e+002, 4.129626e+004
3.258203e+002, 4.132489e+004
3.263024e+002, 4.135264e+004
3.267845e+002, 4.138671e+004
3.272666e+002, 4.141654e+004
3.277487e+002, 4.143363e+004
3.282309e+002, 4.142527e+004
3.287130e+002, 4.141923e+004
3.291951e+002, 4.141754e+004
3.296772e+002, 4.142016e+004
3.301593e+002, 4.142654e+004
3.306414e+002, 4.143245e+004
3.311236e+002, 4.144553e+004
3.316057e+002, 4.146996e+004
3.320878e+002, 4.150851e+004
3.325699e+002, 4.155328e+004
3.330520e+002, 4.161067e+004
3.335341e+002, 4.167189e+004
3.340163e+002, 4.171070e+004
3.344984e+002, 4.171463e+004
3.349805e+002, 4.171574e+004
3.354626e+002, 4.172745e+004
3.359447e+002, 4.175285e+004
3.364268e+002, 4.177841e+004
3.369090e+002, 4.180706e+004
3.373911e+002, 4.183387e+004
3.378732e+002, 4.184804e+004
3.383553e+002, 4.184478e+004
3.388374e+002, 4.184764e+004
3.393195e+002, 4.186768e+004
3.398017e+002, 4.190413e+004
3.402838e+002, 4.192885e+004
3.407659e+002, 4.193939e+004
3.412480e+002, 4.194593e+004
3.417301e+002, 4.196039e+004
3.422122e+002, 4.198348e+004
3.426944e+002, 4.200228e+004
3.431765e+002, 4.201076e+004
3.436586e+002, 4.201404e+004
3.441407e+002, 4.203173e+004
3.446228e+002, 4.206468e+004
3.451049e+002, 4.209865e+004
3.455871e+002, 4.211975e+004
3.460692e+002, 4.213054e+004
3.465513e+002, 4.214842e+004
3.470334e+002, 4.217735e+004
3.475155e+002, 4.221055e+004
3.479977e+002, 4.223454e+004
3.484798e+002, 4.225075e+004
3.489619e+002, 4.226975e+004
3.494440e+002, 4.230382e+004
3.499261e+002, 4.234447e+004
3.504082e+002, 4.236987e+004
3.508904e+002, 4.237692e+004
3.513725e+002, 4.238123e+004
3.518546e+002, 4.239765e+004
3.523367e+002, 4.242427e+004
3.528188e+002, 4.245606e+004
3.533009e+002, 4.250355e+004
3.537831e+002, 4.254832e+004
3.542652e+002, 4.256274e+004
3.547473e+002, 4.254807e+004
3.552294e+002, 4.253268e+004
3.557115e+002, 4.253582e+004
3.561936e+002, 4.255111e+004
3.566758e+002, 4.257040e+004
3.571579e+002, 4.259338e+004
3.576400e+002, 4.261755e+004
3.581221e+002, 4.264055e+004
3.586042e+002, 4.266320e+004
3.590863e+002, 4.268881e+004
3.595685e+002, 4.272388e+004
3.600506e+002, 4.275997e+004
3.605327e+002, 4.279139e+004
3.610148e+002, 4.281769e+004
3.614969e+002, 4.283852e+004
3.619790e+002, 4.284734e+004
3.624612e+002, 4.285152e+004
3.629433e+002, 4.286352e+004
3.634254e+002, 4.288587e+004
3.639075e+002, 4.291736e+004
3.643896e+002, 4.296309e+004
3.648717e+002, 4.302659e+004
3.653539e+002, 4.307516e+004
3.658360e+002, 4.309209e+004
3.663181e+002, 4.309530e+004
3.668002e+002, 4.310173e+004
3.672823e+002, 4.311159e+004
3.677644e+002, 4.312579e+004
3.682466e+002, 4.314664e+004
3.687287e+002, 4.317330e+004
3.692108e+002, 4.319638e+004
3.696929e+002, 4.321431e+004
3.701750e+002, 4.323040e+004
3.706571e+002, 4.324624e+004
3.711393e+002, 4.326293e+004
3.716214e+002, 4.327848e+004
3.721035e+002, 4.329292e+004
3.725856e+002, 4.330689e+004
3.730677e+002, 4.332100e+004
3.735498e+002, 4.333438e+004
3.740320e+002, 4.335046e+004
3.745141e+002, 4.337013e+004
3.749962e+002, 4.339323e+004
3.754783e+002, 4.342374e+004
3.759604e+002, 4.346679e+004
3.764425e+002, 4.350854e+004
3.769247e+002, 4.353179e+004
3.774068e+002, 4.353464e+004
3.778889e+002, 4.352760e+004
3.783710e+002, 4.350653e+004
3.788531e+002, 4.347864e+004
3.793352e+002, 4.347719e+004
3.798174e+002, 4.350459e+004
3.802995e+002, 4.354152e+004
3.807816e+002, 4.357745e+004
3.812637e+002, 4.361166e+004
3.817458e+002, 4.363236e+004
3.822279e+002, 4.363305e+004
3.827101e+002, 4.363071e+004
3.831922e+002, 4.365896e+004
3.836743e+002, 4.371357e+004
3.841564e+002, 4.376287e+004
3.846385e+002, 4.378533e+004
3.851206e+002, 4.379193e+004
3.856028e+002, 4.380362e+004
3.860849e+002, 4.382133e+004
3.865670e+002, 4.384455e+004
3.870491e+002, 4.387891e+004
3.875312e+002, 4.391812e+004
3.880133e+002, 4.394967e+004
3.884955e+002, 4.395987e+004
3.889776e+002, 4.396784e+004
3.894597e+002, 4.399477e+004
3.899418e+002, 4.403723e+004
3.904239e+002, 4.407526e+004
3.909060e+002, 4.409098e+004
3.913882e+002, 4.409985e+004
3.918703e+002, 4.411670e+004
3.923524e+002, 4.414913e+004
3.928345e+002, 4.418066e+004
3.933166e+002, 4.419786e+004
3.937987e+002, 4.420890e+004
3.942809e+002, 4.422988e+004
3.947630e+002, 4.427780e+004
3.952451e+002, 4.432661e+004
3.957272e+002, 4.436340e+004
3.962093e+002, 4.438421e+004
3.966914e+002, 4.440987e+004
3.971736e+002, 4.445604e+004
3.976557e+002, 4.450287e+004
3.981378e+002, 4.453220e+004
3.986199e+002, 4.451505e+004
3.991020e+002, 4.450979e+004
3.995841e+002, 4.453085e+004
4.000663e+002, 4.457288e+004
4.005484e+002, 4.460094e+004
4.010305e+002, 4.460769e+004
4.015126e+002, 4.460859e+004
4.019947e+002, 4.461101e+004
4.024768e+002, 4.461634e+004
4.029590e+002, 4.462192e+004
4.034411e+002, 4.463012e+004
4.039232e+002, 4.463817e+004
4.044053e+002, 4.464060e+004
4.048874e+002, 4.463679e+004
4.053695e+002, 4.463162e+004
4.058517e+002, 4.462522e+004
4.063338e+002, 4.461859e+004
4.068159e+002, 4.461946e+004
4.072980e+002, 4.462738e+004
4.077801e+002, 4.464563e+004
4.082622e+002, 4.468256e+004
4.087444e+002, 4.473705e+004
4.092265e+002, 4.478202e+004
4.097086e+002, 4.480915e+004
4.101907e+002, 4.482728e+004
4.106728e+002, 4.485672e+004
4.111549e+002, 4.489588e+004
4.116371e+002, 4.493102e+004
4.121192e+002, 4.494307e+004
4.126013e+002, 4.494562e+004
4.130834e+002, 4.497322e+004
4.135655e+002, 4.503088e+004
4.140476e+002, 4.509133e+004
4.145298e+002, 4.513264e+004
4.150119e+002, 4.515719e+004
4.154940e+002, 4.517075e+004
4.159761e+002, 4.516684e+004
4.164582e+002, 4.515947e+004
4.169403e+002, 4.515946e+004
4.174225e+002, 4.516668e+004
4.179046e+002, 4.517946e+004
4.183867e+002, 4.520855e+004
4.188688e+002, 4.523680e+004
4.193509e+002, 4.524649e+004
4.198330e+002, 4.522155e+004
4.203152e+002, 4.520675e+004
4.207973e+002, 4.523129e+004
4.212794e+002, 4.527658e+004
4.217615e+002, 4.530875e+004
4.222436e+002, 4.530745e+004
4.227257e+002, 4.530342e+004
4.232079e+002, 4.530715e+004
4.236900e+002, 4.532030e+004
4.241721e+002, 4.533416e+004
4.246542e+002, 4.534427e+004
4.251363e+002, 4.535720e+004
4.256184e+002, 4.537750e+004
4.261006e+002, 4.540044e+004
4.265827e+002, 4.543742e+004
4.270648e+002, 4.549885e+004
4.275469e+002, 4.557374e+004
4.280290e+002, 4.562113e+004
4.285111e+002, 4.562790e+004
4.289933e+002, 4.563046e+004
4.294754e+002, 4.564491e+004
4.299575e+002, 4.567300e+004
4.304396e+002, 4.569506e+004
4.309217e+002, 4.570924e+004
4.314038e+002, 4.572026e+004
4.318860e+002, 4.573509e+004
4.323681e+002, 4.575412e+004
4.328502e+002, 4.576896e+004
4.333323e+002, 4.577641e+004
4.338144e+002, 4.577999e+004
4.342965e+002, 4.578806e+004
4.347787e+002, 4.580129e+004
4.352608e+002, 4.581905e+004
4.357429e+002, 4.584839e+004
4.362250e+002, 4.588256e+004
4.367071e+002, 4.590138e+004
4.371892e+002, 4.590030e+004
4.376714e+002, 4.589609e+004
4.381535e+002, 4.590179e+004
4.386356e+002, 4.591804e+004
4.391177e+002, 4.594599e+004
4.395998e+002, 4.600172e+004
4.400819e+002, 4.605784e+004
4.405641e+002, 4.608610e+004
4.410462e+002, 4.608841e+004
4.415283e+002, 4.609232e+004
4.420104e+002, 4.611352e+004
4.424925e+002, 4.614120e+004
4.429746e+002, 4.616430e+004
4.434568e+002, 4.616938e+004
4.439389e+002, 4.618880e+004
4.444210e+002, 4.624411e+004
4.449031e+002, 4.631911e+004
4.453852e+002, 4.638333e+004
4.458673e+002, 4.643477e+004
4.463495e+002, 4.647048e+004
4.468316e+002, 4.648330e+004
4.473137e+002, 4.646827e+004
4.477958e+002, 4.647059e+004
4.482779e+002, 4.650018e+004
4.487600e+002, 4.653999e+004
4.492422e+002, 4.657711e+004
4.497243e+002, 4.660662e+004
4.502064e+002, 4.664598e+004
4.506885e+002, 4.670057e+004
4.511706e+002, 4.676484e+004
4.516527e+002, 4.682209e+004
4.521349e+002, 4.687086e+004
4.526170e+002, 4.691804e+004
4.530991e+002, 4.696360e+004
4.535812e+002, 4.700818e+004
4.540633e+002, 4.706149e+004
4.545454e+002, 4.712415e+004
4.550276e+002, 4.719249e+004
4.555097e+002, 4.726111e+004
4.559918e+002, 4.733114e+004
4.564739e+002, 4.740935e+004
4.569560e+002, 4.750639e+004
4.574381e+002, 4.760002e+004
4.579203e+002, 4.764307e+004
4.584024e+002, 4.764643e+004
4.588845e+002, 4.766172e+004
4.593666e+002, 4.772895e+004
4.598488e+002, 4.782158e+004
4.603309e+002, 4.790934e+004
4.608130e+002, 4.798960e+004
4.612951e+002, 4.806434e+004
4.617772e+002, 4.813261e+004
4.622593e+002, 4.819585e+004
4.627415e+002, 4.825443e+004
4.632236e+002, 4.831493e+004
4.637057e+002, 4.836487e+004
4.641878e+002, 4.839182e+004
4.646699e+002, 4.840238e+004
4.651520e+002, 4.842000e+004
4.656342e+002, 4.844879e+004
4.661163e+002, 4.848759e+004
4.665984e+002, 4.853706e+004
4.670805e+002, 4.859921e+004
4.675626e+002, 4.866684e+004
4.680447e+002, 4.874268e+004
4.685269e+002, 4.882187e+004
4.690090e+002, 4.890124e+004
4.694911e+002, 4.898459e+004
4.699732e+002, 4.906020e+004
4.704553e+002, 4.912736e+004
4.709374e+002, 4.918525e+004
4.714196e+002, 4.923359e+004
4.719017e+002, 4.927374e+004
4.723838e+002, 4.929705e+004
4.728659e+002, 4.930359e+004
4.733480e+002, 4.929273e+004
4.738301e+002, 4.923684e+004
4.743123e+002, 4.913024e+004
4.747944e+002, 4.899663e+004
4.752765e+002, 4.885711e+004
4.757586e+002, 4.871312e+004
4.762407e+002, 4.857147e+004
4.767228e+002, 4.842841e+004
4.772050e+002, 4.829520e+004
4.776871e+002, 4.818776e+004
4.781692e+002, 4.810605e+004
4.786513e+002, 4.805158e+004
4.791334e+002, 4.805195e+004
4.796155e+002, 4.806727e+004
4.800977e+002, 4.805020e+004
4.805798e+002, 4.799154e+004
4.810619e+002, 4.793521e+004
4.815440e+002, 4.790785e+004
4.820261e+002, 4.789853e+004
4.825082e+002, 4.789424e+004
4.829904e+002, 4.788921e+004
4.834725e+002, 4.789094e+004
4.839546e+002, 4.790081e+004
4.844367e+002, 4.791898e+004
4.849188e+002, 4.794580e+004
4.854009e+002, 4.799796e+004
4.858831e+002, 4.804274e+004
4.863652e+002, 4.806225e+004
4.868473e+002, 4.804090e+004
4.873294e+002, 4.804814e+004
4.878115e+002, 4.809781e+004
4.882936e+002, 4.816158e+004
4.887758e+002, 4.821277e+004
4.892579e+002, 4.825171e+004
4.897400e+002, 4.827273e+004
4.902221e+002, 4.826745e+004
4.907042e+002, 4.824770e+004
4.911863e+002, 4.825528e+004
4.916685e+002, 4.829373e+004
4.921506e+002, 4.832504e+004
4.926327e+002, 4.832043e+004
4.931148e+002, 4.828970e+004
4.935969e+002, 4.827821e+004
4.940790e+002, 4.828824e+004
4.945612e+002, 4.830740e+004
4.950433e+002, 4.833017e+004
4.955254e+002, 4.835338e+004
4.960075e+002, 4.836830e+004
4.964896e+002, 4.836624e+004
4.969717e+002, 4.836620e+004
4.974539e+002, 4.838885e+004
4.979360e+002, 4.842816e+004
4.984181e+002, 4.846734e+004
4.989002e+002, 4.849192e+004
4.993823e+002, 4.851858e+004
4.998644e+002, 4.856161e+004
5.003466e+002, 4.862341e+004
5.008287e+002, 4.867420e+004
5.013108e+002, 4.869695e+004
5.017929e+002, 4.870825e+004
5.022750e+002, 4.872060e+004
5.027571e+002, 4.872702e+004
5.032393e+002, 4.874390e+004
5.037214e+002, 4.877754e+004
5.042035e+002, 4.881971e+004
5.046856e+002, 4.885474e+004
5.051677e+002, 4.888362e+004
5.056498e+002, 4.890270e+004
5.061320e+002, 4.890786e+004
5.066141e+002, 4.890036e+004
5.070962e+002, 4.890496e+004
5.075783e+002, 4.892550e+004
5.080604e+002, 4.894830e+004
5.085425e+002, 4.896381e+004
5.090247e+002, 4.897277e+004
5.095068e+002, 4.897560e+004
5.099889e+002, 4.897066e+004
5.104710e+002, 4.896676e+004
5.109531e+002, 4.897127e+004
5.114352e+002, 4.898618e+004
5.119174e+002, 4.901880e+004
5.123995e+002, 4.909775e+004
5.128816e+002, 4.917852e+004
5.133637e+002, 4.920121e+004
5.138458e+002, 4.917395e+004
5.143279e+002, 4.914793e+004
5.148101e+002, 4.914905e+004
5.152922e+002, 4.916518e+004
5.157743e+002, 4.918784e+004
5.162564e+002, 4.921659e+004
5.167385e+002, 4.924574e+004
5.172206e+002, 4.927765e+004
5.177028e+002, 4.930635e+004
5.181849e+002, 4.932504e+004
5.186670e+002, 4.932844e+004
5.191491e+002, 4.932662e+004
5.196312e+002, 4.931509e+004
5.201133e+002, 4.929918e+004
5.205955e+002, 4.930180e+004
5.210776e+002, 4.933643e+004
5.215597e+002, 4.936939e+004
5.220418e+002, 4.938555e+004
5.225239e+002, 4.938363e+004
5.230060e+002, 4.938752e+004
5.234882e+002, 4.939637e+004
5.239703e+002, 4.941591e+004
5.244524e+002, 4.946246e+004
5.249345e+002, 4.953270e+004
5.254166e+002, 4.957641e+004
5.258987e+002, 4.957567e+004
5.263809e+002, 4.956118e+004
5.268630e+002, 4.958335e+004
5.273451e+002, 4.963471e+004
5.278272e+002, 4.968536e+004
5.283093e+002, 4.971121e+004
5.287914e+002, 4.973271e+004
5.292736e+002, 4.977541e+004
5.297557e+002, 4.983788e+004
5.302378e+002, 4.989723e+004
5.307199e+002, 4.994603e+004
5.312020e+002, 4.998273e+004
5.316841e+002, 5.000326e+004
5.321663e+002, 4.999770e+004
5.326484e+002, 4.999715e+004
5.331305e+002, 5.001742e+004
5.336126e+002, 5.004554e+004
5.340947e+002, 5.006327e+004
5.345768e+002, 5.006585e+004
5.350590e+002, 5.006292e+004
5.355411e+002, 5.005278e+004
5.360232e+002, 5.003831e+004
5.365053e+002, 5.003624e+004
5.369874e+002, 5.005374e+004
5.374695e+002, 5.007018e+004
5.379517e+002, 5.006854e+004
5.384338e+002, 5.004679e+004
5.389159e+002, 5.006300e+004
5.393980e+002, 5.012491e+004
5.398801e+002, 5.019367e+004
5.403622e+002, 5.021974e+004
5.408444e+002, 5.021183e+004
5.413265e+002, 5.021350e+004
5.418086e+002, 5.023644e+004
5.422907e+002, 5.026745e+004
5.427728e+002, 5.028969e+004
5.432549e+002, 5.030570e+004
5.437371e+002, 5.032299e+004
5.442192e+002, 5.034384e+004
5.447013e+002, 5.036823e+004
5.451834e+002, 5.040029e+004
5.456655e+002, 5.043936e+004
5.461476e+002, 5.047067e+004
5.466298e+002, 5.048224e+004
5.471119e+002, 5.048886e+004
5.475940e+002, 5.050048e+004
5.480761e+002, 5.052100e+004
5.485582e+002, 5.054280e+004
5.490403e+002, 5.056990e+004
5.495225e+002, 5.059643e+004
5.500046e+002, 5.061349e+004
5.504867e+002, 5.061187e+004
5.509688e+002, 5.061961e+004
5.514509e+002, 5.064295e+004
5.519330e+002, 5.067823e+004
5.524152e+002, 5.071413e+004
5.528973e+002, 5.075145e+004
5.533794e+002, 5.078208e+004
5.538615e+002, 5.079552e+004
5.543436e+002, 5.079624e+004
5.548257e+002, 5.081302e+004
5.553079e+002, 5.084625e+004
5.557900e+002, 5.088101e+004
5.562721e+002, 5.090336e+004
5.567542e+002, 5.091763e+004
5.572363e+002, 5.093179e+004
5.577184e+002, 5.094843e+004
5.582006e+002, 5.096368e+004
5.586827e+002, 5.097138e+004
5.591648e+002, 5.097662e+004
5.596469e+002, 5.098786e+004
5.601290e+002, 5.102709e+004
5.606111e+002, 5.105497e+004
5.610933e+002, 5.104366e+004
5.615754e+002, 5.100129e+004
5.620575e+002, 5.098186e+004
5.625396e+002, 5.101301e+004
5.630217e+002, 5.105002e+004
5.635038e+002, 5.107685e+004
5.639860e+002, 5.109196e+004
5.644681e+002, 5.110203e+004
5.649502e+002, 5.110262e+004
5.654323e+002, 5.110464e+004
5.659144e+002, 5.112122e+004
5.663965e+002, 5.115415e+004
5.668787e+002, 5.118063e+004
5.673608e+002, 5.119611e+004
5.678429e+002, 5.120676e+004
5.683250e+002, 5.122296e+004
5.688071e+002, 5.124394e+004
5.692892e+002, 5.126400e+004
5.697714e+002, 5.127593e+004
5.702535e+002, 5.128866e+004
5.707356e+002, 5.131640e+004
5.712177e+002, 5.135721e+004
5.716998e+002, 5.139769e+004
5.721819e+002, 5.143528e+004
5.726641e+002, 5.146619e+004
5.731462e+002, 5.148210e+004
5.736283e+002, 5.147637e+004
5.741104e+002, 5.148543e+004
5.745925e+002, 5.154525e+004
5.750746e+002, 5.161082e+004
5.755568e+002, 5.164137e+004
5.760389e+002, 5.158788e+004
5.765210e+002, 5.156283e+004
5.770031e+002, 5.158681e+004
5.774852e+002, 5.163505e+004
5.779673e+002, 5.165460e+004
5.784495e+002, 5.163660e+004
5.789316e+002, 5.162013e+004
5.794137e+002, 5.161610e+004
5.798958e+002, 5.162395e+004
5.803779e+002, 5.164504e+004
5.808600e+002, 5.168046e+004
5.813422e+002, 5.171054e+004
5.818243e+002, 5.171369e+004
5.823064e+002, 5.170318e+004
5.827885e+002, 5.170858e+004
5.832706e+002, 5.173232e+004
5.837527e+002, 5.176662e+004
5.842349e+002, 5.181941e+004
5.847170e+002, 5.187320e+004
5.851991e+002, 5.190440e+004
5.856812e+002, 5.189366e+004
5.861633e+002, 5.188133e+004
5.866454e+002, 5.188565e+004
5.871276e+002, 5.189897e+004
5.876097e+002, 5.190771e+004
5.880918e+002, 5.189496e+004
5.885739e+002, 5.189329e+004
5.890560e+002, 5.191635e+004
5.895381e+002, 5.195908e+004
5.900203e+002, 5.198460e+004
5.905024e+002, 5.198905e+004
5.909845e+002, 5.198497e+004
5.914666e+002, 5.197516e+004
5.919487e+002, 5.195993e+004
5.924308e+002, 5.196074e+004
5.929130e+002, 5.198113e+004
5.933951e+002, 5.200353e+004
5.938772e+002, 5.200570e+004
5.943593e+002, 5.199551e+004
5.948414e+002, 5.199846e+004
5.953235e+002, 5.202077e+004
5.958057e+002, 5.205207e+004
5.962878e+002, 5.208823e+004
5.967699e+002, 5.212496e+004
5.972520e+002, 5.215374e+004
5.977341e+002, 5.216334e+004
5.982162e+002, 5.217130e+004
5.986984e+002, 5.218196e+004
5.991805e+002, 5.219634e+004
5.996626e+002, 5.221976e+004
6.001447e+002, 5.226791e+004
6.006268e+002, 5.231011e+004
6.011089e+002, 5.232949e+004
6.015911e+002, 5.232262e+004
6.020732e+002, 5.233721e+004
6.025553e+002, 5.238580e+004
6.030374e+002, 5.243597e+004
6.035195e+002, 5.245911e+004
6.040016e+002, 5.245163e+004
6.044838e+002, 5.247046e+004
6.049659e+002, 5.252551e+004
6.054480e+002, 5.258483e+004
6.059301e+002, 5.259426e+004
6.064122e+002, 5.256932e+004
6.068943e+002, 5.257618e+004
6.073765e+002, 5.264691e+004
6.078586e+002, 5.273226e+004
6.083407e+002, 5.277322e+004
6.088228e+002, 5.278514e+004
6.093049e+002, 5.280464e+004
6.097870e+002, 5.285206e+004
6.102692e+002, 5.290839e+004
6.107513e+002, 5.296848e+004
6.112334e+002, 5.303072e+004
6.117155e+002, 5.308258e+004
6.121976e+002, 5.309829e+004
6.126797e+002, 5.312497e+004
6.131619e+002, 5.318671e+004
6.136440e+002, 5.329413e+004
6.141261e+002, 5.339046e+004
6.146082e+002, 5.347161e+004
6.150903e+002, 5.355063e+004
6.155724e+002, 5.363717e+004
6.160546e+002, 5.373051e+004
6.165367e+002, 5.384429e+004
6.170188e+002, 5.398179e+004
6.175009e+002, 5.413399e+004
6.179830e+002, 5.428373e+004
6.184651e+002, 5.443612e+004
6.189473e+002, 5.460948e+004
6.194294e+002, 5.481579e+004
6.199115e+002, 5.503798e+004
6.203936e+002, 5.525443e+004
6.208757e+002, 5.547343e+004
6.213578e+002, 5.572227e+004
6.218400e+002, 5.606843e+004
6.223221e+002, 5.639973e+004
6.228042e+002, 5.668048e+004
6.232863e+002, 5.691040e+004
6.237684e+002, 5.701826e+004
6.242505e+002, 5.694776e+004
6.247327e+002, 5.680394e+004
6.252148e+002, 5.661913e+004
6.256969e+002, 5.636209e+004
6.261790e+002, 5.619708e+004
6.266611e+002, 5.614201e+004
6.271432e+002, 5.614488e+004
6.276254e+002, 5.615977e+004
6.281075e+002, 5.618641e+004
6.285896e+002, 5.622369e+004
6.290717e+002, 5.627583e+004
6.295538e+002, 5.632386e+004
6.300359e+002, 5.634480e+004
6.305181e+002, 5.634074e+004
6.310002e+002, 5.631727e+004
6.314823e+002, 5.625452e+004
6.319644e+002, 5.619438e+004
6.324465e+002, 5.617790e+004
6.329286e+002, 5.618976e+004
6.334108e+002, 5.618272e+004
6.338929e+002, 5.613460e+004
6.343750e+002, 5.607020e+004
6.348571e+002, 5.598859e+004
6.353392e+002, 5.588826e+004
6.358214e+002, 5.582316e+004
6.363035e+002, 5.582464e+004
6.367856e+002, 5.581757e+004
6.372677e+002, 5.576482e+004
6.377498e+002, 5.566744e+004
6.382319e+002, 5.551840e+004
6.387141e+002, 5.531243e+004
6.391962e+002, 5.507314e+004
6.396783e+002, 5.479718e+004
6.401604e+002, 5.450111e+004
6.406425e+002, 5.425401e+004
6.411246e+002, 5.406793e+004
6.416068e+002, 5.392698e+004
6.420889e+002, 5.382204e+004
6.425710e+002, 5.374810e+004
6.430531e+002, 5.369883e+004
6.435352e+002, 5.368363e+004
6.440173e+002, 5.367867e+004
6.444995e+002, 5.367641e+004
6.449816e+002, 5.367628e+004
6.454637e+002, 5.367744e+004
6.459458e+002, 5.368309e+004
6.464279e+002, 5.368498e+004
6.469100e+002, 5.367616e+004
6.473922e+002, 5.365851e+004
6.478743e+002, 5.366132e+004
6.483564e+002, 5.368914e+004
6.488385e+002, 5.372314e+004
6.493206e+002, 5.375063e+004
6.498027e+002, 5.377351e+004
6.502849e+002, 5.381106e+004
6.507670e+002, 5.386437e+004
6.512491e+002, 5.391268e+004
6.517312e+002, 5.393660e+004
6.522133e+002, 5.394274e+004
6.526954e+002, 5.393939e+004
6.531776e+002, 5.392530e+004
6.536597e+002, 5.391371e+004
6.541418e+002, 5.390884e+004
6.546239e+002, 5.391243e+004
6.551060e+002, 5.392635e+004
6.555881e+002, 5.397329e+004
6.560703e+002, 5.400358e+004
6.565524e+002, 5.399715e+004
6.570345e+002, 5.397330e+004
6.575166e+002, 5.396603e+004
6.579987e+002, 5.398130e+004
6.584808e+002, 5.399835e+004
6.589630e+002, 5.401465e+004
6.594451e+002, 5.402825e+004
6.599272e+002, 5.402924e+004
6.604093e+002, 5.401767e+004
6.608914e+002, 5.401082e+004
6.613735e+002, 5.402459e+004
6.618557e+002, 5.404731e+004
6.623378e+002, 5.405632e+004
6.628199e+002, 5.405320e+004
6.633020e+002, 5.405004e+004
6.637841e+002, 5.404438e+004
6.642662e+002, 5.404949e+004
6.647484e+002, 5.408323e+004
6.652305e+002, 5.415380e+004
6.657126e+002, 5.420911e+004
6.661947e+002, 5.421826e+004
6.666768e+002, 5.421993e+004
6.671589e+002, 5.424326e+004
6.676411e+002, 5.430902e+004
6.681232e+002, 5.434866e+004
6.686053e+002, 5.435329e+004
6.690874e+002, 5.434209e+004
6.695695e+002, 5.433349e+004
6.700516e+002, 5.432704e+004
6.705338e+002, 5.434420e+004
6.710159e+002, 5.439754e+004
6.714980e+002, 5.445573e+004
6.719801e+002, 5.446397e+004
6.724622e+002, 5.443803e+004
6.729443e+002, 5.442120e+004
6.734265e+002, 5.443951e+004
6.739086e+002, 5.446616e+004
6.743907e+002, 5.448602e+004
6.748728e+002, 5.450055e+004
6.753549e+002, 5.451307e+004
6.758370e+002, 5.452604e+004
6.763192e+002, 5.453691e+004
6.768013e+002, 5.454078e+004
6.772834e+002, 5.453949e+004
6.777655e+002, 5.455398e+004
6.782476e+002, 5.458831e+004
6.787297e+002, 5.463060e+004
6.792119e+002, 5.468208e+004
6.796940e+002, 5.474101e+004
6.801761e+002, 5.475971e+004
6.806582e+002, 5.473396e+004
6.811403e+002, 5.470936e+004
6.816224e+002, 5.473077e+004
6.821046e+002, 5.477843e+004
6.825867e+002, 5.481372e+004
6.830688e+002, 5.483045e+004
6.835509e+002, 5.484702e+004
6.840330e+002, 5.487966e+004
6.845151e+002, 5.491682e+004
6.849973e+002, 5.494708e+004
6.854794e+002, 5.496509e+004
6.859615e+002, 5.498130e+004
6.864436e+002, 5.499454e+004
6.869257e+002, 5.500859e+004
6.874078e+002, 5.502830e+004
6.878900e+002, 5.505598e+004
6.883721e+002, 5.508566e+004
6.888542e+002, 5.511750e+004
6.893363e+002, 5.515018e+004
6.898184e+002, 5.518231e+004
6.903005e+002, 5.521332e+004
6.907827e+002, 5.523489e+004
6.912648e+002, 5.524059e+004
6.917469e+002, 5.523808e+004
6.922290e+002, 5.523134e+004
6.927111e+002, 5.522417e+004
6.931932e+002, 5.522994e+004
6.936754e+002, 5.525468e+004
6.941575e+002, 5.529405e+004
6.946396e+002, 5.535746e+004
6.951217e+002, 5.544032e+004
6.956038e+002, 5.549726e+004
6.960859e+002, 5.550038e+004
6.965681e+002, 5.549614e+004
6.970502e+002, 5.550133e+004
6.975323e+002, 5.551651e+004
6.980144e+002, 5.552643e+004
6.984965e+002, 5.553040e+004
6.989786e+002, 5.553304e+004
6.994608e+002, 5.553354e+004
6.999429e+002, 5.553540e+004
7.004250e+002, 5.556074e+004
7.009071e+002, 5.561310e+004
7.013892e+002, 5.565544e+004
7.018713e+002, 5.564041e+004
7.023535e+002, 5.560326e+004
7.028356e+002, 5.558902e+004
7.033177e+002, 5.561284e+004
7.037998e+002, 5.564040e+004
7.042819e+002, 5.565552e+004
7.047640e+002, 5.566893e+004
7.052462e+002, 5.569302e+004
7.057283e+002, 5.574355e+004
7.062104e+002, 5.577680e+004
7.066925e+002, 5.578443e+004
7.071746e+002, 5.577963e+004
7.076567e+002, 5.578145e+004
7.081389e+002, 5.578974e+004
7.086210e+002, 5.580588e+004
7.091031e+002, 5.583206e+004
7.095852e+002, 5.586281e+004
7.100673e+002, 5.589089e+004
7.105494e+002, 5.591614e+004
7.110316e+002, 5.593875e+004
7.115137e+002, 5.596049e+004
7.119958e+002, 5.597809e+004
7.124779e+002, 5.598424e+004
7.129600e+002, 5.598416e+004
7.134421e+002, 5.599342e+004
7.139243e+002, 5.602414e+004
7.144064e+002, 5.605677e+004
7.148885e+002, 5.608776e+004
7.153706e+002, 5.611644e+004
7.158527e+002, 5.613471e+004
7.163348e+002, 5.613947e+004
7.168170e+002, 5.614236e+004
7.172991e+002, 5.614576e+004
7.177812e+002, 5.615136e+004
7.182633e+002, 5.617376e+004
7.187454e+002, 5.621241e+004
7.192275e+002, 5.624417e+004
7.197097e+002, 5.624141e+004
7.201918e+002, 5.622923e+004
7.206739e+002, 5.624087e+004
7.211560e+002, 5.627916e+004
7.216381e+002, 5.631726e+004
7.221202e+002, 5.634126e+004
7.226024e+002, 5.636168e+004
7.230845e+002, 5.638620e+004
7.235666e+002, 5.641839e+004
7.240487e+002, 5.644633e+004
7.245308e+002, 5.646888e+004
7.250129e+002, 5.648973e+004
7.254951e+002, 5.651182e+004
7.259772e+002, 5.653540e+004
7.264593e+002, 5.655926e+004
7.269414e+002, 5.658354e+004
7.274235e+002, 5.660591e+004
7.279056e+002, 5.662242e+004
7.283878e+002, 5.663468e+004
7.288699e+002, 5.664607e+004
7.293520e+002, 5.665651e+004
7.298341e+002, 5.666785e+004
7.303162e+002, 5.668004e+004
7.307983e+002, 5.669432e+004
7.312805e+002, 5.671249e+004
7.317626e+002, 5.673299e+004
7.322447e+002, 5.676063e+004
7.327268e+002, 5.679866e+004
7.332089e+002, 5.684258e+004
7.336910e+002, 5.688714e+004
7.341732e+002, 5.693531e+004
7.346553e+002, 5.697254e+004
7.351374e+002, 5.699442e+004
7.356195e+002, 5.700586e+004
7.361016e+002, 5.700702e+004
7.365837e+002, 5.700301e+004
7.370659e+002, 5.701739e+004
7.375480e+002, 5.708005e+004
7.380301e+002, 5.714343e+004
7.385122e+002, 5.715162e+004
7.389943e+002, 5.712525e+004
7.394764e+002, 5.711776e+004
7.399586e+002, 5.717493e+004
7.404407e+002, 5.722413e+004
7.409228e+002, 5.723246e+004
7.414049e+002, 5.721063e+004
7.418870e+002, 5.720639e+004
7.423691e+002, 5.722524e+004
7.428513e+002, 5.724811e+004
7.433334e+002, 5.727203e+004
7.438155e+002, 5.729418e+004
7.442976e+002, 5.729629e+004
7.447797e+002, 5.728013e+004
7.452618e+002, 5.726919e+004
7.457440e+002, 5.727955e+004
7.462261e+002, 5.730257e+004
7.467082e+002, 5.733211e+004
7.471903e+002, 5.736649e+004
7.476724e+002, 5.739661e+004
7.481545e+002, 5.741070e+004
7.486367e+002, 5.742566e+004
7.491188e+002, 5.745545e+004
7.496009e+002, 5.750368e+004
7.500830e+002, 5.752899e+004
7.505651e+002, 5.752234e+004
7.510472e+002, 5.750891e+004
7.515294e+002, 5.750089e+004
7.520115e+002, 5.749805e+004
7.524936e+002, 5.750486e+004
7.529757e+002, 5.752176e+004
7.534578e+002, 5.753998e+004
7.539399e+002, 5.755047e+004
7.544221e+002, 5.755838e+004
7.549042e+002, 5.757421e+004
7.553863e+002, 5.760079e+004
7.558684e+002, 5.761891e+004
7.563505e+002, 5.760691e+004
7.568326e+002, 5.759134e+004
7.573148e+002, 5.759350e+004
7.577969e+002, 5.762282e+004
7.582790e+002, 5.765197e+004
7.587611e+002, 5.767946e+004
7.592432e+002, 5.770934e+004
7.597253e+002, 5.774817e+004
7.602075e+002, 5.779638e+004
7.606896e+002, 5.783274e+004
7.611717e+002, 5.785588e+004
7.616538e+002, 5.786443e+004
7.621359e+002, 5.784195e+004
7.626180e+002, 5.780757e+004
7.631002e+002, 5.779882e+004
7.635823e+002, 5.782913e+004
7.640644e+002, 5.786555e+004
7.645465e+002, 5.789760e+004
7.650286e+002, 5.792396e+004
7.655107e+002, 5.794295e+004
7.659929e+002, 5.794014e+004
7.664750e+002, 5.795539e+004
7.669571e+002, 5.800389e+004
7.674392e+002, 5.805625e+004
7.679213e+002, 5.806499e+004
7.684034e+002, 5.802742e+004
7.688856e+002, 5.802618e+004
7.693677e+002, 5.808075e+004
7.698498e+002, 5.815372e+004
7.703319e+002, 5.820004e+004
7.708140e+002, 5.822793e+004
7.712961e+002, 5.825521e+004
7.717783e+002, 5.828623e+004
7.722604e+002, 5.831802e+004
7.727425e+002, 5.834907e+004
7.732246e+002, 5.837932e+004
7.737067e+002, 5.840968e+004
7.741888e+002, 5.845095e+004
7.746710e+002, 5.847521e+004
7.751531e+002, 5.847119e+004
7.756352e+002, 5.845733e+004
7.761173e+002, 5.846682e+004
7.765994e+002, 5.850034e+004
7.770815e+002, 5.854478e+004
7.775637e+002, 5.860413e+004
7.780458e+002, 5.865866e+004
7.785279e+002, 5.866930e+004
7.790100e+002, 5.865351e+004
7.794921e+002, 5.865098e+004
7.799742e+002, 5.868817e+004
7.804564e+002, 5.872932e+004
7.809385e+002, 5.876634e+004
7.814206e+002, 5.879489e+004
7.819027e+002, 5.880367e+004
7.823848e+002, 5.876971e+004
7.828669e+002, 5.875722e+004
7.833491e+002, 5.878984e+004
7.838312e+002, 5.884070e+004
7.843133e+002, 5.883395e+004
7.847954e+002, 5.877176e+004
7.852775e+002, 5.872873e+004
7.857596e+002, 5.873623e+004
7.862418e+002, 5.876803e+004
7.867239e+002, 5.879427e+004
7.872060e+002, 5.881599e+004
7.876881e+002, 5.883613e+004
7.881702e+002, 5.885108e+004
7.886523e+002, 5.886920e+004
7.891345e+002, 5.889839e+004
7.896166e+002, 5.893293e+004
7.900987e+002, 5.895635e+004
7.905808e+002, 5.896043e+004
7.910629e+002, 5.896774e+004
7.915450e+002, 5.898191e+004
7.920272e+002, 5.900313e+004
7.925093e+002, 5.903557e+004
7.929914e+002, 5.907802e+004
7.934735e+002, 5.911392e+004
7.939556e+002, 5.913632e+004
7.944377e+002, 5.914927e+004
7.949199e+002, 5.915249e+004
7.954020e+002, 5.915020e+004
7.958841e+002, 5.915334e+004
7.963662e+002, 5.916689e+004
7.968483e+002, 5.918589e+004
7.973304e+002, 5.921295e+004
7.978126e+002, 5.924447e+004
7.982947e+002, 5.926826e+004
7.987768e+002, 5.928201e+004
7.992589e+002, 5.929569e+004
7.997410e+002, 5.931375e+004
8.002231e+002, 5.933271e+004
8.007053e+002, 5.934314e+004
8.011874e+002, 5.934596e+004
8.016695e+002, 5.934532e+004
8.021516e+002, 5.933318e+004
8.026337e+002, 5.932773e+004
8.031158e+002, 5.935042e+004
8.035980e+002, 5.939293e+004
8.040801e+002, 5.943341e+004
8.045622e+002, 5.946421e+004
8.050443e+002, 5.949220e+004
8.055264e+002, 5.951731e+004
8.060085e+002, 5.954082e+004
8.064907e+002, 5.957141e+004
8.069728e+002, 5.961381e+004
8.074549e+002, 5.963391e+004
8.079370e+002, 5.960822e+004
8.084191e+002, 5.956654e+004
8.089012e+002, 5.957475e+004
8.093834e+002, 5.962204e+004
8.098655e+002, 5.966976e+004
8.103476e+002, 5.970330e+004
8.108297e+002, 5.972764e+004
8.113118e+002, 5.974141e+004
8.117939e+002, 5.974834e+004
8.122761e+002, 5.975864e+004
8.127582e+002, 5.977576e+004
8.132403e+002, 5.979445e+004
8.137224e+002, 5.981300e+004
8.142045e+002, 5.983317e+004
8.146866e+002, 5.986241e+004
8.151688e+002, 5.990045e+004
8.156509e+002, 5.993388e+004
8.161330e+002, 5.995504e+004
8.166151e+002, 5.997193e+004
8.170972e+002, 5.999030e+004
8.175793e+002, 6.001331e+004
8.180615e+002, 6.005009e+004
8.185436e+002, 6.012713e+004
8.190257e+002, 6.019330e+004
8.195078e+002, 6.022461e+004
8.199899e+002, 6.022879e+004
8.204720e+002, 6.022909e+004
8.209542e+002, 6.022324e+004
8.214363e+002, 6.021736e+004
8.219184e+002, 6.021089e+004
8.224005e+002, 6.020721e+004
8.228826e+002, 6.021491e+004
8.233647e+002, 6.023313e+004
8.238469e+002, 6.025664e+004
8.243290e+002, 6.029213e+004
8.248111e+002, 6.032096e+004
8.252932e+002, 6.032150e+004
8.257753e+002, 6.030440e+004
8.262574e+002, 6.029059e+004
8.267396e+002, 6.027571e+004
8.272217e+002, 6.027938e+004
8.277038e+002, 6.031620e+004
8.281859e+002, 6.036707e+004
8.286681e+002, 6.039386e+004
8.291502e+002, 6.039184e+004
8.296323e+002, 6.039882e+004
8.301144e+002, 6.042688e+004
8.305966e+002, 6.045895e+004
8.310787e+002, 6.046379e+004
8.315608e+002, 6.045247e+004
8.320429e+002, 6.045275e+004
8.325250e+002, 6.048245e+004
8.330071e+002, 6.051217e+004
8.334893e+002, 6.052795e+004
8.339714e+002, 6.053420e+004
8.344535e+002, 6.053759e+004
8.349356e+002, 6.053440e+004
8.354177e+002, 6.053629e+004
8.358998e+002, 6.054286e+004
8.363820e+002, 6.055649e+004
8.368641e+002, 6.058389e+004
8.373462e+002, 6.062330e+004
8.378283e+002, 6.066296e+004
8.383104e+002, 6.070249e+004
8.387925e+002, 6.073191e+004
8.392747e+002, 6.073380e+004
8.397568e+002, 6.072207e+004
8.402389e+002, 6.071599e+004
8.407210e+002, 6.072307e+004
8.412031e+002, 6.073126e+004
8.416852e+002, 6.074674e+004
8.421674e+002, 6.075662e+004
8.426495e+002, 6.074297e+004
8.431316e+002, 6.069778e+004
8.436137e+002, 6.068439e+004
8.440958e+002, 6.071362e+004
8.445779e+002, 6.075320e+004
8.450601e+002, 6.076598e+004
8.455422e+002, 6.076151e+004
8.460243e+002, 6.075752e+004
8.465064e+002, 6.075575e+004
8.469885e+002, 6.076236e+004
8.474706e+002, 6.078170e+004
8.479528e+002, 6.080955e+004
8.484349e+002, 6.084311e+004
8.489170e+002, 6.088388e+004
8.493991e+002, 6.092263e+004
8.498812e+002, 6.096226e+004
8.503633e+002, 6.099184e+004
8.508455e+002, 6.099179e+004
8.513276e+002, 6.096914e+004
8.518097e+002, 6.098345e+004
8.522918e+002, 6.103894e+004
8.527739e+002, 6.108310e+004
8.532560e+002, 6.106143e+004
8.537382e+002, 6.101823e+004
8.542203e+002, 6.099614e+004
8.547024e+002, 6.100243e+004
8.551845e+002, 6.100793e+004
8.556666e+002, 6.100748e+004
8.561487e+002, 6.100573e+004
8.566309e+002, 6.100273e+004
8.571130e+002, 6.099884e+004
8.575951e+002, 6.100760e+004
8.580772e+002, 6.102936e+004
8.585593e+002, 6.105900e+004
8.590414e+002, 6.109882e+004
8.595236e+002, 6.114124e+004
8.600057e+002, 6.116947e+004
8.604878e+002, 6.118597e+004
8.609699e+002, 6.121122e+004
8.614520e+002, 6.126254e+004
8.619341e+002, 6.131676e+004
8.624163e+002, 6.136770e+004
8.628984e+002, 6.141412e+004
8.633805e+002, 6.144271e+004
8.638626e+002, 6.144855e+004
8.643447e+002, 6.145479e+004
8.648268e+002, 6.147325e+004
8.653090e+002, 6.149602e+004
8.657911e+002, 6.149148e+004
8.662732e+002, 6.146949e+004
8.667553e+002, 6.147215e+004
8.672374e+002, 6.154716e+004
8.677195e+002, 6.162664e+004
8.682017e+002, 6.166933e+004
8.686838e+002, 6.168336e+004
8.691659e+002, 6.169122e+004
8.696480e+002, 6.169312e+004
8.701301e+002, 6.169184e+004
8.706122e+002, 6.168620e+004
8.710944e+002, 6.167963e+004
8.715765e+002, 6.168366e+004
8.720586e+002, 6.169645e+004
8.725407e+002, 6.169996e+004
8.730228e+002, 6.169018e+004
8.735049e+002, 6.167020e+004
8.739871e+002, 6.163504e+004
8.744692e+002, 6.159555e+004
8.749513e+002, 6.156730e+004
8.754334e+002, 6.156691e+004
8.759155e+002, 6.156261e+004
8.763976e+002, 6.154014e+004
8.768798e+002, 6.152356e+004
8.773619e+002, 6.154596e+004
8.778440e+002, 6.160952e+004
8.783261e+002, 6.166636e+004
8.788082e+002, 6.171177e+004
8.792903e+002, 6.174265e+004
8.797725e+002, 6.173897e+004
8.802546e+002, 6.172471e+004
8.807367e+002, 6.173884e+004
8.812188e+002, 6.179416e+004
8.817009e+002, 6.184351e+004
8.821830e+002, 6.186818e+004
8.826652e+002, 6.188113e+004
8.831473e+002, 6.189026e+004
8.836294e+002, 6.189461e+004
8.841115e+002, 6.190334e+004
8.845936e+002, 6.191806e+004
8.850757e+002, 6.193255e+004
8.855579e+002, 6.193855e+004
8.860400e+002, 6.194331e+004
8.865221e+002, 6.196881e+004
8.870042e+002, 6.201354e+004
8.874863e+002, 6.204276e+004
8.879684e+002, 6.201985e+004
8.884506e+002, 6.199371e+004
8.889327e+002, 6.198988e+004
8.894148e+002, 6.200874e+004
8.898969e+002, 6.204509e+004
8.903790e+002, 6.210838e+004
8.908611e+002, 6.215702e+004
8.913433e+002, 6.216218e+004
8.918254e+002, 6.214747e+004
8.923075e+002, 6.218175e+004
8.927896e+002, 6.225463e+004
8.932717e+002, 6.232222e+004
8.937538e+002, 6.235995e+004
8.942360e+002, 6.238744e+004
8.947181e+002, 6.240626e+004
8.952002e+002, 6.242274e+004
8.956823e+002, 6.245588e+004
8.961644e+002, 6.252207e+004
8.966465e+002, 6.256887e+004
8.971287e+002, 6.258032e+004
8.976108e+002, 6.257920e+004
8.980929e+002, 6.262052e+004
8.985750e+002, 6.269031e+004
8.990571e+002, 6.271443e+004
8.995392e+002, 6.265813e+004
9.000214e+002, 6.260069e+004
9.005035e+002, 6.261779e+004
9.009856e+002, 6.266425e+004
9.014677e+002, 6.268632e+004
9.019498e+002, 6.264352e+004
9.024319e+002, 6.263276e+004
9.029141e+002, 6.267029e+004
9.033962e+002, 6.271720e+004
9.038783e+002, 6.273584e+004
9.043604e+002, 6.272922e+004
9.048425e+002, 6.272616e+004
9.053246e+002, 6.272791e+004
9.058068e+002, 6.274351e+004
9.062889e+002, 6.279376e+004
9.067710e+002, 6.285155e+004
9.072531e+002, 6.289079e+004
9.077352e+002, 6.290726e+004
9.082173e+002, 6.292596e+004
9.086995e+002, 6.295926e+004
9.091816e+002, 6.298287e+004
9.096637e+002, 6.298081e+004
9.101458e+002, 6.295905e+004
9.106279e+002, 6.296257e+004
9.111100e+002, 6.299007e+004
9.115922e+002, 6.301088e+004
9.120743e+002, 6.299677e+004
9.125564e+002, 6.297680e+004
9.130385e+002, 6.297645e+004
9.135206e+002, 6.299500e+004
9.140027e+002, 6.302870e+004
9.144849e+002, 6.310732e+004
9.149670e+002, 6.316082e+004
9.154491e+002, 6.316619e+004
9.159312e+002, 6.314713e+004
9.164133e+002, 6.315452e+004
9.168954e+002, 6.318774e+004
9.173776e+002, 6.321751e+004
9.178597e+002, 6.323574e+004
9.183418e+002, 6.325112e+004
9.188239e+002, 6.327279e+004
9.193060e+002, 6.329761e+004
9.197881e+002, 6.332105e+004
9.202703e+002, 6.334046e+004
9.207524e+002, 6.336081e+004
9.212345e+002, 6.337925e+004
9.217166e+002, 6.340182e+004
9.221987e+002, 6.343738e+004
9.226808e+002, 6.348679e+004
9.231630e+002, 6.351932e+004
9.236451e+002, 6.353291e+004
9.241272e+002, 6.354266e+004
9.246093e+002, 6.356004e+004
9.250914e+002, 6.358157e+004
9.255735e+002, 6.360533e+004
9.260557e+002, 6.363060e+004
9.265378e+002, 6.365027e+004
9.270199e+002, 6.365627e+004
9.275020e+002, 6.366290e+004
9.279841e+002, 6.367829e+004
9.284662e+002, 6.369884e+004
9.289484e+002, 6.369546e+004
9.294305e+002, 6.366867e+004
9.299126e+002, 6.365870e+004
9.303947e+002, 6.369368e+004
9.308768e+002, 6.374584e+004
9.313589e+002, 6.379717e+004
9.318411e+002, 6.383959e+004
9.323232e+002, 6.385376e+004
9.328053e+002, 6.380841e+004
9.332874e+002, 6.376801e+004
9.337695e+002, 6.373953e+004
9.342516e+002, 6.372458e+004
9.347338e+002, 6.373095e+004
9.352159e+002, 6.375870e+004
9.356980e+002, 6.377420e+004
9.361801e+002, 6.376882e+004
9.366622e+002, 6.376813e+004
9.371443e+002, 6.380559e+004
9.376265e+002, 6.385855e+004
9.381086e+002, 6.389646e+004
9.385907e+002, 6.390695e+004
9.390728e+002, 6.393215e+004
9.395549e+002, 6.399686e+004
9.400370e+002, 6.405304e+004
9.405192e+002, 6.406426e+004
9.410013e+002, 6.403377e+004
9.414834e+002, 6.403905e+004
9.419655e+002, 6.407927e+004
9.424476e+002, 6.412153e+004
9.429297e+002, 6.415820e+004
9.434119e+002, 6.417549e+004
9.438940e+002, 6.414663e+004
9.443761e+002, 6.408295e+004
9.448582e+002, 6.403561e+004
9.453403e+002, 6.402115e+004
9.458224e+002, 6.401954e+004
9.463046e+002, 6.403233e+004
9.467867e+002, 6.405260e+004
9.472688e+002, 6.406493e+004
9.477509e+002, 6.406984e+004
9.482330e+002, 6.406664e+004
9.487151e+002, 6.405062e+004
9.491973e+002, 6.404027e+004
9.496794e+002, 6.406173e+004
9.501615e+002, 6.409515e+004
9.506436e+002, 6.411618e+004
9.511257e+002, 6.411324e+004
9.516078e+002, 6.411129e+004
9.520900e+002, 6.410724e+004
9.525721e+002, 6.411092e+004
9.530542e+002, 6.412988e+004
9.535363e+002, 6.416366e+004
9.540184e+002, 6.421763e+004
9.545005e+002, 6.429008e+004
9.549827e+002, 6.434986e+004
9.554648e+002, 6.436129e+004
9.559469e+002, 6.436196e+004
9.564290e+002, 6.437145e+004
9.569111e+002, 6.439231e+004
9.573932e+002, 6.444032e+004
9.578754e+002, 6.453610e+004
9.583575e+002, 6.460618e+004
9.588396e+002, 6.461548e+004
9.593217e+002, 6.459558e+004
9.598038e+002, 6.463097e+004
9.602859e+002, 6.470426e+004
9.607681e+002, 6.475301e+004
9.612502e+002, 6.473589e+004
9.617323e+002, 6.471916e+004
9.622144e+002, 6.475421e+004
9.626965e+002, 6.480553e+004
9.631786e+002, 6.482634e+004
9.636608e+002, 6.480557e+004
9.641429e+002, 6.477974e+004
9.646250e+002, 6.474322e+004
9.651071e+002, 6.472880e+004
9.655892e+002, 6.480755e+004
9.660714e+002, 6.492363e+004
9.665535e+002, 6.494229e+004
9.670356e+002, 6.485576e+004
9.675177e+002, 6.477723e+004
9.679998e+002, 6.475752e+004
9.684819e+002, 6.476914e+004
9.689641e+002, 6.480634e+004
9.694462e+002, 6.486359e+004
9.699283e+002, 6.490782e+004
9.704104e+002, 6.493713e+004
9.708925e+002, 6.496171e+004
9.713746e+002, 6.497954e+004
9.718568e+002, 6.500129e+004
9.723389e+002, 6.504528e+004
9.728210e+002, 6.510523e+004
9.733031e+002, 6.516920e+004
9.737852e+002, 6.523794e+004
9.742673e+002, 6.530126e+004
9.747495e+002, 6.535118e+004
9.752316e+002, 6.540010e+004
9.757137e+002, 6.546449e+004
9.761958e+002, 6.554610e+004
9.766779e+002, 6.561722e+004
9.771600e+002, 6.567679e+004
9.776422e+002, 6.572300e+004
9.781243e+002, 6.573470e+004
9.786064e+002, 6.574743e+004
9.790885e+002, 6.580355e+004
9.795706e+002, 6.590722e+004
9.800527e+002, 6.601214e+004
9.805349e+002, 6.609551e+004
9.810170e+002, 6.620061e+004
9.814991e+002, 6.634006e+004
9.819812e+002, 6.651426e+004
9.824633e+002, 6.672327e+004
9.829454e+002, 6.696765e+004
9.834276e+002, 6.725207e+004
9.839097e+002, 6.758906e+004
9.843918e+002, 6.795627e+004
9.848739e+002, 6.833723e+004
9.853560e+002, 6.874211e+004
9.858381e+002, 6.918838e+004
9.863203e+002, 6.967149e+004
9.868024e+002, 7.019997e+004
9.872845e+002, 7.076677e+004
9.877666e+002, 7.139995e+004
9.882487e+002, 7.212510e+004
9.887308e+002, 7.293845e+004
9.892130e+002, 7.383972e+004
9.896951e+002, 7.482323e+004
9.901772e+002, 7.593685e+004
9.906593e+002, 7.715964e+004
9.911414e+002, 7.856277e+004
9.916235e+002, 8.015130e+004
9.921057e+002, 8.193001e+004
9.925878e+002, 8.409633e+004
9.930699e+002, 8.667417e+004
9.935520e+002, 8.960637e+004
9.940341e+002, 9.320702e+004
9.945162e+002, 9.663661e+004
9.949984e+002, 9.887747e+004
9.954805e+002, 1.000115e+005
9.959626e+002, 1.001805e+005
9.964447e+002, 9.872502e+004
9.969268e+002, 9.748128e+004
9.974089e+002, 9.695186e+004
9.978911e+002, 9.650870e+004
9.983732e+002, 9.564012e+004
9.988553e+002, 9.435716e+004
9.993374e+002, 9.264768e+004
9.998195e+002, 9.051521e+004
1.000302e+003, 8.827653e+004
1.000784e+003, 8.587913e+004
1.001266e+003, 8.369033e+004
1.001748e+003, 8.195719e+004
1.002230e+003, 8.069289e+004
1.002712e+003, 7.986759e+004
1.003194e+003, 7.950880e+004
1.003676e+003, 7.948090e+004
1.004159e+003, 7.987018e+004
1.004641e+003, 8.039748e+004
1.005123e+003, 8.069686e+004
1.005605e+003, 8.066341e+004
1.006087e+003, 7.993516e+004
1.006569e+003, 7.819948e+004
1.007051e+003, 7.628972e+004
1.007533e+003, 7.433577e+004
1.008016e+003, 7.257370e+004
1.008498e+003, 7.116770e+004
1.008980e+003, 7.015485e+004
1.009462e+003, 6.935987e+004
1.009944e+003, 6.878793e+004
1.010426e+003, 6.835125e+004
1.010908e+003, 6.801748e+004
1.011390e+003, 6.776289e+004
1.011872e+003, 6.756473e+004
1.012355e+003, 6.741846e+004
1.012837e+003, 6.730606e+004
1.013319e+003, 6.723970e+004
1.013801e+003, 6.718149e+004
1.014283e+003, 6.712677e+004
1.014765e+003, 6.707055e+004
1.015247e+003, 6.699486e+004
1.015729e+003, 6.690413e+004
1.016211e+003, 6.684286e+004
1.016694e+003, 6.682408e+004
1.017176e+003, 6.681402e+004
1.017658e+003, 6.678826e+004
1.018140e+003, 6.675812e+004
1.018622e+003, 6.673742e+004
1.019104e+003, 6.673247e+004
1.019586e+003, 6.670373e+004
1.020068e+003, 6.664364e+004
1.020551e+003, 6.658802e+004
1.021033e+003, 6.655510e+004
1.021515e+003, 6.654080e+004
1.021997e+003, 6.653810e+004
1.022479e+003, 6.654621e+004
1.022961e+003, 6.656320e+004
1.023443e+003, 6.659804e+004
1.023925e+003, 6.662853e+004
1.024407e+003, 6.664141e+004
1.024890e+003, 6.665046e+004
1.025372e+003, 6.667587e+004
1.025854e+003, 6.671780e+004
1.026336e+003, 6.674745e+004
1.026818e+003, 6.676183e+004
1.027300e+003, 6.676284e+004
1.027782e+003, 6.673430e+004
1.028264e+003, 6.670588e+004
1.028746e+003, 6.671427e+004
1.029229e+003, 6.676178e+004
1.029711e+003, 6.678360e+004
1.030193e+003, 6.675879e+004
1.030675e+003, 6.674505e+004
1.031157e+003, 6.676166e+004
1.031639e+003, 6.680101e+004
1.032121e+003, 6.686379e+004
1.032603e+003, 6.693640e+004
1.033086e+003, 6.697180e+004
1.033568e+003, 6.694058e+004
1.034050e+003, 6.690532e+004
1.034532e+003, 6.689518e+004
1.035014e+003, 6.689423e+004
1.035496e+003, 6.688844e+004
1.035978e+003, 6.687742e+004
1.036460e+003, 6.686803e+004
1.036943e+003, 6.686070e+004
1.037425e+003, 6.685505e+004
1.037907e+003, 6.684002e+004
1.038389e+003, 6.683457e+004
1.038871e+003, 6.686364e+004
1.039353e+003, 6.692109e+004
1.039835e+003, 6.698127e+004
1.040317e+003, 6.704911e+004
1.040799e+003, 6.709902e+004
1.041281e+003, 6.712191e+004
1.041764e+003, 6.713243e+004
1.042246e+003, 6.714834e+004
1.042728e+003, 6.717167e+004
1.043210e+003, 6.721998e+004
1.043692e+003, 6.730359e+004
1.044174e+003, 6.735370e+004
1.044656e+003, 6.728648e+004
1.045138e+003, 6.721408e+004
1.045621e+003, 6.721480e+004
1.046103e+003, 6.728269e+004
1.046585e+003, 6.733452e+004
1.047067e+003, 6.737006e+004
1.047549e+003, 6.738766e+004
1.048031e+003, 6.737764e+004
1.048513e+003, 6.736148e+004
1.048995e+003, 6.736364e+004
1.049478e+003, 6.737795e+004
1.049960e+003, 6.739380e+004
1.050442e+003, 6.740807e+004
1.050924e+003, 6.742599e+004
1.051406e+003, 6.745143e+004
1.051888e+003, 6.747463e+004
1.052370e+003, 6.748380e+004
1.052852e+003, 6.748430e+004
1.053334e+003, 6.749496e+004
1.053817e+003, 6.751580e+004
1.054299e+003, 6.753613e+004
1.054781e+003, 6.755018e+004
1.055263e+003, 6.756239e+004
1.055745e+003, 6.757273e+004
1.056227e+003, 6.758324e+004
1.056709e+003, 6.759827e+004
1.057191e+003, 6.761756e+004
1.057673e+003, 6.764163e+004
1.058156e+003, 6.767061e+004
1.058638e+003, 6.770270e+004
1.059120e+003, 6.773920e+004
1.059602e+003, 6.777582e+004
1.060084e+003, 6.780736e+004
1.060566e+003, 6.783189e+004
1.061048e+003, 6.785952e+004
1.061530e+003, 6.789878e+004
1.062013e+003, 6.792127e+004
1.062495e+003, 6.790600e+004
1.062977e+003, 6.787088e+004
1.063459e+003, 6.785681e+004
1.063941e+003, 6.786020e+004
1.064423e+003, 6.787043e+004
1.064905e+003, 6.789697e+004
1.065387e+003, 6.791075e+004
1.065870e+003, 6.789049e+004
1.066352e+003, 6.786319e+004
1.066834e+003, 6.785165e+004
1.067316e+003, 6.785609e+004
1.067798e+003, 6.786830e+004
1.068280e+003, 6.788811e+004
1.068762e+003, 6.790664e+004
1.069244e+003, 6.791814e+004
1.069726e+003, 6.792548e+004
1.070208e+003, 6.792139e+004
1.070691e+003, 6.791395e+004
1.071173e+003, 6.793805e+004
1.071655e+003, 6.800905e+004
1.072137e+003, 6.806338e+004
1.072619e+003, 6.808783e+004
1.073101e+003, 6.809705e+004
1.073583e+003, 6.810278e+004
1.074065e+003, 6.810982e+004
1.074548e+003, 6.813048e+004
1.075030e+003, 6.816937e+004
1.075512e+003, 6.819383e+004
1.075994e+003, 6.818358e+004
1.076476e+003, 6.817209e+004
1.076958e+003, 6.817334e+004
1.077440e+003, 6.818348e+004
1.077922e+003, 6.818892e+004
1.078405e+003, 6.819027e+004
1.078887e+003, 6.818905e+004
1.079369e+003, 6.818308e+004
1.079851e+003, 6.818067e+004
1.080333e+003, 6.818570e+004
1.080815e+003, 6.819825e+004
1.081297e+003, 6.821720e+004
1.081779e+003, 6.824242e+004
1.082261e+003, 6.827980e+004
1.082744e+003, 6.833127e+004
1.083226e+003, 6.837280e+004
1.083708e+003, 6.838013e+004
1.084190e+003, 6.837364e+004
1.084672e+003, 6.836061e+004
1.085154e+003, 6.835089e+004
1.085636e+003, 6.837984e+004
1.086118e+003, 6.848761e+004
1.086601e+003, 6.855473e+004
1.087083e+003, 6.855642e+004
1.087565e+003, 6.853955e+004
1.088047e+003, 6.856795e+004
1.088529e+003, 6.862085e+004
1.089011e+003, 6.865549e+004
1.089493e+003, 6.866689e+004
1.089975e+003, 6.867105e+004
1.090458e+003, 6.865408e+004
1.090940e+003, 6.865563e+004
1.091422e+003, 6.869734e+004
1.091904e+003, 6.876264e+004
1.092386e+003, 6.880203e+004
1.092868e+003, 6.881739e+004
1.093350e+003, 6.881520e+004
1.093832e+003, 6.878576e+004
1.094314e+003, 6.877658e+004
1.094797e+003, 6.884866e+004
1.095279e+003, 6.893692e+004
1.095761e+003, 6.897630e+004
1.096243e+003, 6.896159e+004
1.096725e+003, 6.897320e+004
1.097207e+003, 6.901309e+004
1.097689e+003, 6.906391e+004
1.098171e+003, 6.911530e+004
1.098653e+003, 6.917409e+004
1.099136e+003, 6.926159e+004
1.099618e+003, 6.935982e+004
1.100100e+003, 6.943358e+004
1.100582e+003, 6.944373e+004
1.101064e+003, 6.949046e+004
1.101546e+003, 6.958836e+004
1.102028e+003, 6.969034e+004
1.102510e+003, 6.975152e+004
1.102993e+003, 6.978586e+004
1.103475e+003, 6.982946e+004
1.103957e+003, 6.987899e+004
1.104439e+003, 6.990470e+004
1.104921e+003, 6.987134e+004
1.105403e+003, 6.984137e+004
1.105885e+003, 6.982945e+004
1.106367e+003, 6.983151e+004
1.106849e+003, 6.984091e+004
1.107332e+003, 6.985841e+004
1.107814e+003, 6.988280e+004
1.108296e+003, 6.991358e+004
1.108778e+003, 6.996462e+004
1.109260e+003, 7.007798e+004
1.109742e+003, 7.018422e+004
1.110224e+003, 7.023486e+004
1.110706e+003, 7.023917e+004
1.111188e+003, 7.024626e+004
1.111671e+003, 7.025552e+004
1.112153e+003, 7.026594e+004
1.112635e+003, 7.027725e+004
1.113117e+003, 7.028734e+004
1.113599e+003, 7.030027e+004
1.114081e+003, 7.030692e+004
1.114563e+003, 7.029086e+004
1.115045e+003, 7.024041e+004
1.115528e+003, 7.022420e+004
1.116010e+003, 7.024971e+004
1.116492e+003, 7.027747e+004
1.116974e+003, 7.028014e+004
1.117456e+003, 7.027717e+004
1.117938e+003, 7.031104e+004
1.118420e+003, 7.036264e+004
1.118902e+003, 7.039037e+004
1.119385e+003, 7.034332e+004
1.119867e+003, 7.033652e+004
1.120349e+003, 7.039322e+004
1.120831e+003, 7.045639e+004
1.121313e+003, 7.045177e+004
1.121795e+003, 7.041593e+004
1.122277e+003, 7.047058e+004
1.122759e+003, 7.060388e+004
1.123241e+003, 7.072584e+004
1.123724e+003, 7.077512e+004
1.124206e+003, 7.083102e+004
1.124688e+003, 7.092395e+004
1.125170e+003, 7.102699e+004
1.125652e+003, 7.110612e+004
1.126134e+003, 7.115908e+004
1.126616e+003, 7.116102e+004
1.127098e+003, 7.110786e+004
1.127580e+003, 7.104802e+004
1.128063e+003, 7.100455e+004
1.128545e+003, 7.097466e+004
1.129027e+003, 7.097045e+004
1.129509e+003, 7.097874e+004
1.129991e+003, 7.094973e+004
1.130473e+003, 7.088327e+004
1.130955e+003, 7.081677e+004
1.131437e+003, 7.075788e+004
1.131920e+003, 7.071022e+004
1.132402e+003, 7.067864e+004
1.132884e+003, 7.065845e+004
1.133366e+003, 7.064871e+004
1.133848e+003, 7.065023e+004
1.134330e+003, 7.063442e+004
1.134812e+003, 7.059612e+004
1.135294e+003, 7.056658e+004
1.135776e+003, 7.056080e+004
1.136259e+003, 7.056663e+004
1.136741e+003, 7.056941e+004
1.137223e+003, 7.057120e+004
1.137705e+003, 7.057592e+004
1.138187e+003, 7.058641e+004
1.138669e+003, 7.059267e+004
1.139151e+003, 7.059389e+004
1.139633e+003, 7.059102e+004
1.140115e+003, 7.058053e+004
1.140598e+003, 7.056847e+004
1.141080e+003, 7.057584e+004
1.141562e+003, 7.059267e+004
1.142044e+003, 7.059117e+004
1.142526e+003, 7.052830e+004
1.143008e+003, 7.049740e+004
1.143490e+003, 7.051723e+004
1.143972e+003, 7.055853e+004
1.144455e+003, 7.059934e+004
1.144937e+003, 7.063752e+004
1.145419e+003, 7.066273e+004
1.145901e+003, 7.067630e+004
1.146383e+003, 7.068983e+004
1.146865e+003, 7.072034e+004
1.147347e+003, 7.073610e+004
1.147829e+003, 7.071805e+004
1.148312e+003, 7.069113e+004
1.148794e+003, 7.069072e+004
1.149276e+003, 7.071602e+004
1.149758e+003, 7.076619e+004
1.150240e+003, 7.084115e+004
1.150722e+003, 7.091906e+004
1.151204e+003, 7.098728e+004
1.151686e+003, 7.105207e+004
1.152168e+003, 7.111033e+004
1.152651e+003, 7.116927e+004
1.153133e+003, 7.125986e+004
1.153615e+003, 7.137933e+004
1.154097e+003, 7.147395e+004
1.154579e+003, 7.152967e+004
1.155061e+003, 7.155977e+004
1.155543e+003, 7.158308e+004
1.156025e+003, 7.157829e+004
1.156507e+003, 7.150881e+004
1.156990e+003, 7.138523e+004
1.157472e+003, 7.130091e+004
1.157954e+003, 7.125811e+004
1.158436e+003, 7.121951e+004
1.158918e+003, 7.116798e+004
1.159400e+003, 7.112627e+004
1.159882e+003, 7.111835e+004
1.160364e+003, 7.113290e+004
1.160847e+003, 7.116027e+004
1.161329e+003, 7.120189e+004
1.161811e+003, 7.124016e+004
1.162293e+003, 7.127695e+004
1.162775e+003, 7.129353e+004
1.163257e+003, 7.125750e+004
1.163739e+003, 7.122338e+004
1.164221e+003, 7.127345e+004
1.164703e+003, 7.136833e+004
1.165186e+003, 7.144144e+004
1.165668e+003, 7.146156e+004
1.166150e+003, 7.150238e+004
1.166632e+003, 7.156747e+004
1.167114e+003, 7.163717e+004
1.167596e+003, 7.168415e+004
1.168078e+003, 7.173508e+004
1.168560e+003, 7.185513e+004
1.169042e+003, 7.201458e+004
1.169525e+003, 7.213159e+004
1.170007e+003, 7.218178e+004
1.170489e+003, 7.218688e+004
1.170971e+003, 7.213616e+004
1.171453e+003, 7.207141e+004
1.171935e+003, 7.202875e+004
1.172417e+003, 7.200221e+004
1.172899e+003, 7.197895e+004
1.173382e+003, 7.195998e+004
1.173864e+003, 7.195316e+004
1.174346e+003, 7.198993e+004
1.174828e+003, 7.199195e+004
1.175310e+003, 7.193051e+004
1.175792e+003, 7.186384e+004
1.176274e+003, 7.187550e+004
1.176756e+003, 7.193672e+004
1.177239e+003, 7.198205e+004
1.177721e+003, 7.200570e+004
1.178203e+003, 7.202648e+004
1.178685e+003, 7.203731e+004
1.179167e+003, 7.206624e+004
1.179649e+003, 7.213058e+004
1.180131e+003, 7.220156e+004
1.180613e+003, 7.222445e+004
1.181095e+003, 7.221196e+004
1.181578e+003, 7.220242e+004
1.182060e+003, 7.220212e+004
1.182542e+003, 7.219298e+004
1.183024e+003, 7.215544e+004
1.183506e+003, 7.212289e+004
1.183988e+003, 7.210941e+004
1.184470e+003, 7.210789e+004
1.184952e+003, 7.209754e+004
1.185434e+003, 7.208323e+004
1.185917e+003, 7.208398e+004
1.186399e+003, 7.210802e+004
1.186881e+003, 7.212784e+004
1.187363e+003, 7.210624e+004
1.187845e+003, 7.210536e+004
1.188327e+003, 7.216515e+004
1.188809e+003, 7.226317e+004
1.189291e+003, 7.231014e+004
1.189774e+003, 7.231721e+004
1.190256e+003, 7.234345e+004
1.190738e+003, 7.242092e+004
1.191220e+003, 7.247941e+004
1.191702e+003, 7.246909e+004
1.192184e+003, 7.244195e+004
1.192666e+003, 7.243013e+004
1.193148e+003, 7.243071e+004
1.193630e+003, 7.242021e+004
1.194113e+003, 7.240245e+004
1.194595e+003, 7.240064e+004
1.195077e+003, 7.243592e+004
1.195559e+003, 7.246835e+004
1.196041e+003, 7.248095e+004
1.196523e+003, 7.248029e+004
1.197005e+003, 7.247034e+004
1.197487e+003, 7.245173e+004
1.197969e+003, 7.242595e+004
1.198452e+003, 7.239541e+004
1.198934e+003, 7.237508e+004
1.199416e+003, 7.237277e+004
1.199898e+003, 7.238316e+004
1.200380e+003, 7.241908e+004
1.200862e+003, 7.245568e+004
1.201344e+003, 7.246227e+004
1.201826e+003, 7.243909e+004
1.202309e+003, 7.245005e+004
1.202791e+003, 7.249307e+004
1.203273e+003, 7.253793e+004
1.203755e+003, 7.257047e+004
1.204237e+003, 7.259666e+004
1.204719e+003, 7.262034e+004
1.205201e+003, 7.263752e+004
1.205683e+003, 7.263919e+004
1.206166e+003, 7.262548e+004
1.206648e+003, 7.261981e+004
1.207130e+003, 7.262355e+004
1.207612e+003, 7.264777e+004
1.208094e+003, 7.272835e+004
1.208576e+003, 7.279933e+004
1.209058e+003, 7.281943e+004
1.209540e+003, 7.280992e+004
1.210022e+003, 7.279094e+004
1.210505e+003, 7.276365e+004
1.210987e+003, 7.276939e+004
1.211469e+003, 7.281033e+004
1.211951e+003, 7.284204e+004
1.212433e+003, 7.282039e+004
1.212915e+003, 7.279787e+004
1.213397e+003, 7.280580e+004
1.213879e+003, 7.283229e+004
1.214361e+003, 7.286331e+004
1.214844e+003, 7.289791e+004
1.215326e+003, 7.291227e+004
1.215808e+003, 7.290342e+004
1.216290e+003, 7.290119e+004
1.216772e+003, 7.293253e+004
1.217254e+003, 7.296859e+004
1.217736e+003, 7.298944e+004
1.218218e+003, 7.300533e+004
1.218701e+003, 7.304428e+004
1.219183e+003, 7.310255e+004
1.219665e+003, 7.314351e+004
1.220147e+003, 7.316071e+004
1.220629e+003, 7.316365e+004
1.221111e+003, 7.313358e+004
1.221593e+003, 7.311709e+004
1.222075e+003, 7.314496e+004
1.222557e+003, 7.320004e+004
1.223040e+003, 7.324434e+004
1.223522e+003, 7.327802e+004
1.224004e+003, 7.329988e+004
1.224486e+003, 7.331013e+004
1.224968e+003, 7.331023e+004
1.225450e+003, 7.328890e+004
1.225932e+003, 7.327200e+004
1.226414e+003, 7.327274e+004
1.226896e+003, 7.328805e+004
1.227379e+003, 7.331495e+004
1.227861e+003, 7.334916e+004
1.228343e+003, 7.336264e+004
1.228825e+003, 7.334560e+004
1.229307e+003, 7.333182e+004
1.229789e+003, 7.334377e+004
1.230271e+003, 7.335864e+004
1.230753e+003, 7.336244e+004
1.231236e+003, 7.336045e+004
1.231718e+003, 7.337822e+004
1.232200e+003, 7.340730e+004
1.232682e+003, 7.340739e+004
1.233164e+003, 7.335817e+004
1.233646e+003, 7.332951e+004
1.234128e+003, 7.337183e+004
1.234610e+003, 7.342754e+004
1.235093e+003, 7.347977e+004
1.235575e+003, 7.351983e+004
1.236057e+003, 7.349989e+004
1.236539e+003, 7.344180e+004
1.237021e+003, 7.342055e+004
1.237503e+003, 7.346836e+004
1.237985e+003, 7.351286e+004
1.238467e+003, 7.352764e+004
1.238949e+003, 7.353192e+004
1.239432e+003, 7.353129e+004
1.239914e+003, 7.352701e+004
1.240396e+003, 7.351380e+004
1.240878e+003, 7.350080e+004
1.241360e+003, 7.351898e+004
1.241842e+003, 7.359257e+004
1.242324e+003, 7.364623e+004
1.242806e+003, 7.365032e+004
1.243288e+003, 7.365411e+004
1.243771e+003, 7.368421e+004
1.244253e+003, 7.372931e+004
1.244735e+003, 7.376230e+004
1.245217e+003, 7.378742e+004
1.245699e+003, 7.381548e+004
1.246181e+003, 7.385354e+004
1.246663e+003, 7.388318e+004
1.247145e+003, 7.390049e+004
1.247628e+003, 7.391435e+004
1.248110e+003, 7.392205e+004
1.248592e+003, 7.393667e+004
1.249074e+003, 7.401057e+004
1.249556e+003, 7.410533e+004
1.250038e+003, 7.414283e+004
1.250520e+003, 7.406285e+004
1.251002e+003, 7.402819e+004
1.251484e+003, 7.405354e+004
1.251967e+003, 7.409808e+004
1.252449e+003, 7.414735e+004
1.252931e+003, 7.419127e+004
1.253413e+003, 7.421518e+004
1.253895e+003, 7.422195e+004
1.254377e+003, 7.421228e+004
1.254859e+003, 7.416596e+004
1.255341e+003, 7.416673e+004
1.255823e+003, 7.422401e+004
1.256306e+003, 7.428230e+004
1.256788e+003, 7.430987e+004
1.257270e+003, 7.431981e+004
1.257752e+003, 7.432105e+004
1.258234e+003, 7.431870e+004
1.258716e+003, 7.432171e+004
1.259198e+003, 7.433336e+004
1.259680e+003, 7.434716e+004
1.260163e+003, 7.436556e+004
1.260645e+003, 7.437217e+004
1.261127e+003, 7.435280e+004
1.261609e+003, 7.432531e+004
1.262091e+003, 7.430165e+004
1.262573e+003, 7.428252e+004
1.263055e+003, 7.426759e+004
1.263537e+003, 7.425563e+004
1.264020e+003, 7.424945e+004
1.264502e+003, 7.424863e+004
1.264984e+003, 7.426930e+004
1.265466e+003, 7.432594e+004
1.265948e+003, 7.439818e+004
1.266430e+003, 7.450308e+004
1.266912e+003, 7.459257e+004
1.267394e+003, 7.460647e+004
1.267876e+003, 7.454282e+004
1.268359e+003, 7.451454e+004
1.268841e+003, 7.451837e+004
1.269323e+003, 7.452511e+004
1.269805e+003, 7.452288e+004
1.270287e+003, 7.451591e+004
1.270769e+003, 7.449816e+004
1.271251e+003, 7.448479e+004
1.271733e+003, 7.448773e+004
1.272215e+003, 7.450679e+004
1.272698e+003, 7.454723e+004
1.273180e+003, 7.460135e+004
1.273662e+003, 7.462962e+004
1.274144e+003, 7.459508e+004
1.274626e+003, 7.455912e+004
1.275108e+003, 7.452088e+004
1.275590e+003, 7.450552e+004
1.276072e+003, 7.455105e+004
1.276555e+003, 7.463202e+004
1.277037e+003, 7.465595e+004
1.277519e+003, 7.463918e+004
1.278001e+003, 7.463095e+004
1.278483e+003, 7.465266e+004
1.278965e+003, 7.467873e+004
1.279447e+003, 7.470808e+004
1.279929e+003, 7.473670e+004
1.280411e+003, 7.475955e+004
1.280894e+003, 7.477992e+004
1.281376e+003, 7.480841e+004
1.281858e+003, 7.483912e+004
1.282340e+003, 7.485927e+004
1.282822e+003, 7.486402e+004
1.283304e+003, 7.485953e+004
1.283786e+003, 7.484098e+004
1.284268e+003, 7.483970e+004
1.284750e+003, 7.489384e+004
1.285233e+003, 7.496291e+004
1.285715e+003, 7.499721e+004
1.286197e+003, 7.501348e+004
1.286679e+003, 7.504227e+004
1.287161e+003, 7.509063e+004
1.287643e+003, 7.512386e+004
1.288125e+003, 7.514070e+004
1.288607e+003, 7.515811e+004
1.289090e+003, 7.519016e+004
1.289572e+003, 7.522027e+004
1.290054e+003, 7.523819e+004
1.290536e+003, 7.524461e+004
1.291018e+003, 7.523669e+004
1.291500e+003, 7.521258e+004
1.291982e+003, 7.523413e+004
1.292464e+003, 7.529417e+004
1.292947e+003, 7.532784e+004
1.293429e+003, 7.527980e+004
1.293911e+003, 7.522972e+004
1.294393e+003, 7.521583e+004
1.294875e+003, 7.521489e+004
1.295357e+003, 7.520896e+004
1.295839e+003, 7.520013e+004
1.296321e+003, 7.521636e+004
1.296803e+003, 7.525146e+004
1.297286e+003, 7.527534e+004
1.297768e+003, 7.525821e+004
1.298250e+003, 7.526277e+004
1.298732e+003, 7.530898e+004
1.299214e+003, 7.535920e+004
1.299696e+003, 7.537680e+004
1.300178e+003, 7.537813e+004
1.300660e+003, 7.542313e+004
##END=



