##NAMES=Glecklerite
##RRUFFID=R230002
##IDEAL CHEMISTRY=Na(C_2_H_3_O_3_)
##LOCALITY=Pusch Ridge, Santa Catalina Mountains, Tucson, Pima County, Arizona, USA
##OWNER=RRUFF
##SOURCE=Warren Lazar
##DESCRIPTION=Colorless elongated tabular crystals, associated with NH4-glycolate minerals. Type sample
##STATUS=The identification of this mineral is confirmed by single-crystal X-ray diffraction and chemical analysis.
##URL=rruff.info/R230002
##MEASURED CHEMISTRY=Na_0.97_(C_2_H_3_O_3_) ; The empirical formula was calculated based on 2 C apfu (from the structure determination).
8.955957e+001, 5.341312e+002
9.004169e+001, 5.326260e+002
9.052380e+001, 5.361758e+002
9.100592e+001, 5.430959e+002
9.148804e+001, 5.485780e+002
9.197015e+001, 5.503977e+002
9.245227e+001, 5.540377e+002
9.293439e+001, 5.613644e+002
9.341650e+001, 5.616482e+002
9.389862e+001, 5.573199e+002
9.438074e+001, 5.541309e+002
9.486285e+001, 5.522875e+002
9.534497e+001, 5.515248e+002
9.582709e+001, 5.508890e+002
9.630920e+001, 5.506160e+002
9.679132e+001, 5.537145e+002
9.727344e+001, 5.603293e+002
9.775555e+001, 5.676741e+002
9.823766e+001, 5.717402e+002
9.871978e+001, 5.710067e+002
9.920190e+001, 5.695168e+002
9.968401e+001, 5.645428e+002
1.001661e+002, 5.599421e+002
1.006482e+002, 5.592363e+002
1.011304e+002, 5.635517e+002
1.016125e+002, 5.722651e+002
1.020946e+002, 5.847247e+002
1.025767e+002, 6.000477e+002
1.030588e+002, 6.188958e+002
1.035409e+002, 6.433671e+002
1.040231e+002, 6.721122e+002
1.045052e+002, 7.002732e+002
1.049873e+002, 7.275675e+002
1.054694e+002, 7.512648e+002
1.059515e+002, 7.672872e+002
1.064336e+002, 7.718663e+002
1.069158e+002, 7.736313e+002
1.073979e+002, 7.811682e+002
1.078800e+002, 7.946878e+002
1.083621e+002, 8.131857e+002
1.088442e+002, 8.345550e+002
1.093263e+002, 8.605371e+002
1.098085e+002, 8.935062e+002
1.102906e+002, 9.337868e+002
1.107727e+002, 9.819083e+002
1.112548e+002, 1.040697e+003
1.117369e+002, 1.114419e+003
1.122190e+002, 1.195447e+003
1.127012e+002, 1.283078e+003
1.131833e+002, 1.376287e+003
1.136654e+002, 1.473666e+003
1.141475e+002, 1.576798e+003
1.146296e+002, 1.687048e+003
1.151117e+002, 1.784284e+003
1.155939e+002, 1.878037e+003
1.160760e+002, 1.953193e+003
1.165581e+002, 2.007251e+003
1.170402e+002, 2.037500e+003
1.175223e+002, 2.038267e+003
1.180044e+002, 2.001915e+003
1.184866e+002, 1.916105e+003
1.189687e+002, 1.815960e+003
1.194508e+002, 1.694619e+003
1.199329e+002, 1.562899e+003
1.204150e+002, 1.427638e+003
1.208971e+002, 1.289561e+003
1.213793e+002, 1.155939e+003
1.218614e+002, 1.039270e+003
1.223435e+002, 9.374257e+002
1.228256e+002, 8.471373e+002
1.233077e+002, 7.682989e+002
1.237898e+002, 7.000673e+002
1.242720e+002, 6.403888e+002
1.247541e+002, 5.905532e+002
1.252362e+002, 5.482789e+002
1.257183e+002, 5.086080e+002
1.262004e+002, 4.714059e+002
1.266825e+002, 4.381256e+002
1.271647e+002, 4.108215e+002
1.276468e+002, 3.896752e+002
1.281289e+002, 3.714708e+002
1.286110e+002, 3.560782e+002
1.290931e+002, 3.428477e+002
1.295752e+002, 3.318556e+002
1.300574e+002, 3.231308e+002
1.305395e+002, 3.162346e+002
1.310216e+002, 3.104357e+002
1.315037e+002, 3.060536e+002
1.319858e+002, 3.023860e+002
1.324679e+002, 3.003660e+002
1.329501e+002, 2.985023e+002
1.334322e+002, 2.952383e+002
1.339143e+002, 2.897062e+002
1.343964e+002, 2.821796e+002
1.348785e+002, 2.742307e+002
1.353606e+002, 2.654090e+002
1.358427e+002, 2.565823e+002
1.363249e+002, 2.476583e+002
1.368070e+002, 2.388776e+002
1.372891e+002, 2.306337e+002
1.377712e+002, 2.232465e+002
1.382533e+002, 2.167412e+002
1.387354e+002, 2.109128e+002
1.392176e+002, 2.056759e+002
1.396997e+002, 2.010571e+002
1.401818e+002, 1.973305e+002
1.406639e+002, 1.944048e+002
1.411460e+002, 1.916452e+002
1.416281e+002, 1.883784e+002
1.421103e+002, 1.846519e+002
1.425924e+002, 1.817010e+002
1.430745e+002, 1.801223e+002
1.435566e+002, 1.791088e+002
1.440387e+002, 1.778327e+002
1.445208e+002, 1.761761e+002
1.450030e+002, 1.743624e+002
1.454851e+002, 1.726363e+002
1.459672e+002, 1.709549e+002
1.464493e+002, 1.691232e+002
1.469314e+002, 1.671190e+002
1.474135e+002, 1.649137e+002
1.478957e+002, 1.623539e+002
1.483778e+002, 1.591352e+002
1.488599e+002, 1.559495e+002
1.493420e+002, 1.532620e+002
1.498241e+002, 1.510061e+002
1.503062e+002, 1.489604e+002
1.507884e+002, 1.470025e+002
1.512705e+002, 1.451315e+002
1.517526e+002, 1.432807e+002
1.522347e+002, 1.414189e+002
1.527168e+002, 1.396105e+002
1.531989e+002, 1.378835e+002
1.536811e+002, 1.362478e+002
1.541632e+002, 1.346838e+002
1.546453e+002, 1.331270e+002
1.551274e+002, 1.314140e+002
1.556095e+002, 1.301808e+002
1.560916e+002, 1.297914e+002
1.565738e+002, 1.295497e+002
1.570559e+002, 1.289180e+002
1.575380e+002, 1.278006e+002
1.580201e+002, 1.265842e+002
1.585022e+002, 1.259552e+002
1.589843e+002, 1.266147e+002
1.594665e+002, 1.268871e+002
1.599486e+002, 1.259864e+002
1.604307e+002, 1.250564e+002
1.609128e+002, 1.254413e+002
1.613949e+002, 1.276641e+002
1.618770e+002, 1.308759e+002
1.623592e+002, 1.329662e+002
1.628413e+002, 1.330266e+002
1.633234e+002, 1.334480e+002
1.638055e+002, 1.354922e+002
1.642876e+002, 1.380855e+002
1.647697e+002, 1.392292e+002
1.652519e+002, 1.379009e+002
1.657340e+002, 1.348154e+002
1.662161e+002, 1.318669e+002
1.666982e+002, 1.292868e+002
1.671803e+002, 1.264732e+002
1.676624e+002, 1.224651e+002
1.681445e+002, 1.176653e+002
1.686267e+002, 1.142169e+002
1.691088e+002, 1.137339e+002
1.695909e+002, 1.148813e+002
1.700730e+002, 1.149709e+002
1.705551e+002, 1.132577e+002
1.710372e+002, 1.115913e+002
1.715194e+002, 1.119201e+002
1.720015e+002, 1.144520e+002
1.724836e+002, 1.168744e+002
1.729657e+002, 1.178446e+002
1.734478e+002, 1.182895e+002
1.739299e+002, 1.190036e+002
1.744121e+002, 1.201992e+002
1.748942e+002, 1.217429e+002
1.753763e+002, 1.234419e+002
1.758584e+002, 1.252979e+002
1.763405e+002, 1.273020e+002
1.768226e+002, 1.296040e+002
1.773048e+002, 1.319746e+002
1.777869e+002, 1.342174e+002
1.782690e+002, 1.363065e+002
1.787511e+002, 1.381160e+002
1.792332e+002, 1.393226e+002
1.797153e+002, 1.401359e+002
1.801975e+002, 1.398763e+002
1.806796e+002, 1.384006e+002
1.811617e+002, 1.359207e+002
1.816438e+002, 1.324412e+002
1.821259e+002, 1.278465e+002
1.826080e+002, 1.224909e+002
1.830902e+002, 1.185359e+002
1.835723e+002, 1.177140e+002
1.840544e+002, 1.166367e+002
1.845365e+002, 1.144662e+002
1.850186e+002, 1.116815e+002
1.855007e+002, 1.091446e+002
1.859829e+002, 1.073938e+002
1.864650e+002, 1.064069e+002
1.869471e+002, 1.057119e+002
1.874292e+002, 1.052833e+002
1.879113e+002, 1.051168e+002
1.883934e+002, 1.055944e+002
1.888756e+002, 1.063979e+002
1.893577e+002, 1.067155e+002
1.898398e+002, 1.058931e+002
1.903219e+002, 1.039537e+002
1.908040e+002, 1.023107e+002
1.912861e+002, 1.007337e+002
1.917683e+002, 9.958308e+001
1.922504e+002, 9.922441e+001
1.927325e+002, 9.956532e+001
1.932146e+002, 1.000725e+002
1.936967e+002, 1.004052e+002
1.941788e+002, 1.005460e+002
1.946610e+002, 1.005889e+002
1.951431e+002, 1.004296e+002
1.956252e+002, 1.002436e+002
1.961073e+002, 1.000718e+002
1.965894e+002, 9.991402e+001
1.970715e+002, 1.000589e+002
1.975536e+002, 1.010446e+002
1.980358e+002, 1.025211e+002
1.985179e+002, 1.034498e+002
1.990000e+002, 1.030917e+002
1.994821e+002, 1.023589e+002
1.999642e+002, 1.025720e+002
2.004464e+002, 1.039916e+002
2.009285e+002, 1.052905e+002
2.014106e+002, 1.056798e+002
2.018927e+002, 1.053450e+002
2.023748e+002, 1.043722e+002
2.028569e+002, 1.024337e+002
2.033391e+002, 1.000046e+002
2.038212e+002, 9.809365e+001
2.043033e+002, 9.690031e+001
2.047854e+002, 9.578467e+001
2.052675e+002, 9.448366e+001
2.057496e+002, 9.302802e+001
2.062318e+002, 9.144872e+001
2.067139e+002, 8.972779e+001
2.071960e+002, 8.790333e+001
2.076781e+002, 8.608447e+001
2.081602e+002, 8.413683e+001
2.086423e+002, 8.241161e+001
2.091245e+002, 8.110871e+001
2.096066e+002, 8.006374e+001
2.100887e+002, 7.901754e+001
2.105708e+002, 7.781601e+001
2.110529e+002, 7.649218e+001
2.115350e+002, 7.524709e+001
2.120172e+002, 7.388113e+001
2.124993e+002, 7.287468e+001
2.129814e+002, 7.240150e+001
2.134635e+002, 7.233758e+001
2.139456e+002, 7.253185e+001
2.144277e+002, 7.294291e+001
2.149099e+002, 7.351826e+001
2.153920e+002, 7.365499e+001
2.158741e+002, 7.294960e+001
2.163562e+002, 7.217056e+001
2.168383e+002, 7.128880e+001
2.173204e+002, 7.044951e+001
2.178026e+002, 6.989286e+001
2.182847e+002, 6.981326e+001
2.187668e+002, 7.017677e+001
2.192489e+002, 7.031483e+001
2.197310e+002, 7.009328e+001
2.202131e+002, 6.980199e+001
2.206953e+002, 6.930021e+001
2.211774e+002, 6.877850e+001
2.216595e+002, 6.874059e+001
2.221416e+002, 6.965813e+001
2.226237e+002, 7.142146e+001
2.231058e+002, 7.161011e+001
2.235880e+002, 6.859837e+001
2.240701e+002, 6.601219e+001
2.245522e+002, 6.534685e+001
2.250343e+002, 6.617339e+001
2.255164e+002, 6.730507e+001
2.259985e+002, 6.805364e+001
2.264807e+002, 6.839662e+001
2.269628e+002, 6.823193e+001
2.274449e+002, 6.699635e+001
2.279270e+002, 6.590606e+001
2.284091e+002, 6.542045e+001
2.288912e+002, 6.550826e+001
2.293733e+002, 6.609463e+001
2.298555e+002, 6.733205e+001
2.303376e+002, 6.896898e+001
2.308197e+002, 6.976696e+001
2.313018e+002, 6.935656e+001
2.317839e+002, 6.855027e+001
2.322660e+002, 6.735410e+001
2.327482e+002, 6.595061e+001
2.332303e+002, 6.529977e+001
2.337124e+002, 6.629947e+001
2.341945e+002, 6.831801e+001
2.346766e+002, 6.922402e+001
2.351587e+002, 6.833932e+001
2.356409e+002, 6.717222e+001
2.361230e+002, 6.662940e+001
2.366051e+002, 6.666450e+001
2.370872e+002, 6.693134e+001
2.375693e+002, 6.746558e+001
2.380514e+002, 6.800535e+001
2.385336e+002, 6.802798e+001
2.390157e+002, 6.725112e+001
2.394978e+002, 6.640705e+001
2.399799e+002, 6.605299e+001
2.404620e+002, 6.617087e+001
2.409441e+002, 6.648055e+001
2.414263e+002, 6.722266e+001
2.419084e+002, 6.785247e+001
2.423905e+002, 6.758414e+001
2.428726e+002, 6.609972e+001
2.433547e+002, 6.445417e+001
2.438368e+002, 6.356771e+001
2.443190e+002, 6.345243e+001
2.448011e+002, 6.352425e+001
2.452832e+002, 6.373304e+001
2.457653e+002, 6.395721e+001
2.462474e+002, 6.419326e+001
2.467295e+002, 6.448621e+001
2.472117e+002, 6.444182e+001
2.476938e+002, 6.331456e+001
2.481759e+002, 6.098848e+001
2.486580e+002, 5.948721e+001
2.491401e+002, 6.020433e+001
2.496222e+002, 6.134933e+001
2.501044e+002, 6.156428e+001
2.505865e+002, 6.068703e+001
2.510686e+002, 5.962969e+001
2.515507e+002, 5.946675e+001
2.520328e+002, 6.033776e+001
2.525149e+002, 6.072681e+001
2.529971e+002, 5.977670e+001
2.534792e+002, 5.869902e+001
2.539613e+002, 5.820287e+001
2.544434e+002, 5.832628e+001
2.549255e+002, 5.861690e+001
2.554076e+002, 5.871697e+001
2.558898e+002, 5.865073e+001
2.563719e+002, 5.819984e+001
2.568540e+002, 5.659877e+001
2.573361e+002, 5.518252e+001
2.578182e+002, 5.466404e+001
2.583003e+002, 5.499432e+001
2.587824e+002, 5.559879e+001
2.592646e+002, 5.602487e+001
2.597467e+002, 5.629867e+001
2.602288e+002, 5.620726e+001
2.607109e+002, 5.522527e+001
2.611930e+002, 5.430029e+001
2.616751e+002, 5.374269e+001
2.621573e+002, 5.356145e+001
2.626394e+002, 5.366505e+001
2.631215e+002, 5.404015e+001
2.636036e+002, 5.472430e+001
2.640857e+002, 5.521426e+001
2.645678e+002, 5.563205e+001
2.650500e+002, 5.571888e+001
2.655321e+002, 5.515702e+001
2.660142e+002, 5.416020e+001
2.664963e+002, 5.321680e+001
2.669784e+002, 5.274940e+001
2.674605e+002, 5.275712e+001
2.679427e+002, 5.256076e+001
2.684248e+002, 5.178995e+001
2.689069e+002, 5.117314e+001
2.693890e+002, 5.100885e+001
2.698711e+002, 5.113271e+001
2.703532e+002, 5.120144e+001
2.708354e+002, 5.096661e+001
2.713175e+002, 5.046442e+001
2.717996e+002, 5.011486e+001
2.722817e+002, 5.002980e+001
2.727638e+002, 4.999465e+001
2.732459e+002, 4.999791e+001
2.737281e+002, 5.002267e+001
2.742102e+002, 5.007939e+001
2.746923e+002, 5.018622e+001
2.751744e+002, 5.029364e+001
2.756565e+002, 5.015183e+001
2.761386e+002, 4.916772e+001
2.766208e+002, 4.858723e+001
2.771029e+002, 4.894466e+001
2.775850e+002, 4.966496e+001
2.780671e+002, 4.991577e+001
2.785492e+002, 4.929075e+001
2.790313e+002, 4.818068e+001
2.795135e+002, 4.779011e+001
2.799956e+002, 4.938279e+001
2.804777e+002, 5.016770e+001
2.809598e+002, 4.933509e+001
2.814419e+002, 4.793046e+001
2.819240e+002, 4.711254e+001
2.824062e+002, 4.730435e+001
2.828883e+002, 4.801757e+001
2.833704e+002, 4.824725e+001
2.838525e+002, 4.730700e+001
2.843346e+002, 4.685693e+001
2.848167e+002, 4.730341e+001
2.852989e+002, 4.799712e+001
2.857810e+002, 4.830036e+001
2.862631e+002, 4.806954e+001
2.867452e+002, 4.772138e+001
2.872273e+002, 4.793187e+001
2.877094e+002, 4.932415e+001
2.881916e+002, 4.982881e+001
2.886737e+002, 4.884545e+001
2.891558e+002, 4.746510e+001
2.896379e+002, 4.632154e+001
2.901200e+002, 4.557910e+001
2.906021e+002, 4.524502e+001
2.910843e+002, 4.541321e+001
2.915664e+002, 4.634232e+001
2.920485e+002, 4.665224e+001
2.925306e+002, 4.568108e+001
2.930127e+002, 4.472247e+001
2.934948e+002, 4.470341e+001
2.939770e+002, 4.552909e+001
2.944591e+002, 4.637775e+001
2.949412e+002, 4.650812e+001
2.954233e+002, 4.584989e+001
2.959054e+002, 4.540316e+001
2.963875e+002, 4.532495e+001
2.968697e+002, 4.526230e+001
2.973518e+002, 4.497586e+001
2.978339e+002, 4.455969e+001
2.983160e+002, 4.428643e+001
2.987981e+002, 4.434975e+001
2.992802e+002, 4.472750e+001
2.997624e+002, 4.518674e+001
3.002445e+002, 4.618679e+001
3.007266e+002, 4.675777e+001
3.012087e+002, 4.621833e+001
3.016908e+002, 4.507382e+001
3.021729e+002, 4.434300e+001
3.026551e+002, 4.461548e+001
3.031372e+002, 4.550697e+001
3.036193e+002, 4.562870e+001
3.041014e+002, 4.386319e+001
3.045835e+002, 4.274654e+001
3.050656e+002, 4.315508e+001
3.055477e+002, 4.425897e+001
3.060298e+002, 4.493840e+001
3.065120e+002, 4.476481e+001
3.069941e+002, 4.412292e+001
3.074762e+002, 4.376970e+001
3.079583e+002, 4.393603e+001
3.084404e+002, 4.400164e+001
3.089225e+002, 4.380195e+001
3.094047e+002, 4.356246e+001
3.098868e+002, 4.349212e+001
3.103689e+002, 4.364280e+001
3.108510e+002, 4.397078e+001
3.113331e+002, 4.448580e+001
3.118152e+002, 4.542106e+001
3.122974e+002, 4.571511e+001
3.127795e+002, 4.471714e+001
3.132616e+002, 4.358223e+001
3.137437e+002, 4.323904e+001
3.142258e+002, 4.369698e+001
3.147079e+002, 4.420358e+001
3.151901e+002, 4.403171e+001
3.156722e+002, 4.308311e+001
3.161543e+002, 4.240074e+001
3.166364e+002, 4.206799e+001
3.171185e+002, 4.187397e+001
3.176006e+002, 4.175689e+001
3.180828e+002, 4.169495e+001
3.185649e+002, 4.165951e+001
3.190470e+002, 4.163280e+001
3.195291e+002, 4.161470e+001
3.200112e+002, 4.160627e+001
3.204933e+002, 4.163010e+001
3.209755e+002, 4.163657e+001
3.214576e+002, 4.155629e+001
3.219397e+002, 4.145625e+001
3.224218e+002, 4.149500e+001
3.229039e+002, 4.176704e+001
3.233860e+002, 4.213793e+001
3.238682e+002, 4.219958e+001
3.243503e+002, 4.155816e+001
3.248324e+002, 4.110291e+001
3.253145e+002, 4.105388e+001
3.257966e+002, 4.115612e+001
3.262787e+002, 4.112651e+001
3.267609e+002, 4.087613e+001
3.272430e+002, 4.050284e+001
3.277251e+002, 4.014250e+001
3.282072e+002, 3.968726e+001
3.286893e+002, 3.951256e+001
3.291714e+002, 3.977483e+001
3.296536e+002, 4.019326e+001
3.301357e+002, 4.068945e+001
3.306178e+002, 4.118745e+001
3.310999e+002, 4.145150e+001
3.315820e+002, 4.117663e+001
3.320641e+002, 4.019936e+001
3.325463e+002, 3.965732e+001
3.330284e+002, 3.981538e+001
3.335105e+002, 4.006337e+001
3.339926e+002, 4.012122e+001
3.344747e+002, 4.001609e+001
3.349568e+002, 3.990031e+001
3.354390e+002, 3.987823e+001
3.359211e+002, 3.994753e+001
3.364032e+002, 4.008047e+001
3.368853e+002, 4.038157e+001
3.373674e+002, 4.062598e+001
3.378495e+002, 4.082771e+001
3.383317e+002, 4.092936e+001
3.388138e+002, 4.079688e+001
3.392959e+002, 4.035600e+001
3.397780e+002, 3.976333e+001
3.402601e+002, 3.946359e+001
3.407422e+002, 3.977330e+001
3.412244e+002, 3.996995e+001
3.417065e+002, 4.002140e+001
3.421886e+002, 3.995803e+001
3.426707e+002, 3.980560e+001
3.431528e+002, 3.957209e+001
3.436349e+002, 3.925167e+001
3.441171e+002, 3.881399e+001
3.445992e+002, 3.815821e+001
3.450813e+002, 3.765149e+001
3.455634e+002, 3.701557e+001
3.460455e+002, 3.672305e+001
3.465276e+002, 3.739948e+001
3.470098e+002, 3.879913e+001
3.474919e+002, 3.993299e+001
3.479740e+002, 3.978936e+001
3.484561e+002, 3.827053e+001
3.489382e+002, 3.737505e+001
3.494203e+002, 3.761474e+001
3.499025e+002, 3.796056e+001
3.503846e+002, 3.816588e+001
3.508667e+002, 3.827667e+001
3.513488e+002, 3.844872e+001
3.518309e+002, 3.879485e+001
3.523130e+002, 3.921466e+001
3.527952e+002, 3.928731e+001
3.532773e+002, 3.869156e+001
3.537594e+002, 3.821423e+001
3.542415e+002, 3.800802e+001
3.547236e+002, 3.794528e+001
3.552057e+002, 3.792786e+001
3.556879e+002, 3.791700e+001
3.561700e+002, 3.787672e+001
3.566521e+002, 3.773808e+001
3.571342e+002, 3.745777e+001
3.576163e+002, 3.719637e+001
3.580984e+002, 3.685084e+001
3.585806e+002, 3.661314e+001
3.590627e+002, 3.652445e+001
3.595448e+002, 3.662944e+001
3.600269e+002, 3.705565e+001
3.605090e+002, 3.817587e+001
3.609911e+002, 4.003862e+001
3.614733e+002, 4.095609e+001
3.619554e+002, 4.029152e+001
3.624375e+002, 3.931306e+001
3.629196e+002, 3.824261e+001
3.634017e+002, 3.724428e+001
3.638839e+002, 3.658233e+001
3.643660e+002, 3.645242e+001
3.648481e+002, 3.671522e+001
3.653302e+002, 3.700563e+001
3.658123e+002, 3.741223e+001
3.662944e+002, 3.764047e+001
3.667766e+002, 3.748069e+001
3.672587e+002, 3.716970e+001
3.677408e+002, 3.688868e+001
3.682229e+002, 3.667593e+001
3.687050e+002, 3.661665e+001
3.691871e+002, 3.697167e+001
3.696692e+002, 3.781632e+001
3.701513e+002, 3.823866e+001
3.706335e+002, 3.773469e+001
3.711156e+002, 3.698901e+001
3.715977e+002, 3.643241e+001
3.720798e+002, 3.609055e+001
3.725619e+002, 3.587785e+001
3.730440e+002, 3.573738e+001
3.735262e+002, 3.567782e+001
3.740083e+002, 3.573281e+001
3.744904e+002, 3.589268e+001
3.749725e+002, 3.619757e+001
3.754546e+002, 3.692497e+001
3.759367e+002, 3.780930e+001
3.764189e+002, 3.822832e+001
3.769010e+002, 3.758389e+001
3.773831e+002, 3.664087e+001
3.778652e+002, 3.662180e+001
3.783473e+002, 3.761569e+001
3.788294e+002, 3.829171e+001
3.793116e+002, 3.773170e+001
3.797937e+002, 3.660622e+001
3.802758e+002, 3.603153e+001
3.807579e+002, 3.625190e+001
3.812400e+002, 3.654218e+001
3.817221e+002, 3.631358e+001
3.822043e+002, 3.574660e+001
3.826864e+002, 3.554486e+001
3.831685e+002, 3.602776e+001
3.836506e+002, 3.666277e+001
3.841327e+002, 3.662759e+001
3.846148e+002, 3.594934e+001
3.850970e+002, 3.552248e+001
3.855791e+002, 3.576482e+001
3.860612e+002, 3.629913e+001
3.865433e+002, 3.674466e+001
3.870254e+002, 3.705997e+001
3.875075e+002, 3.714848e+001
3.879897e+002, 3.680547e+001
3.884718e+002, 3.611680e+001
3.889539e+002, 3.589297e+001
3.894360e+002, 3.645272e+001
3.899181e+002, 3.715298e+001
3.904002e+002, 3.779541e+001
3.908824e+002, 3.832224e+001
3.913645e+002, 3.856297e+001
3.918466e+002, 3.840218e+001
3.923287e+002, 3.800458e+001
3.928108e+002, 3.777104e+001
3.932929e+002, 3.773518e+001
3.937751e+002, 3.778392e+001
3.942572e+002, 3.803660e+001
3.947393e+002, 3.829988e+001
3.952214e+002, 3.832140e+001
3.957035e+002, 3.806942e+001
3.961856e+002, 3.776701e+001
3.966678e+002, 3.765385e+001
3.971499e+002, 3.774923e+001
3.976320e+002, 3.796067e+001
3.981141e+002, 3.853057e+001
3.985962e+002, 3.896507e+001
3.990783e+002, 3.879070e+001
3.995605e+002, 3.828608e+001
4.000426e+002, 3.816592e+001
4.005247e+002, 3.891707e+001
4.010068e+002, 4.030486e+001
4.014889e+002, 4.126498e+001
4.019710e+002, 4.172649e+001
4.024532e+002, 4.178423e+001
4.029353e+002, 4.101397e+001
4.034174e+002, 4.007865e+001
4.038995e+002, 3.963689e+001
4.043816e+002, 3.986046e+001
4.048637e+002, 4.041169e+001
4.053459e+002, 4.084895e+001
4.058280e+002, 4.114644e+001
4.063101e+002, 4.140540e+001
4.067922e+002, 4.166688e+001
4.072743e+002, 4.185260e+001
4.077564e+002, 4.192541e+001
4.082386e+002, 4.189232e+001
4.087207e+002, 4.177221e+001
4.092028e+002, 4.154920e+001
4.096849e+002, 4.126222e+001
4.101670e+002, 4.111342e+001
4.106491e+002, 4.124511e+001
4.111313e+002, 4.124870e+001
4.116134e+002, 4.103506e+001
4.120955e+002, 4.063087e+001
4.125776e+002, 4.000532e+001
4.130597e+002, 3.912423e+001
4.135418e+002, 3.820900e+001
4.140240e+002, 3.748714e+001
4.145061e+002, 3.696054e+001
4.149882e+002, 3.665787e+001
4.154703e+002, 3.672430e+001
4.159524e+002, 3.687930e+001
4.164345e+002, 3.693526e+001
4.169167e+002, 3.689080e+001
4.173988e+002, 3.676599e+001
4.178809e+002, 3.642056e+001
4.183630e+002, 3.603635e+001
4.188451e+002, 3.608696e+001
4.193272e+002, 3.670094e+001
4.198094e+002, 3.719495e+001
4.202915e+002, 3.712770e+001
4.207736e+002, 3.664305e+001
4.212557e+002, 3.599422e+001
4.217378e+002, 3.494341e+001
4.222199e+002, 3.413937e+001
4.227021e+002, 3.423194e+001
4.231842e+002, 3.497424e+001
4.236663e+002, 3.554450e+001
4.241484e+002, 3.568885e+001
4.246305e+002, 3.554103e+001
4.251126e+002, 3.521868e+001
4.255948e+002, 3.468241e+001
4.260769e+002, 3.429716e+001
4.265590e+002, 3.416970e+001
4.270411e+002, 3.419451e+001
4.275232e+002, 3.424664e+001
4.280053e+002, 3.432938e+001
4.284875e+002, 3.462574e+001
4.289695e+002, 3.539104e+001
4.294517e+002, 3.654040e+001
4.299338e+002, 3.678902e+001
4.304159e+002, 3.522639e+001
4.308980e+002, 3.400817e+001
4.313801e+002, 3.397797e+001
4.318622e+002, 3.459455e+001
4.323444e+002, 3.510404e+001
4.328265e+002, 3.522303e+001
4.333086e+002, 3.507544e+001
4.337907e+002, 3.484489e+001
4.342728e+002, 3.440250e+001
4.347549e+002, 3.419313e+001
4.352371e+002, 3.439574e+001
4.357192e+002, 3.464224e+001
4.362013e+002, 3.485357e+001
4.366834e+002, 3.493575e+001
4.371655e+002, 3.465326e+001
4.376476e+002, 3.371490e+001
4.381298e+002, 3.230373e+001
4.386119e+002, 3.177262e+001
4.390940e+002, 3.295542e+001
4.395761e+002, 3.378485e+001
4.400582e+002, 3.356131e+001
4.405403e+002, 3.294813e+001
4.410225e+002, 3.259874e+001
4.415046e+002, 3.271060e+001
4.419867e+002, 3.308474e+001
4.424688e+002, 3.360015e+001
4.429509e+002, 3.429823e+001
4.434330e+002, 3.459068e+001
4.439152e+002, 3.411307e+001
4.443973e+002, 3.354309e+001
4.448794e+002, 3.325477e+001
4.453615e+002, 3.320951e+001
4.458436e+002, 3.326487e+001
4.463257e+002, 3.339790e+001
4.468079e+002, 3.356206e+001
4.472900e+002, 3.367611e+001
4.477721e+002, 3.373624e+001
4.482542e+002, 3.377828e+001
4.487363e+002, 3.381936e+001
4.492184e+002, 3.384911e+001
4.497006e+002, 3.384170e+001
4.501827e+002, 3.377338e+001
4.506648e+002, 3.374595e+001
4.511469e+002, 3.382988e+001
4.516290e+002, 3.398872e+001
4.521111e+002, 3.419654e+001
4.525933e+002, 3.446640e+001
4.530754e+002, 3.462251e+001
4.535575e+002, 3.445194e+001
4.540396e+002, 3.393467e+001
4.545217e+002, 3.347734e+001
4.550038e+002, 3.295698e+001
4.554860e+002, 3.262000e+001
4.559681e+002, 3.269779e+001
4.564502e+002, 3.307690e+001
4.569323e+002, 3.350699e+001
4.574144e+002, 3.388226e+001
4.578965e+002, 3.416084e+001
4.583787e+002, 3.424089e+001
4.588608e+002, 3.395009e+001
4.593429e+002, 3.371648e+001
4.598250e+002, 3.355441e+001
4.603071e+002, 3.343901e+001
4.607892e+002, 3.340172e+001
4.612714e+002, 3.340986e+001
4.617535e+002, 3.330499e+001
4.622356e+002, 3.286510e+001
4.627177e+002, 3.214404e+001
4.631998e+002, 3.221182e+001
4.636819e+002, 3.425733e+001
4.641641e+002, 3.556938e+001
4.646462e+002, 3.510320e+001
4.651283e+002, 3.386941e+001
4.656104e+002, 3.296004e+001
4.660925e+002, 3.272503e+001
4.665746e+002, 3.288924e+001
4.670568e+002, 3.319804e+001
4.675389e+002, 3.368351e+001
4.680210e+002, 3.390276e+001
4.685031e+002, 3.359180e+001
4.689852e+002, 3.325117e+001
4.694673e+002, 3.318021e+001
4.699495e+002, 3.332410e+001
4.704316e+002, 3.351710e+001
4.709137e+002, 3.375196e+001
4.713958e+002, 3.394375e+001
4.718779e+002, 3.385946e+001
4.723600e+002, 3.348030e+001
4.728422e+002, 3.338293e+001
4.733243e+002, 3.403613e+001
4.738064e+002, 3.491008e+001
4.742885e+002, 3.510740e+001
4.747706e+002, 3.449018e+001
4.752527e+002, 3.389748e+001
4.757349e+002, 3.362200e+001
4.762170e+002, 3.357183e+001
4.766991e+002, 3.368601e+001
4.771812e+002, 3.394625e+001
4.776633e+002, 3.415211e+001
4.781454e+002, 3.409701e+001
4.786276e+002, 3.381019e+001
4.791097e+002, 3.378862e+001
4.795918e+002, 3.448814e+001
4.800739e+002, 3.488793e+001
4.805560e+002, 3.429355e+001
4.810381e+002, 3.332744e+001
4.815203e+002, 3.299278e+001
4.820024e+002, 3.359494e+001
4.824845e+002, 3.444427e+001
4.829666e+002, 3.443637e+001
4.834487e+002, 3.311049e+001
4.839308e+002, 3.253285e+001
4.844130e+002, 3.335438e+001
4.848951e+002, 3.420775e+001
4.853772e+002, 3.455418e+001
4.858593e+002, 3.449039e+001
4.863414e+002, 3.428681e+001
4.868235e+002, 3.406672e+001
4.873057e+002, 3.388302e+001
4.877878e+002, 3.392126e+001
4.882699e+002, 3.432217e+001
4.887520e+002, 3.448909e+001
4.892341e+002, 3.395260e+001
4.897162e+002, 3.337963e+001
4.901984e+002, 3.321098e+001
4.906805e+002, 3.345139e+001
4.911626e+002, 3.380778e+001
4.916447e+002, 3.415916e+001
4.921268e+002, 3.447771e+001
4.926089e+002, 3.468473e+001
4.930910e+002, 3.476040e+001
4.935732e+002, 3.480936e+001
4.940553e+002, 3.481919e+001
4.945374e+002, 3.487343e+001
4.950195e+002, 3.517664e+001
4.955016e+002, 3.593829e+001
4.959837e+002, 3.649605e+001
4.964659e+002, 3.628284e+001
4.969480e+002, 3.572964e+001
4.974301e+002, 3.559868e+001
4.979122e+002, 3.605387e+001
4.983943e+002, 3.672291e+001
4.988764e+002, 3.727613e+001
4.993586e+002, 3.771068e+001
4.998407e+002, 3.799887e+001
5.003228e+002, 3.780541e+001
5.008049e+002, 3.785421e+001
5.012870e+002, 3.859603e+001
5.017691e+002, 3.970416e+001
5.022513e+002, 4.064275e+001
5.027334e+002, 4.120417e+001
5.032155e+002, 4.163370e+001
5.036976e+002, 4.233997e+001
5.041797e+002, 4.340388e+001
5.046618e+002, 4.450558e+001
5.051440e+002, 4.582510e+001
5.056261e+002, 4.700659e+001
5.061082e+002, 4.763663e+001
5.065903e+002, 4.802281e+001
5.070724e+002, 4.881174e+001
5.075545e+002, 5.034456e+001
5.080367e+002, 5.247741e+001
5.085188e+002, 5.491726e+001
5.090009e+002, 5.762007e+001
5.094830e+002, 6.085001e+001
5.099651e+002, 6.456413e+001
5.104472e+002, 6.898779e+001
5.109294e+002, 7.419479e+001
5.114115e+002, 8.020898e+001
5.118936e+002, 8.719823e+001
5.123757e+002, 9.530617e+001
5.128578e+002, 1.044216e+002
5.133400e+002, 1.144289e+002
5.138221e+002, 1.253464e+002
5.143042e+002, 1.374022e+002
5.147863e+002, 1.512960e+002
5.152684e+002, 1.660926e+002
5.157505e+002, 1.791967e+002
5.162327e+002, 1.907264e+002
5.167148e+002, 2.008427e+002
5.171969e+002, 2.110556e+002
5.176790e+002, 2.189700e+002
5.181611e+002, 2.227471e+002
5.186432e+002, 2.218498e+002
5.191254e+002, 2.153139e+002
5.196075e+002, 2.017060e+002
5.200896e+002, 1.816017e+002
5.205717e+002, 1.623628e+002
5.210538e+002, 1.437822e+002
5.215359e+002, 1.264272e+002
5.220180e+002, 1.096167e+002
5.225001e+002, 9.462747e+001
5.229822e+002, 8.307588e+001
5.234644e+002, 7.519964e+001
5.239465e+002, 6.928437e+001
5.244286e+002, 6.360482e+001
5.249107e+002, 5.816500e+001
5.253928e+002, 5.392965e+001
5.258749e+002, 5.143551e+001
5.263571e+002, 4.925219e+001
5.268392e+002, 4.641854e+001
5.273213e+002, 4.352277e+001
5.278034e+002, 4.148153e+001
5.282855e+002, 4.065638e+001
5.287676e+002, 4.024194e+001
5.292498e+002, 3.961767e+001
5.297319e+002, 3.885810e+001
5.302140e+002, 3.826360e+001
5.306961e+002, 3.794587e+001
5.311782e+002, 3.755819e+001
5.316603e+002, 3.664738e+001
5.321425e+002, 3.524005e+001
5.326246e+002, 3.435397e+001
5.331067e+002, 3.459983e+001
5.335888e+002, 3.474691e+001
5.340709e+002, 3.400932e+001
5.345530e+002, 3.281594e+001
5.350352e+002, 3.198720e+001
5.355173e+002, 3.179955e+001
5.359994e+002, 3.187971e+001
5.364815e+002, 3.165006e+001
5.369636e+002, 3.091445e+001
5.374457e+002, 3.065808e+001
5.379279e+002, 3.149773e+001
5.384100e+002, 3.214295e+001
5.388921e+002, 3.194250e+001
5.393742e+002, 3.126839e+001
5.398563e+002, 3.077697e+001
5.403384e+002, 3.076252e+001
5.408206e+002, 3.098325e+001
5.413027e+002, 3.114375e+001
5.417848e+002, 3.126191e+001
5.422669e+002, 3.102320e+001
5.427490e+002, 2.991883e+001
5.432311e+002, 2.904859e+001
5.437133e+002, 2.941241e+001
5.441954e+002, 3.065037e+001
5.446775e+002, 3.163252e+001
5.451596e+002, 3.190385e+001
5.456417e+002, 3.185515e+001
5.461238e+002, 3.172841e+001
5.466060e+002, 3.157155e+001
5.470881e+002, 3.167546e+001
5.475702e+002, 3.223218e+001
5.480523e+002, 3.276435e+001
5.485344e+002, 3.252550e+001
5.490165e+002, 3.122189e+001
5.494987e+002, 3.036190e+001
5.499808e+002, 3.027959e+001
5.504629e+002, 3.032675e+001
5.509450e+002, 3.012179e+001
5.514271e+002, 2.977253e+001
5.519092e+002, 2.960119e+001
5.523914e+002, 2.976217e+001
5.528735e+002, 3.002102e+001
5.533556e+002, 2.988362e+001
5.538377e+002, 2.917162e+001
5.543198e+002, 2.858036e+001
5.548019e+002, 2.789839e+001
5.552841e+002, 2.757456e+001
5.557662e+002, 2.818764e+001
5.562483e+002, 2.930363e+001
5.567304e+002, 2.990012e+001
5.572125e+002, 2.933838e+001
5.576946e+002, 2.836731e+001
5.581768e+002, 2.805516e+001
5.586589e+002, 2.838856e+001
5.591410e+002, 2.886330e+001
5.596231e+002, 2.949141e+001
5.601052e+002, 2.999732e+001
5.605873e+002, 2.996099e+001
5.610695e+002, 2.945983e+001
5.615516e+002, 2.905336e+001
5.620337e+002, 2.877695e+001
5.625158e+002, 2.868716e+001
5.629979e+002, 2.907443e+001
5.634800e+002, 2.967805e+001
5.639622e+002, 2.971286e+001
5.644443e+002, 2.883805e+001
5.649264e+002, 2.773891e+001
5.654085e+002, 2.758990e+001
5.658906e+002, 2.890576e+001
5.663727e+002, 2.952914e+001
5.668549e+002, 2.888461e+001
5.673370e+002, 2.824845e+001
5.678191e+002, 2.810957e+001
5.683012e+002, 2.836219e+001
5.687833e+002, 2.881600e+001
5.692654e+002, 2.940218e+001
5.697476e+002, 2.994856e+001
5.702297e+002, 3.018307e+001
5.707118e+002, 3.009684e+001
5.711939e+002, 2.983532e+001
5.716760e+002, 2.924893e+001
5.721581e+002, 2.873196e+001
5.726403e+002, 2.852271e+001
5.731224e+002, 2.858648e+001
5.736045e+002, 2.889512e+001
5.740866e+002, 2.981283e+001
5.745687e+002, 3.048916e+001
5.750508e+002, 2.995257e+001
5.755330e+002, 2.866774e+001
5.760151e+002, 2.791771e+001
5.764972e+002, 2.807401e+001
5.769793e+002, 2.846120e+001
5.774614e+002, 2.827693e+001
5.779435e+002, 2.742158e+001
5.784257e+002, 2.715161e+001
5.789078e+002, 2.786522e+001
5.793899e+002, 2.861571e+001
5.798720e+002, 2.923591e+001
5.803541e+002, 2.965982e+001
5.808362e+002, 2.968513e+001
5.813184e+002, 2.930935e+001
5.818005e+002, 2.903228e+001
5.822826e+002, 2.962897e+001
5.827647e+002, 3.113001e+001
5.832468e+002, 3.196537e+001
5.837289e+002, 3.176677e+001
5.842111e+002, 3.150324e+001
5.846932e+002, 3.150860e+001
5.851753e+002, 3.172814e+001
5.856574e+002, 3.205070e+001
5.861395e+002, 3.240659e+001
5.866216e+002, 3.313086e+001
5.871038e+002, 3.461467e+001
5.875859e+002, 3.659599e+001
5.880680e+002, 3.850992e+001
5.885501e+002, 4.027200e+001
5.890322e+002, 4.217879e+001
5.895143e+002, 4.442002e+001
5.899965e+002, 4.697742e+001
5.904786e+002, 4.973701e+001
5.909607e+002, 5.260748e+001
5.914428e+002, 5.578985e+001
5.919249e+002, 5.935690e+001
5.924070e+002, 6.319878e+001
5.928892e+002, 6.772807e+001
5.933713e+002, 7.258825e+001
5.938534e+002, 7.653267e+001
5.943355e+002, 7.879828e+001
5.948176e+002, 7.919903e+001
5.952997e+002, 7.656310e+001
5.957819e+002, 6.961388e+001
5.962640e+002, 6.295454e+001
5.967461e+002, 5.759084e+001
5.972282e+002, 5.295500e+001
5.977103e+002, 4.863278e+001
5.981924e+002, 4.465115e+001
5.986746e+002, 4.140506e+001
5.991567e+002, 3.948577e+001
5.996388e+002, 3.814852e+001
6.001209e+002, 3.626427e+001
6.006030e+002, 3.396324e+001
6.010851e+002, 3.235136e+001
6.015673e+002, 3.197726e+001
6.020494e+002, 3.214209e+001
6.025315e+002, 3.172664e+001
6.030136e+002, 3.045074e+001
6.034957e+002, 2.956063e+001
6.039778e+002, 2.931672e+001
6.044600e+002, 2.919783e+001
6.049421e+002, 2.892659e+001
6.054242e+002, 2.859757e+001
6.059063e+002, 2.845630e+001
6.063884e+002, 2.859760e+001
6.068705e+002, 2.879254e+001
6.073527e+002, 2.865595e+001
6.078348e+002, 2.813958e+001
6.083169e+002, 2.775231e+001
6.087990e+002, 2.751336e+001
6.092811e+002, 2.740736e+001
6.097632e+002, 2.745502e+001
6.102454e+002, 2.761024e+001
6.107275e+002, 2.784648e+001
6.112096e+002, 2.823592e+001
6.116917e+002, 2.845477e+001
6.121738e+002, 2.815167e+001
6.126559e+002, 2.755625e+001
6.131381e+002, 2.714408e+001
6.136202e+002, 2.698080e+001
6.141023e+002, 2.677343e+001
6.145844e+002, 2.623432e+001
6.150665e+002, 2.548747e+001
6.155486e+002, 2.525665e+001
6.160308e+002, 2.618831e+001
6.165129e+002, 2.676142e+001
6.169950e+002, 2.662213e+001
6.174771e+002, 2.626881e+001
6.179592e+002, 2.607618e+001
6.184413e+002, 2.606291e+001
6.189235e+002, 2.604498e+001
6.194056e+002, 2.585760e+001
6.198877e+002, 2.563597e+001
6.203698e+002, 2.581176e+001
6.208519e+002, 2.648489e+001
6.213340e+002, 2.695728e+001
6.218162e+002, 2.696264e+001
6.222983e+002, 2.681149e+001
6.227804e+002, 2.683869e+001
6.232625e+002, 2.699906e+001
6.237446e+002, 2.698512e+001
6.242267e+002, 2.652363e+001
6.247089e+002, 2.603831e+001
6.251910e+002, 2.580460e+001
6.256731e+002, 2.578844e+001
6.261552e+002, 2.596390e+001
6.266373e+002, 2.632023e+001
6.271194e+002, 2.662737e+001
6.276016e+002, 2.656668e+001
6.280837e+002, 2.607760e+001
6.285658e+002, 2.588920e+001
6.290479e+002, 2.646089e+001
6.295300e+002, 2.680263e+001
6.300121e+002, 2.646498e+001
6.304943e+002, 2.593943e+001
6.309764e+002, 2.585131e+001
6.314585e+002, 2.628536e+001
6.319406e+002, 2.664540e+001
6.324227e+002, 2.627999e+001
6.329048e+002, 2.545947e+001
6.333870e+002, 2.502792e+001
6.338691e+002, 2.503502e+001
6.343512e+002, 2.506894e+001
6.348333e+002, 2.491884e+001
6.353154e+002, 2.471293e+001
6.357975e+002, 2.471483e+001
6.362797e+002, 2.496149e+001
6.367618e+002, 2.517747e+001
6.372439e+002, 2.533246e+001
6.377260e+002, 2.543162e+001
6.382081e+002, 2.542016e+001
6.386902e+002, 2.535984e+001
6.391724e+002, 2.540884e+001
6.396545e+002, 2.563770e+001
6.401366e+002, 2.590453e+001
6.406187e+002, 2.593470e+001
6.411008e+002, 2.564734e+001
6.415829e+002, 2.560472e+001
6.420651e+002, 2.616445e+001
6.425472e+002, 2.647561e+001
6.430293e+002, 2.588231e+001
6.435114e+002, 2.493666e+001
6.439935e+002, 2.451062e+001
6.444756e+002, 2.488935e+001
6.449578e+002, 2.530099e+001
6.454398e+002, 2.510008e+001
6.459219e+002, 2.465054e+001
6.464041e+002, 2.474413e+001
6.468862e+002, 2.539718e+001
6.473683e+002, 2.568758e+001
6.478504e+002, 2.491948e+001
6.483325e+002, 2.357538e+001
6.488146e+002, 2.317080e+001
6.492968e+002, 2.468805e+001
6.497789e+002, 2.553291e+001
6.502610e+002, 2.522698e+001
6.507431e+002, 2.473708e+001
6.512252e+002, 2.462862e+001
6.517073e+002, 2.478703e+001
6.521895e+002, 2.483002e+001
6.526716e+002, 2.455923e+001
6.531537e+002, 2.419188e+001
6.536358e+002, 2.398478e+001
6.541179e+002, 2.394105e+001
6.546000e+002, 2.413324e+001
6.550822e+002, 2.465359e+001
6.555643e+002, 2.516594e+001
6.560464e+002, 2.540478e+001
6.565285e+002, 2.543101e+001
6.570106e+002, 2.553327e+001
6.574927e+002, 2.588494e+001
6.579749e+002, 2.603272e+001
6.584570e+002, 2.566612e+001
6.589391e+002, 2.515863e+001
6.594212e+002, 2.487549e+001
6.599033e+002, 2.483209e+001
6.603854e+002, 2.486570e+001
6.608676e+002, 2.487831e+001
6.613497e+002, 2.485737e+001
6.618318e+002, 2.474516e+001
6.623139e+002, 2.449341e+001
6.627960e+002, 2.433381e+001
6.632781e+002, 2.430242e+001
6.637603e+002, 2.436890e+001
6.642424e+002, 2.455653e+001
6.647245e+002, 2.481945e+001
6.652066e+002, 2.504338e+001
6.656887e+002, 2.521701e+001
6.661708e+002, 2.531044e+001
6.666530e+002, 2.533460e+001
6.671351e+002, 2.525371e+001
6.676172e+002, 2.490706e+001
6.680993e+002, 2.429830e+001
6.685814e+002, 2.379732e+001
6.690635e+002, 2.370236e+001
6.695457e+002, 2.394971e+001
6.700278e+002, 2.418645e+001
6.705099e+002, 2.444284e+001
6.709920e+002, 2.463648e+001
6.714741e+002, 2.484545e+001
6.719562e+002, 2.492426e+001
6.724384e+002, 2.457889e+001
6.729205e+002, 2.401456e+001
6.734026e+002, 2.384987e+001
6.738847e+002, 2.454547e+001
6.743668e+002, 2.543529e+001
6.748489e+002, 2.559157e+001
6.753311e+002, 2.519793e+001
6.758132e+002, 2.519563e+001
6.762953e+002, 2.585083e+001
6.767774e+002, 2.634852e+001
6.772595e+002, 2.585387e+001
6.777416e+002, 2.455284e+001
6.782238e+002, 2.401530e+001
6.787059e+002, 2.495024e+001
6.791880e+002, 2.560012e+001
6.796701e+002, 2.541633e+001
6.801522e+002, 2.510524e+001
6.806343e+002, 2.537046e+001
6.811165e+002, 2.607718e+001
6.815986e+002, 2.650726e+001
6.820807e+002, 2.614669e+001
6.825628e+002, 2.545734e+001
6.830449e+002, 2.536885e+001
6.835270e+002, 2.587658e+001
6.840092e+002, 2.619518e+001
6.844913e+002, 2.610011e+001
6.849734e+002, 2.597018e+001
6.854555e+002, 2.608422e+001
6.859376e+002, 2.642692e+001
6.864197e+002, 2.688781e+001
6.869019e+002, 2.768362e+001
6.873840e+002, 2.828791e+001
6.878661e+002, 2.846424e+001
6.883482e+002, 2.843316e+001
6.888303e+002, 2.831407e+001
6.893124e+002, 2.819005e+001
6.897946e+002, 2.820282e+001
6.902767e+002, 2.843325e+001
6.907588e+002, 2.890467e+001
6.912409e+002, 2.973314e+001
6.917230e+002, 3.098361e+001
6.922051e+002, 3.214582e+001
6.926873e+002, 3.290218e+001
6.931694e+002, 3.391063e+001
6.936515e+002, 3.590903e+001
6.941336e+002, 3.847959e+001
6.946157e+002, 4.055838e+001
6.950978e+002, 4.148223e+001
6.955800e+002, 4.286109e+001
6.960621e+002, 4.559888e+001
6.965442e+002, 4.910479e+001
6.970263e+002, 5.275733e+001
6.975084e+002, 5.644877e+001
6.979905e+002, 6.028522e+001
6.984727e+002, 6.438295e+001
6.989548e+002, 6.844070e+001
6.994369e+002, 7.175261e+001
6.999190e+002, 7.431480e+001
7.004011e+002, 7.612041e+001
7.008832e+002, 7.728184e+001
7.013654e+002, 7.748039e+001
7.018475e+002, 7.649406e+001
7.023296e+002, 7.453374e+001
7.028117e+002, 7.191223e+001
7.032938e+002, 6.853935e+001
7.037759e+002, 6.500023e+001
7.042581e+002, 6.155595e+001
7.047402e+002, 5.816677e+001
7.052223e+002, 5.469757e+001
7.057044e+002, 5.119544e+001
7.061865e+002, 4.801204e+001
7.066686e+002, 4.535145e+001
7.071508e+002, 4.310413e+001
7.076329e+002, 4.107191e+001
7.081150e+002, 3.927641e+001
7.085971e+002, 3.760875e+001
7.090792e+002, 3.608698e+001
7.095613e+002, 3.468135e+001
7.100435e+002, 3.323140e+001
7.105256e+002, 3.195201e+001
7.110077e+002, 3.126200e+001
7.114898e+002, 3.132991e+001
7.119719e+002, 3.131380e+001
7.124540e+002, 3.049461e+001
7.129362e+002, 2.937047e+001
7.134183e+002, 2.859060e+001
7.139004e+002, 2.819038e+001
7.143825e+002, 2.814667e+001
7.148646e+002, 2.850047e+001
7.153467e+002, 2.886285e+001
7.158289e+002, 2.849325e+001
7.163110e+002, 2.712592e+001
7.167931e+002, 2.626086e+001
7.172752e+002, 2.636288e+001
7.177573e+002, 2.642976e+001
7.182394e+002, 2.621359e+001
7.187216e+002, 2.580285e+001
7.192037e+002, 2.517839e+001
7.196858e+002, 2.436316e+001
7.201679e+002, 2.384147e+001
7.206500e+002, 2.415373e+001
7.211321e+002, 2.477423e+001
7.216143e+002, 2.507194e+001
7.220964e+002, 2.504797e+001
7.225785e+002, 2.471649e+001
7.230606e+002, 2.405690e+001
7.235427e+002, 2.340633e+001
7.240248e+002, 2.322527e+001
7.245070e+002, 2.355041e+001
7.249891e+002, 2.367409e+001
7.254712e+002, 2.330627e+001
7.259533e+002, 2.313729e+001
7.264354e+002, 2.350583e+001
7.269175e+002, 2.396358e+001
7.273997e+002, 2.407341e+001
7.278818e+002, 2.385157e+001
7.283639e+002, 2.369336e+001
7.288460e+002, 2.393841e+001
7.293281e+002, 2.421108e+001
7.298102e+002, 2.394841e+001
7.302924e+002, 2.336232e+001
7.307745e+002, 2.314826e+001
7.312566e+002, 2.347080e+001
7.317387e+002, 2.389971e+001
7.322208e+002, 2.406682e+001
7.327029e+002, 2.398677e+001
7.331851e+002, 2.376834e+001
7.336672e+002, 2.328630e+001
7.341493e+002, 2.288203e+001
7.346314e+002, 2.240247e+001
7.351135e+002, 2.217078e+001
7.355956e+002, 2.264772e+001
7.360778e+002, 2.353262e+001
7.365599e+002, 2.398510e+001
7.370420e+002, 2.354287e+001
7.375241e+002, 2.296484e+001
7.380062e+002, 2.289012e+001
7.384883e+002, 2.313877e+001
7.389705e+002, 2.351356e+001
7.394526e+002, 2.392830e+001
7.399347e+002, 2.385303e+001
7.404168e+002, 2.284212e+001
7.408989e+002, 2.143731e+001
7.413810e+002, 2.113803e+001
7.418632e+002, 2.262009e+001
7.423453e+002, 2.347035e+001
7.428274e+002, 2.318836e+001
7.433095e+002, 2.278675e+001
7.437916e+002, 2.257710e+001
7.442737e+002, 2.251478e+001
7.447559e+002, 2.251550e+001
7.452380e+002, 2.255994e+001
7.457201e+002, 2.269033e+001
7.462022e+002, 2.304870e+001
7.466843e+002, 2.342852e+001
7.471664e+002, 2.360071e+001
7.476486e+002, 2.356164e+001
7.481307e+002, 2.328476e+001
7.486128e+002, 2.275125e+001
7.490949e+002, 2.227768e+001
7.495770e+002, 2.232671e+001
7.500591e+002, 2.292928e+001
7.505413e+002, 2.350923e+001
7.510234e+002, 2.435421e+001
7.515055e+002, 2.466343e+001
7.519876e+002, 2.367636e+001
7.524697e+002, 2.243377e+001
7.529518e+002, 2.180092e+001
7.534340e+002, 2.178296e+001
7.539161e+002, 2.189919e+001
7.543982e+002, 2.204344e+001
7.548803e+002, 2.220386e+001
7.553624e+002, 2.248814e+001
7.558445e+002, 2.274158e+001
7.563267e+002, 2.260446e+001
7.568088e+002, 2.206682e+001
7.572909e+002, 2.157118e+001
7.577730e+002, 2.147728e+001
7.582551e+002, 2.168802e+001
7.587372e+002, 2.186467e+001
7.592194e+002, 2.199166e+001
7.597015e+002, 2.216754e+001
7.601836e+002, 2.255969e+001
7.606657e+002, 2.279245e+001
7.611478e+002, 2.238147e+001
7.616299e+002, 2.164751e+001
7.621121e+002, 2.132966e+001
7.625942e+002, 2.167950e+001
7.630763e+002, 2.205516e+001
7.635584e+002, 2.229761e+001
7.640405e+002, 2.241717e+001
7.645226e+002, 2.238012e+001
7.650048e+002, 2.223101e+001
7.654869e+002, 2.204989e+001
7.659690e+002, 2.187400e+001
7.664511e+002, 2.176221e+001
7.669332e+002, 2.180326e+001
7.674153e+002, 2.199110e+001
7.678975e+002, 2.228788e+001
7.683795e+002, 2.276035e+001
7.688616e+002, 2.304467e+001
7.693438e+002, 2.294619e+001
7.698259e+002, 2.262899e+001
7.703080e+002, 2.227173e+001
7.707901e+002, 2.184501e+001
7.712722e+002, 2.165811e+001
7.717543e+002, 2.192385e+001
7.722365e+002, 2.220386e+001
7.727186e+002, 2.226511e+001
7.732007e+002, 2.228514e+001
7.736828e+002, 2.251415e+001
7.741649e+002, 2.294830e+001
7.746470e+002, 2.335916e+001
7.751292e+002, 2.360322e+001
7.756113e+002, 2.370266e+001
7.760934e+002, 2.360900e+001
7.765755e+002, 2.336924e+001
7.770576e+002, 2.339203e+001
7.775397e+002, 2.380808e+001
7.780219e+002, 2.411495e+001
7.785040e+002, 2.387918e+001
7.789861e+002, 2.324112e+001
7.794682e+002, 2.279333e+001
7.799503e+002, 2.233632e+001
7.804324e+002, 2.240734e+001
7.809146e+002, 2.373453e+001
7.813967e+002, 2.482073e+001
7.818788e+002, 2.462143e+001
7.823609e+002, 2.374074e+001
7.828430e+002, 2.333641e+001
7.833251e+002, 2.377439e+001
7.838073e+002, 2.411374e+001
7.842894e+002, 2.330388e+001
7.847715e+002, 2.219054e+001
7.852536e+002, 2.218033e+001
7.857357e+002, 2.309301e+001
7.862178e+002, 2.395422e+001
7.867000e+002, 2.440303e+001
7.871821e+002, 2.435912e+001
7.876642e+002, 2.358220e+001
7.881463e+002, 2.209517e+001
7.886284e+002, 2.141840e+001
7.891105e+002, 2.191442e+001
7.895927e+002, 2.247093e+001
7.900748e+002, 2.287272e+001
7.905569e+002, 2.320448e+001
7.910390e+002, 2.362706e+001
7.915211e+002, 2.406363e+001
7.920032e+002, 2.414951e+001
7.924854e+002, 2.347008e+001
7.929675e+002, 2.289316e+001
7.934496e+002, 2.298910e+001
7.939317e+002, 2.331419e+001
7.944138e+002, 2.330620e+001
7.948959e+002, 2.300611e+001
7.953781e+002, 2.283121e+001
7.958602e+002, 2.301811e+001
7.963423e+002, 2.336849e+001
7.968244e+002, 2.359208e+001
7.973065e+002, 2.368887e+001
7.977886e+002, 2.364246e+001
7.982708e+002, 2.342252e+001
7.987529e+002, 2.319814e+001
7.992350e+002, 2.309288e+001
7.997171e+002, 2.297463e+001
8.001992e+002, 2.253868e+001
8.006813e+002, 2.160823e+001
8.011635e+002, 2.122143e+001
8.016456e+002, 2.192734e+001
8.021277e+002, 2.251818e+001
8.026098e+002, 2.248057e+001
8.030919e+002, 2.219018e+001
8.035740e+002, 2.204260e+001
8.040562e+002, 2.208236e+001
8.045383e+002, 2.216037e+001
8.050204e+002, 2.223956e+001
8.055025e+002, 2.223856e+001
8.059846e+002, 2.193271e+001
8.064667e+002, 2.147031e+001
8.069489e+002, 2.130040e+001
8.074310e+002, 2.149186e+001
8.079131e+002, 2.188567e+001
8.083952e+002, 2.243263e+001
8.088773e+002, 2.295075e+001
8.093594e+002, 2.286434e+001
8.098416e+002, 2.185279e+001
8.103237e+002, 2.124128e+001
8.108058e+002, 2.123300e+001
8.112879e+002, 2.138376e+001
8.117700e+002, 2.161599e+001
8.122521e+002, 2.183562e+001
8.127343e+002, 2.187567e+001
8.132164e+002, 2.170392e+001
8.136985e+002, 2.164188e+001
8.141806e+002, 2.192829e+001
8.146627e+002, 2.222202e+001
8.151448e+002, 2.235209e+001
8.156270e+002, 2.230732e+001
8.161091e+002, 2.193990e+001
8.165912e+002, 2.132197e+001
8.170733e+002, 2.096973e+001
8.175554e+002, 2.137723e+001
8.180375e+002, 2.215630e+001
8.185197e+002, 2.239323e+001
8.190018e+002, 2.210852e+001
8.194839e+002, 2.182340e+001
8.199660e+002, 2.163774e+001
8.204481e+002, 2.134597e+001
8.209302e+002, 2.068863e+001
8.214124e+002, 1.990950e+001
8.218945e+002, 1.975587e+001
8.223766e+002, 2.067269e+001
8.228587e+002, 2.126014e+001
8.233408e+002, 2.132248e+001
8.238229e+002, 2.129788e+001
8.243051e+002, 2.133038e+001
8.247872e+002, 2.139594e+001
8.252693e+002, 2.143762e+001
8.257514e+002, 2.145020e+001
8.262335e+002, 2.151274e+001
8.267156e+002, 2.168609e+001
8.271978e+002, 2.191546e+001
8.276799e+002, 2.229142e+001
8.281620e+002, 2.264632e+001
8.286441e+002, 2.247141e+001
8.291262e+002, 2.174664e+001
8.296083e+002, 2.115499e+001
8.300905e+002, 2.124084e+001
8.305726e+002, 2.180476e+001
8.310547e+002, 2.237461e+001
8.315368e+002, 2.299825e+001
8.320189e+002, 2.312886e+001
8.325010e+002, 2.247066e+001
8.329832e+002, 2.188038e+001
8.334653e+002, 2.189383e+001
8.339474e+002, 2.227665e+001
8.344295e+002, 2.255528e+001
8.349116e+002, 2.275593e+001
8.353937e+002, 2.278077e+001
8.358759e+002, 2.244039e+001
8.363580e+002, 2.213069e+001
8.368401e+002, 2.206804e+001
8.373222e+002, 2.210496e+001
8.378043e+002, 2.201116e+001
8.382864e+002, 2.179285e+001
8.387686e+002, 2.173359e+001
8.392507e+002, 2.219761e+001
8.397328e+002, 2.263884e+001
8.402149e+002, 2.213252e+001
8.406970e+002, 2.112630e+001
8.411791e+002, 2.084735e+001
8.416613e+002, 2.142296e+001
8.421434e+002, 2.210803e+001
8.426255e+002, 2.243908e+001
8.431076e+002, 2.252699e+001
8.435897e+002, 2.262739e+001
8.440718e+002, 2.277444e+001
8.445540e+002, 2.268977e+001
8.450361e+002, 2.219463e+001
8.455182e+002, 2.185073e+001
8.460003e+002, 2.202143e+001
8.464824e+002, 2.236572e+001
8.469645e+002, 2.239081e+001
8.474467e+002, 2.208764e+001
8.479288e+002, 2.190798e+001
8.484109e+002, 2.207010e+001
8.488930e+002, 2.215270e+001
8.493751e+002, 2.173445e+001
8.498572e+002, 2.137046e+001
8.503394e+002, 2.178138e+001
8.508215e+002, 2.277851e+001
8.513036e+002, 2.353559e+001
8.517857e+002, 2.363092e+001
8.522678e+002, 2.346585e+001
8.527499e+002, 2.339581e+001
8.532321e+002, 2.340352e+001
8.537142e+002, 2.347427e+001
8.541963e+002, 2.359439e+001
8.546784e+002, 2.371611e+001
8.551605e+002, 2.382362e+001
8.556426e+002, 2.383702e+001
8.561248e+002, 2.359479e+001
8.566069e+002, 2.311061e+001
8.570890e+002, 2.299122e+001
8.575711e+002, 2.341809e+001
8.580532e+002, 2.366483e+001
8.585353e+002, 2.343268e+001
8.590175e+002, 2.311090e+001
8.594996e+002, 2.304782e+001
8.599817e+002, 2.318708e+001
8.604638e+002, 2.328518e+001
8.609459e+002, 2.323755e+001
8.614280e+002, 2.330963e+001
8.619102e+002, 2.380014e+001
8.623923e+002, 2.418278e+001
8.628744e+002, 2.389031e+001
8.633565e+002, 2.331128e+001
8.638386e+002, 2.324170e+001
8.643207e+002, 2.388328e+001
8.648029e+002, 2.446035e+001
8.652850e+002, 2.423598e+001
8.657671e+002, 2.371422e+001
8.662492e+002, 2.357284e+001
8.667313e+002, 2.372577e+001
8.672134e+002, 2.393065e+001
8.676956e+002, 2.411652e+001
8.681777e+002, 2.421286e+001
8.686598e+002, 2.414498e+001
8.691419e+002, 2.398939e+001
8.696240e+002, 2.395202e+001
8.701061e+002, 2.403200e+001
8.705883e+002, 2.427254e+001
8.710704e+002, 2.476704e+001
8.715525e+002, 2.518302e+001
8.720346e+002, 2.536180e+001
8.725167e+002, 2.534627e+001
8.729988e+002, 2.516467e+001
8.734810e+002, 2.473539e+001
8.739631e+002, 2.454008e+001
8.744452e+002, 2.479763e+001
8.749273e+002, 2.501433e+001
8.754094e+002, 2.499857e+001
8.758915e+002, 2.491934e+001
8.763737e+002, 2.492253e+001
8.768558e+002, 2.501125e+001
8.773379e+002, 2.513040e+001
8.778200e+002, 2.527470e+001
8.783021e+002, 2.540412e+001
8.787842e+002, 2.537715e+001
8.792664e+002, 2.538874e+001
8.797485e+002, 2.581000e+001
8.802306e+002, 2.651239e+001
8.807127e+002, 2.703008e+001
8.811948e+002, 2.718032e+001
8.816769e+002, 2.715729e+001
8.821591e+002, 2.719763e+001
8.826412e+002, 2.724997e+001
8.831233e+002, 2.696171e+001
8.836054e+002, 2.632613e+001
8.840875e+002, 2.623853e+001
8.845696e+002, 2.701243e+001
8.850518e+002, 2.794138e+001
8.855339e+002, 2.844951e+001
8.860160e+002, 2.864298e+001
8.864981e+002, 2.894582e+001
8.869802e+002, 2.942451e+001
8.874623e+002, 2.986848e+001
8.879445e+002, 3.011101e+001
8.884266e+002, 3.051789e+001
8.889087e+002, 3.137347e+001
8.893908e+002, 3.238557e+001
8.898729e+002, 3.320152e+001
8.903550e+002, 3.379347e+001
8.908372e+002, 3.432348e+001
8.913193e+002, 3.457491e+001
8.918014e+002, 3.508837e+001
8.922834e+002, 3.621826e+001
8.927656e+002, 3.768494e+001
8.932477e+002, 3.916177e+001
8.937298e+002, 4.067957e+001
8.942119e+002, 4.238062e+001
8.946940e+002, 4.429633e+001
8.951761e+002, 4.673854e+001
8.956583e+002, 5.013753e+001
8.961404e+002, 5.424822e+001
8.966225e+002, 5.862885e+001
8.971046e+002, 6.325102e+001
8.975867e+002, 6.773139e+001
8.980688e+002, 7.195437e+001
8.985510e+002, 7.740841e+001
8.990331e+002, 8.561700e+001
8.995152e+002, 9.641296e+001
8.999973e+002, 1.087878e+002
9.004794e+002, 1.222666e+002
9.009615e+002, 1.402443e+002
9.014437e+002, 1.634932e+002
9.019258e+002, 1.908814e+002
9.024079e+002, 2.221148e+002
9.028900e+002, 2.567758e+002
9.033721e+002, 2.942834e+002
9.038542e+002, 3.358727e+002
9.043364e+002, 3.762390e+002
9.048185e+002, 4.238852e+002
9.053006e+002, 4.596275e+002
9.057827e+002, 4.803275e+002
9.062648e+002, 4.853368e+002
9.067469e+002, 4.721131e+002
9.072291e+002, 4.421723e+002
9.077112e+002, 4.014348e+002
9.081933e+002, 3.456579e+002
9.086754e+002, 2.909360e+002
9.091575e+002, 2.435557e+002
9.096396e+002, 2.032162e+002
9.101218e+002, 1.709940e+002
9.106039e+002, 1.456107e+002
9.110860e+002, 1.247107e+002
9.115681e+002, 1.074405e+002
9.120502e+002, 9.309041e+001
9.125323e+002, 8.134934e+001
9.130145e+002, 7.185584e+001
9.134966e+002, 6.425365e+001
9.139787e+002, 5.830991e+001
9.144608e+002, 5.322347e+001
9.149429e+002, 4.885205e+001
9.154250e+002, 4.545806e+001
9.159072e+002, 4.332609e+001
9.163893e+002, 4.187614e+001
9.168714e+002, 3.964302e+001
9.173535e+002, 3.646488e+001
9.178356e+002, 3.457043e+001
9.183177e+002, 3.440313e+001
9.187999e+002, 3.405210e+001
9.192820e+002, 3.270489e+001
9.197641e+002, 3.107952e+001
9.202462e+002, 2.998884e+001
9.207283e+002, 2.940606e+001
9.212104e+002, 2.868374e+001
9.216926e+002, 2.740377e+001
9.221747e+002, 2.660714e+001
9.226568e+002, 2.681507e+001
9.231389e+002, 2.703032e+001
9.236210e+002, 2.670259e+001
9.241031e+002, 2.603877e+001
9.245853e+002, 2.534708e+001
9.250674e+002, 2.466175e+001
9.255495e+002, 2.419764e+001
9.260316e+002, 2.402086e+001
9.265137e+002, 2.409485e+001
9.269958e+002, 2.477511e+001
9.274780e+002, 2.545325e+001
9.279601e+002, 2.525173e+001
9.284422e+002, 2.429560e+001
9.289243e+002, 2.339284e+001
9.294064e+002, 2.291944e+001
9.298885e+002, 2.274197e+001
9.303707e+002, 2.284553e+001
9.308528e+002, 2.309428e+001
9.313349e+002, 2.325654e+001
9.318170e+002, 2.333555e+001
9.322991e+002, 2.345790e+001
9.327813e+002, 2.364520e+001
9.332634e+002, 2.362355e+001
9.337455e+002, 2.307545e+001
9.342276e+002, 2.222110e+001
9.347097e+002, 2.173256e+001
9.351918e+002, 2.160345e+001
9.356740e+002, 2.140363e+001
9.361561e+002, 2.105469e+001
9.366382e+002, 2.080162e+001
9.371203e+002, 2.074014e+001
9.376024e+002, 2.094093e+001
9.380845e+002, 2.163401e+001
9.385667e+002, 2.291334e+001
9.390488e+002, 2.338008e+001
9.395309e+002, 2.260432e+001
9.400130e+002, 2.189895e+001
9.404951e+002, 2.155470e+001
9.409772e+002, 2.133044e+001
9.414594e+002, 2.106831e+001
9.419415e+002, 2.078384e+001
9.424236e+002, 2.050134e+001
9.429057e+002, 2.014179e+001
9.433878e+002, 1.999441e+001
9.438699e+002, 2.028591e+001
9.443521e+002, 2.057342e+001
9.448342e+002, 2.054971e+001
9.453163e+002, 2.049393e+001
9.457984e+002, 2.085396e+001
9.462805e+002, 2.154759e+001
9.467626e+002, 2.190679e+001
9.472448e+002, 2.148429e+001
9.477269e+002, 2.104120e+001
9.482090e+002, 2.109076e+001
9.486911e+002, 2.130827e+001
9.491732e+002, 2.139700e+001
9.496553e+002, 2.135924e+001
9.501375e+002, 2.118393e+001
9.506196e+002, 2.090894e+001
9.511017e+002, 2.088888e+001
9.515838e+002, 2.164601e+001
9.520659e+002, 2.258936e+001
9.525480e+002, 2.276390e+001
9.530302e+002, 2.238935e+001
9.535123e+002, 2.198285e+001
9.539944e+002, 2.164706e+001
9.544765e+002, 2.145198e+001
9.549586e+002, 2.144133e+001
9.554407e+002, 2.148233e+001
9.559229e+002, 2.132041e+001
9.564050e+002, 2.101178e+001
9.568871e+002, 2.103009e+001
9.573692e+002, 2.138804e+001
9.578513e+002, 2.170404e+001
9.583334e+002, 2.189682e+001
9.588156e+002, 2.193443e+001
9.592977e+002, 2.176245e+001
9.597798e+002, 2.145846e+001
9.602619e+002, 2.123743e+001
9.607440e+002, 2.107770e+001
9.612261e+002, 2.111737e+001
9.617083e+002, 2.152123e+001
9.621904e+002, 2.176513e+001
9.626725e+002, 2.158839e+001
9.631546e+002, 2.125030e+001
9.636367e+002, 2.098808e+001
9.641188e+002, 2.080389e+001
9.646010e+002, 2.072757e+001
9.650831e+002, 2.086196e+001
9.655652e+002, 2.094165e+001
9.660473e+002, 2.089577e+001
9.665294e+002, 2.085499e+001
9.670115e+002, 2.086356e+001
9.674937e+002, 2.092466e+001
9.679758e+002, 2.112865e+001
9.684579e+002, 2.146728e+001
9.689400e+002, 2.149068e+001
9.694221e+002, 2.066423e+001
9.699042e+002, 2.002608e+001
9.703864e+002, 2.021784e+001
9.708685e+002, 2.060370e+001
9.713506e+002, 2.062928e+001
9.718327e+002, 2.037043e+001
9.723148e+002, 2.004752e+001
9.727969e+002, 1.972658e+001
9.732791e+002, 1.965676e+001
9.737612e+002, 2.028151e+001
9.742433e+002, 2.096507e+001
9.747254e+002, 2.104075e+001
9.752075e+002, 2.077826e+001
9.756896e+002, 2.051748e+001
9.761718e+002, 2.038027e+001
9.766539e+002, 2.058642e+001
9.771360e+002, 2.127828e+001
9.776181e+002, 2.194135e+001
9.781002e+002, 2.178069e+001
9.785823e+002, 2.123956e+001
9.790645e+002, 2.141446e+001
9.795466e+002, 2.209054e+001
9.800287e+002, 2.225154e+001
9.805108e+002, 2.168585e+001
9.809929e+002, 2.100539e+001
9.814750e+002, 2.064436e+001
9.819572e+002, 2.052624e+001
9.824393e+002, 2.052637e+001
9.829214e+002, 2.063665e+001
9.834035e+002, 2.082157e+001
9.838856e+002, 2.108328e+001
9.843677e+002, 2.114472e+001
9.848499e+002, 2.087349e+001
9.853320e+002, 2.063189e+001
9.858141e+002, 2.084020e+001
9.862962e+002, 2.131593e+001
9.867783e+002, 2.118095e+001
9.872604e+002, 2.024655e+001
9.877426e+002, 1.971559e+001
9.882247e+002, 1.976891e+001
9.887068e+002, 1.991634e+001
9.891889e+002, 1.991626e+001
9.896710e+002, 1.995928e+001
9.901531e+002, 2.035649e+001
9.906353e+002, 2.108735e+001
9.911174e+002, 2.145671e+001
9.915995e+002, 2.131870e+001
9.920816e+002, 2.109384e+001
9.925637e+002, 2.056803e+001
9.930458e+002, 2.027434e+001
9.935280e+002, 2.063900e+001
9.940101e+002, 2.132172e+001
9.944922e+002, 2.194342e+001
9.949743e+002, 2.253867e+001
9.954564e+002, 2.252000e+001
9.959385e+002, 2.116929e+001
9.964207e+002, 2.015726e+001
9.969028e+002, 2.011104e+001
9.973849e+002, 2.022346e+001
9.978670e+002, 1.979718e+001
9.983491e+002, 1.919175e+001
9.988312e+002, 1.922515e+001
9.993134e+002, 2.009341e+001
9.997955e+002, 2.069613e+001
1.000278e+003, 2.062533e+001
1.000760e+003, 2.031752e+001
1.001242e+003, 1.961934e+001
1.001724e+003, 1.906082e+001
1.002206e+003, 1.939343e+001
1.002688e+003, 2.025454e+001
1.003170e+003, 2.055040e+001
1.003652e+003, 1.988556e+001
1.004135e+003, 1.941915e+001
1.004617e+003, 2.023380e+001
1.005099e+003, 2.107423e+001
1.005581e+003, 2.066188e+001
1.006063e+003, 1.980186e+001
1.006545e+003, 1.972608e+001
1.007027e+003, 2.037333e+001
1.007509e+003, 2.081564e+001
1.007991e+003, 2.060802e+001
1.008474e+003, 2.042941e+001
1.008956e+003, 2.125172e+001
1.009438e+003, 2.216713e+001
1.009920e+003, 2.170566e+001
1.010402e+003, 2.048503e+001
1.010884e+003, 1.991169e+001
1.011366e+003, 2.015511e+001
1.011848e+003, 2.044018e+001
1.012331e+003, 2.028908e+001
1.012813e+003, 2.015024e+001
1.013295e+003, 2.081897e+001
1.013777e+003, 2.182909e+001
1.014259e+003, 2.207788e+001
1.014741e+003, 2.170012e+001
1.015223e+003, 2.129295e+001
1.015705e+003, 2.102782e+001
1.016187e+003, 2.099335e+001
1.016669e+003, 2.130310e+001
1.017152e+003, 2.162487e+001
1.017634e+003, 2.115960e+001
1.018116e+003, 2.016788e+001
1.018598e+003, 1.999753e+001
1.019080e+003, 2.061183e+001
1.019562e+003, 2.099050e+001
1.020044e+003, 2.082972e+001
1.020526e+003, 2.049715e+001
1.021009e+003, 2.027006e+001
1.021491e+003, 2.020084e+001
1.021973e+003, 2.054012e+001
1.022455e+003, 2.125969e+001
1.022937e+003, 2.150873e+001
1.023419e+003, 2.120631e+001
1.023901e+003, 2.112930e+001
1.024383e+003, 2.158819e+001
1.024865e+003, 2.202466e+001
1.025348e+003, 2.185135e+001
1.025830e+003, 2.131086e+001
1.026312e+003, 2.130328e+001
1.026794e+003, 2.189557e+001
1.027276e+003, 2.254924e+001
1.027758e+003, 2.333884e+001
1.028240e+003, 2.370714e+001
1.028722e+003, 2.332098e+001
1.029205e+003, 2.279489e+001
1.029687e+003, 2.284248e+001
1.030169e+003, 2.326117e+001
1.030651e+003, 2.287806e+001
1.031133e+003, 2.120661e+001
1.031615e+003, 2.054414e+001
1.032097e+003, 2.135216e+001
1.032579e+003, 2.228754e+001
1.033062e+003, 2.291412e+001
1.033544e+003, 2.334016e+001
1.034026e+003, 2.370262e+001
1.034508e+003, 2.397615e+001
1.034990e+003, 2.393622e+001
1.035472e+003, 2.320664e+001
1.035954e+003, 2.305968e+001
1.036436e+003, 2.401360e+001
1.036918e+003, 2.475364e+001
1.037401e+003, 2.459785e+001
1.037883e+003, 2.415491e+001
1.038365e+003, 2.406380e+001
1.038847e+003, 2.430408e+001
1.039329e+003, 2.466752e+001
1.039811e+003, 2.555887e+001
1.040293e+003, 2.588655e+001
1.040775e+003, 2.495289e+001
1.041257e+003, 2.429508e+001
1.041740e+003, 2.466163e+001
1.042222e+003, 2.545989e+001
1.042704e+003, 2.621340e+001
1.043186e+003, 2.687872e+001
1.043668e+003, 2.708904e+001
1.044150e+003, 2.611239e+001
1.044632e+003, 2.582628e+001
1.045114e+003, 2.686883e+001
1.045597e+003, 2.800158e+001
1.046079e+003, 2.851424e+001
1.046561e+003, 2.897646e+001
1.047043e+003, 3.017036e+001
1.047525e+003, 3.200478e+001
1.048007e+003, 3.352295e+001
1.048489e+003, 3.448537e+001
1.048971e+003, 3.535435e+001
1.049453e+003, 3.563873e+001
1.049936e+003, 3.649363e+001
1.050418e+003, 3.877110e+001
1.050900e+003, 4.171061e+001
1.051382e+003, 4.435458e+001
1.051864e+003, 4.677271e+001
1.052346e+003, 4.965493e+001
1.052828e+003, 5.256717e+001
1.053310e+003, 5.705400e+001
1.053792e+003, 6.437412e+001
1.054275e+003, 7.231038e+001
1.054757e+003, 7.967565e+001
1.055239e+003, 8.699299e+001
1.055721e+003, 9.563374e+001
1.056203e+003, 1.050835e+002
1.056685e+003, 1.124335e+002
1.057167e+003, 1.174678e+002
1.057649e+003, 1.192724e+002
1.058132e+003, 1.167382e+002
1.058614e+003, 1.118806e+002
1.059096e+003, 1.051288e+002
1.059578e+003, 9.718371e+001
1.060060e+003, 8.807198e+001
1.060542e+003, 7.836713e+001
1.061024e+003, 6.979402e+001
1.061506e+003, 6.298033e+001
1.061989e+003, 5.710973e+001
1.062471e+003, 5.202175e+001
1.062953e+003, 4.768139e+001
1.063435e+003, 4.424232e+001
1.063917e+003, 4.139151e+001
1.064399e+003, 3.885758e+001
1.064881e+003, 3.658418e+001
1.065363e+003, 3.453528e+001
1.065845e+003, 3.264974e+001
1.066328e+003, 3.113406e+001
1.066810e+003, 3.011695e+001
1.067292e+003, 2.944447e+001
1.067774e+003, 2.924238e+001
1.068256e+003, 2.916803e+001
1.068738e+003, 2.891791e+001
1.069220e+003, 2.844360e+001
1.069702e+003, 2.769144e+001
1.070184e+003, 2.655317e+001
1.070667e+003, 2.561996e+001
1.071149e+003, 2.524614e+001
1.071631e+003, 2.506111e+001
1.072113e+003, 2.503592e+001
1.072595e+003, 2.493499e+001
1.073077e+003, 2.439871e+001
1.073559e+003, 2.358154e+001
1.074041e+003, 2.294550e+001
1.074524e+003, 2.260994e+001
1.075006e+003, 2.254058e+001
1.075488e+003, 2.290786e+001
1.075970e+003, 2.331576e+001
1.076452e+003, 2.350286e+001
1.076934e+003, 2.363583e+001
1.077416e+003, 2.410673e+001
1.077898e+003, 2.463317e+001
1.078380e+003, 2.438505e+001
1.078863e+003, 2.310364e+001
1.079345e+003, 2.199229e+001
1.079827e+003, 2.153592e+001
1.080309e+003, 2.147158e+001
1.080791e+003, 2.193065e+001
1.081273e+003, 2.248665e+001
1.081755e+003, 2.281167e+001
1.082237e+003, 2.288754e+001
1.082719e+003, 2.267102e+001
1.083202e+003, 2.216317e+001
1.083684e+003, 2.185766e+001
1.084166e+003, 2.196917e+001
1.084648e+003, 2.232805e+001
1.085130e+003, 2.324940e+001
1.085612e+003, 2.401784e+001
1.086094e+003, 2.391453e+001
1.086576e+003, 2.324926e+001
1.087058e+003, 2.257068e+001
1.087541e+003, 2.199217e+001
1.088023e+003, 2.151991e+001
1.088505e+003, 2.114751e+001
1.088987e+003, 2.089377e+001
1.089469e+003, 2.076757e+001
1.089951e+003, 2.075979e+001
1.090433e+003, 2.085830e+001
1.090915e+003, 2.107375e+001
1.091398e+003, 2.155230e+001
1.091880e+003, 2.222092e+001
1.092362e+003, 2.251843e+001
1.092844e+003, 2.192001e+001
1.093326e+003, 2.159223e+001
1.093808e+003, 2.244568e+001
1.094290e+003, 2.317797e+001
1.094772e+003, 2.269221e+001
1.095255e+003, 2.180293e+001
1.095737e+003, 2.160748e+001
1.096219e+003, 2.206752e+001
1.096701e+003, 2.240633e+001
1.097183e+003, 2.243277e+001
1.097665e+003, 2.232545e+001
1.098147e+003, 2.184076e+001
1.098629e+003, 2.159372e+001
1.099111e+003, 2.211980e+001
1.099594e+003, 2.285571e+001
1.100076e+003, 2.334990e+001
1.100558e+003, 2.352889e+001
1.101040e+003, 2.325402e+001
1.101522e+003, 2.231341e+001
1.102004e+003, 2.171771e+001
1.102486e+003, 2.200605e+001
1.102968e+003, 2.228907e+001
1.103450e+003, 2.221428e+001
1.103933e+003, 2.202090e+001
1.104415e+003, 2.175919e+001
1.104897e+003, 2.157842e+001
1.105379e+003, 2.186386e+001
1.105861e+003, 2.275076e+001
1.106343e+003, 2.330287e+001
1.106825e+003, 2.326324e+001
1.107307e+003, 2.303030e+001
1.107790e+003, 2.255158e+001
1.108272e+003, 2.206124e+001
1.108754e+003, 2.156450e+001
1.109236e+003, 2.121335e+001
1.109718e+003, 2.136051e+001
1.110200e+003, 2.203426e+001
1.110682e+003, 2.236275e+001
1.111164e+003, 2.209329e+001
1.111646e+003, 2.177908e+001
1.112129e+003, 2.118168e+001
1.112611e+003, 2.089313e+001
1.113093e+003, 2.158550e+001
1.113575e+003, 2.245196e+001
1.114057e+003, 2.246020e+001
1.114539e+003, 2.171740e+001
1.115021e+003, 2.117131e+001
1.115503e+003, 2.077182e+001
1.115985e+003, 2.066939e+001
1.116468e+003, 2.098108e+001
1.116950e+003, 2.142434e+001
1.117432e+003, 2.214681e+001
1.117914e+003, 2.268077e+001
1.118396e+003, 2.248668e+001
1.118878e+003, 2.180717e+001
1.119360e+003, 2.150030e+001
1.119842e+003, 2.177869e+001
1.120325e+003, 2.154980e+001
1.120807e+003, 2.041247e+001
1.121289e+003, 1.972059e+001
1.121771e+003, 1.990425e+001
1.122253e+003, 2.035984e+001
1.122735e+003, 2.072105e+001
1.123217e+003, 2.103469e+001
1.123699e+003, 2.140222e+001
1.124182e+003, 2.183096e+001
1.124664e+003, 2.208929e+001
1.125146e+003, 2.213381e+001
1.125628e+003, 2.220886e+001
1.126110e+003, 2.239459e+001
1.126592e+003, 2.243313e+001
1.127074e+003, 2.216092e+001
1.127556e+003, 2.175912e+001
1.128038e+003, 2.141869e+001
1.128521e+003, 2.118056e+001
1.129003e+003, 2.139236e+001
1.129485e+003, 2.211240e+001
1.129967e+003, 2.234085e+001
1.130449e+003, 2.195318e+001
1.130931e+003, 2.161831e+001
1.131413e+003, 2.158932e+001
1.131895e+003, 2.155073e+001
1.132377e+003, 2.119191e+001
1.132860e+003, 2.067967e+001
1.133342e+003, 2.042862e+001
1.133824e+003, 2.042241e+001
1.134306e+003, 2.050401e+001
1.134788e+003, 2.067095e+001
1.135270e+003, 2.100604e+001
1.135752e+003, 2.151766e+001
1.136234e+003, 2.197703e+001
1.136717e+003, 2.224470e+001
1.137199e+003, 2.232150e+001
1.137681e+003, 2.210153e+001
1.138163e+003, 2.173088e+001
1.138645e+003, 2.169396e+001
1.139127e+003, 2.190220e+001
1.139609e+003, 2.210722e+001
1.140091e+003, 2.222892e+001
1.140573e+003, 2.201101e+001
1.141056e+003, 2.137247e+001
1.141538e+003, 2.087275e+001
1.142020e+003, 2.111566e+001
1.142502e+003, 2.169413e+001
1.142984e+003, 2.218493e+001
1.143466e+003, 2.245409e+001
1.143948e+003, 2.205741e+001
1.144430e+003, 2.123935e+001
1.144912e+003, 2.067042e+001
1.145395e+003, 2.052430e+001
1.145877e+003, 2.062142e+001
1.146359e+003, 2.087271e+001
1.146841e+003, 2.126527e+001
1.147323e+003, 2.200241e+001
1.147805e+003, 2.268033e+001
1.148287e+003, 2.280728e+001
1.148769e+003, 2.259668e+001
1.149252e+003, 2.231670e+001
1.149734e+003, 2.206431e+001
1.150216e+003, 2.195618e+001
1.150698e+003, 2.204654e+001
1.151180e+003, 2.213011e+001
1.151662e+003, 2.210659e+001
1.152144e+003, 2.202417e+001
1.152626e+003, 2.181534e+001
1.153109e+003, 2.164818e+001
1.153591e+003, 2.177674e+001
1.154073e+003, 2.202528e+001
1.154555e+003, 2.193180e+001
1.155037e+003, 2.146470e+001
1.155519e+003, 2.142821e+001
1.156001e+003, 2.265011e+001
1.156483e+003, 2.343099e+001
1.156965e+003, 2.306230e+001
1.157448e+003, 2.249331e+001
1.157930e+003, 2.207415e+001
1.158412e+003, 2.182409e+001
1.158894e+003, 2.169809e+001
1.159376e+003, 2.173094e+001
1.159858e+003, 2.213337e+001
1.160340e+003, 2.325170e+001
1.160822e+003, 2.386024e+001
1.161304e+003, 2.379725e+001
1.161787e+003, 2.343822e+001
1.162269e+003, 2.252043e+001
1.162751e+003, 2.180846e+001
1.163233e+003, 2.196491e+001
1.163715e+003, 2.250938e+001
1.164197e+003, 2.250670e+001
1.164679e+003, 2.194347e+001
1.165161e+003, 2.184917e+001
1.165644e+003, 2.245773e+001
1.166126e+003, 2.257744e+001
1.166608e+003, 2.188546e+001
1.167090e+003, 2.148162e+001
1.167572e+003, 2.190326e+001
1.168054e+003, 2.250463e+001
1.168536e+003, 2.258847e+001
1.169018e+003, 2.233404e+001
1.169500e+003, 2.239978e+001
1.169983e+003, 2.276083e+001
1.170465e+003, 2.240256e+001
1.170947e+003, 2.132631e+001
1.171429e+003, 2.081352e+001
1.171911e+003, 2.116128e+001
1.172393e+003, 2.168762e+001
1.172875e+003, 2.197660e+001
1.173357e+003, 2.220410e+001
1.173839e+003, 2.273205e+001
1.174322e+003, 2.332139e+001
1.174804e+003, 2.319175e+001
1.175286e+003, 2.262474e+001
1.175768e+003, 2.249470e+001
1.176250e+003, 2.279188e+001
1.176732e+003, 2.297640e+001
1.177214e+003, 2.289315e+001
1.177696e+003, 2.298299e+001
1.178179e+003, 2.371729e+001
1.178661e+003, 2.439915e+001
1.179143e+003, 2.419168e+001
1.179625e+003, 2.357012e+001
1.180107e+003, 2.297573e+001
1.180589e+003, 2.249308e+001
1.181071e+003, 2.212033e+001
1.181553e+003, 2.192191e+001
1.182036e+003, 2.216156e+001
1.182518e+003, 2.299922e+001
1.183000e+003, 2.373271e+001
1.183482e+003, 2.399586e+001
1.183964e+003, 2.406146e+001
1.184446e+003, 2.409372e+001
1.184928e+003, 2.397544e+001
1.185410e+003, 2.334601e+001
1.185892e+003, 2.261340e+001
1.186375e+003, 2.262276e+001
1.186857e+003, 2.340793e+001
1.187339e+003, 2.374326e+001
1.187821e+003, 2.273246e+001
1.188303e+003, 2.238585e+001
1.188785e+003, 2.357348e+001
1.189267e+003, 2.456647e+001
1.189749e+003, 2.468133e+001
1.190231e+003, 2.445503e+001
1.190714e+003, 2.425013e+001
1.191196e+003, 2.409128e+001
1.191678e+003, 2.409304e+001
1.192160e+003, 2.432792e+001
1.192642e+003, 2.408666e+001
1.193124e+003, 2.318659e+001
1.193606e+003, 2.245600e+001
1.194088e+003, 2.194716e+001
1.194571e+003, 2.203205e+001
1.195053e+003, 2.301999e+001
1.195535e+003, 2.415060e+001
1.196017e+003, 2.452392e+001
1.196499e+003, 2.433649e+001
1.196981e+003, 2.426230e+001
1.197463e+003, 2.426856e+001
1.197945e+003, 2.391355e+001
1.198427e+003, 2.326749e+001
1.198910e+003, 2.327311e+001
1.199392e+003, 2.407926e+001
1.199874e+003, 2.470960e+001
1.200356e+003, 2.457729e+001
1.200838e+003, 2.409324e+001
1.201320e+003, 2.338787e+001
1.201802e+003, 2.294850e+001
1.202284e+003, 2.403028e+001
1.202766e+003, 2.573040e+001
1.203249e+003, 2.637715e+001
1.203731e+003, 2.609948e+001
1.204213e+003, 2.570173e+001
1.204695e+003, 2.542800e+001
1.205177e+003, 2.521450e+001
1.205659e+003, 2.503965e+001
1.206141e+003, 2.488807e+001
1.206623e+003, 2.481488e+001
1.207105e+003, 2.469031e+001
1.207588e+003, 2.434669e+001
1.208070e+003, 2.395636e+001
1.208552e+003, 2.350083e+001
1.209034e+003, 2.320826e+001
1.209516e+003, 2.380178e+001
1.209998e+003, 2.557444e+001
1.210480e+003, 2.660211e+001
1.210962e+003, 2.600472e+001
1.211445e+003, 2.552276e+001
1.211927e+003, 2.556763e+001
1.212409e+003, 2.561946e+001
1.212891e+003, 2.553069e+001
1.213373e+003, 2.524335e+001
1.213855e+003, 2.450070e+001
1.214337e+003, 2.358113e+001
1.214819e+003, 2.369672e+001
1.215302e+003, 2.515485e+001
1.215784e+003, 2.584195e+001
1.216266e+003, 2.565451e+001
1.216748e+003, 2.525453e+001
1.217230e+003, 2.471782e+001
1.217712e+003, 2.452830e+001
1.218194e+003, 2.498837e+001
1.218676e+003, 2.562037e+001
1.219158e+003, 2.583274e+001
1.219641e+003, 2.574951e+001
1.220123e+003, 2.570554e+001
1.220605e+003, 2.566193e+001
1.221087e+003, 2.541164e+001
1.221569e+003, 2.502870e+001
1.222051e+003, 2.481433e+001
1.222533e+003, 2.484677e+001
1.223015e+003, 2.513615e+001
1.223497e+003, 2.572273e+001
1.223980e+003, 2.620307e+001
1.224462e+003, 2.613718e+001
1.224944e+003, 2.587321e+001
1.225426e+003, 2.551862e+001
1.225908e+003, 2.534093e+001
1.226390e+003, 2.592418e+001
1.226872e+003, 2.681332e+001
1.227354e+003, 2.701028e+001
1.227837e+003, 2.644300e+001
1.228319e+003, 2.603996e+001
1.228801e+003, 2.612744e+001
1.229283e+003, 2.626936e+001
1.229765e+003, 2.658823e+001
1.230247e+003, 2.664933e+001
1.230729e+003, 2.589508e+001
1.231211e+003, 2.521278e+001
1.231693e+003, 2.535205e+001
1.232176e+003, 2.597624e+001
1.232658e+003, 2.653754e+001
1.233140e+003, 2.703883e+001
1.233622e+003, 2.689217e+001
1.234104e+003, 2.579682e+001
1.234586e+003, 2.544203e+001
1.235068e+003, 2.607541e+001
1.235550e+003, 2.681561e+001
1.236032e+003, 2.739207e+001
1.236515e+003, 2.766926e+001
1.236997e+003, 2.748045e+001
1.237479e+003, 2.719843e+001
1.237961e+003, 2.764220e+001
1.238443e+003, 2.851882e+001
1.238925e+003, 2.866169e+001
1.239407e+003, 2.835582e+001
1.239889e+003, 2.851576e+001
1.240372e+003, 2.915799e+001
1.240854e+003, 2.989097e+001
1.241336e+003, 3.055945e+001
1.241818e+003, 3.105868e+001
1.242300e+003, 3.124218e+001
1.242782e+003, 3.147458e+001
1.243264e+003, 3.175274e+001
1.243746e+003, 3.253368e+001
1.244229e+003, 3.437957e+001
1.244711e+003, 3.681425e+001
1.245193e+003, 3.883921e+001
1.245675e+003, 4.107071e+001
1.246157e+003, 4.489745e+001
1.246639e+003, 5.051881e+001
1.247121e+003, 5.832885e+001
1.247603e+003, 6.796674e+001
1.248085e+003, 8.055830e+001
1.248568e+003, 9.866236e+001
1.249050e+003, 1.161380e+002
1.249532e+003, 1.340452e+002
1.250014e+003, 1.460133e+002
1.250496e+003, 1.465117e+002
1.250978e+003, 1.375541e+002
1.251460e+003, 1.224210e+002
1.251942e+003, 1.014127e+002
1.252424e+003, 8.478742e+001
1.252907e+003, 7.254670e+001
1.253389e+003, 6.297523e+001
1.253871e+003, 5.584789e+001
1.254353e+003, 5.045256e+001
1.254835e+003, 4.649197e+001
1.255317e+003, 4.294431e+001
1.255799e+003, 3.891705e+001
1.256281e+003, 3.539003e+001
1.256764e+003, 3.408553e+001
1.257246e+003, 3.377639e+001
1.257728e+003, 3.259386e+001
1.258210e+003, 3.110474e+001
1.258692e+003, 3.024436e+001
1.259174e+003, 3.000384e+001
1.259656e+003, 3.018629e+001
1.260138e+003, 3.066078e+001
1.260620e+003, 3.074063e+001
1.261103e+003, 2.987528e+001
1.261585e+003, 2.914521e+001
1.262067e+003, 2.888584e+001
1.262549e+003, 2.886388e+001
1.263031e+003, 2.916375e+001
1.263513e+003, 2.947313e+001
1.263995e+003, 2.955460e+001
1.264477e+003, 2.946340e+001
1.264959e+003, 2.926728e+001
1.265442e+003, 2.897160e+001
1.265924e+003, 2.883495e+001
1.266406e+003, 2.892457e+001
1.266888e+003, 2.872861e+001
1.267370e+003, 2.815186e+001
1.267852e+003, 2.796203e+001
1.268334e+003, 2.840722e+001
1.268816e+003, 2.881803e+001
1.269299e+003, 2.872363e+001
1.269781e+003, 2.855216e+001
1.270263e+003, 2.907754e+001
1.270745e+003, 2.978442e+001
1.271227e+003, 2.938851e+001
1.271709e+003, 2.848465e+001
1.272191e+003, 2.823321e+001
1.272673e+003, 2.851709e+001
1.273156e+003, 2.887095e+001
1.273638e+003, 2.913085e+001
1.274120e+003, 2.910442e+001
1.274602e+003, 2.860934e+001
1.275084e+003, 2.837709e+001
1.275566e+003, 2.899472e+001
1.276048e+003, 2.962284e+001
1.276530e+003, 2.999103e+001
1.277012e+003, 3.012945e+001
1.277495e+003, 2.983435e+001
1.277977e+003, 2.948546e+001
1.278459e+003, 2.965404e+001
1.278941e+003, 3.020320e+001
1.279423e+003, 3.050094e+001
1.279905e+003, 3.053553e+001
1.280387e+003, 3.028366e+001
1.280869e+003, 2.962567e+001
1.281351e+003, 2.955215e+001
1.281834e+003, 3.028371e+001
1.282316e+003, 3.106741e+001
1.282798e+003, 3.156232e+001
1.283280e+003, 3.177506e+001
1.283762e+003, 3.170645e+001
1.284244e+003, 3.135270e+001
##END=



