##NAMES=Grimselite
##RRUFFID=R141028
##IDEAL CHEMISTRY=K_3_Na(U^6+^O_2_)(CO_3_)_3_&#183;H_2_O
##LOCALITY=Rovnost Mine, Jáchymov, Krušné Hory Mts, Karlovy Vary, Bohemia, Czech Republic
##OWNER=RRUFF
##SOURCE=William W. Pinch
##DESCRIPTION=Radial aggregate of light or greenish yellow bladed crystals
##STATUS=The identification of this mineral has been confirmed by single-crystal X-ray diffraction.
##URL=rruff.info/R141028
8.806445e+001, 9.986390e+003
8.854657e+001, 9.617605e+003
8.902869e+001, 9.489924e+003
8.951080e+001, 9.715542e+003
8.999292e+001, 1.013115e+004
9.047504e+001, 1.059065e+004
9.095715e+001, 1.106704e+004
9.143927e+001, 1.154489e+004
9.192139e+001, 1.200876e+004
9.240350e+001, 1.245898e+004
9.288562e+001, 1.289503e+004
9.336774e+001, 1.322410e+004
9.384985e+001, 1.336073e+004
9.433197e+001, 1.331885e+004
9.481409e+001, 1.328889e+004
9.529620e+001, 1.321776e+004
9.577832e+001, 1.314331e+004
9.626044e+001, 1.307317e+004
9.674255e+001, 1.301290e+004
9.722467e+001, 1.296668e+004
9.770679e+001, 1.293372e+004
9.818890e+001, 1.290675e+004
9.867102e+001, 1.288188e+004
9.915314e+001, 1.286052e+004
9.963525e+001, 1.284295e+004
1.001174e+002, 1.282878e+004
1.005995e+002, 1.281760e+004
1.010816e+002, 1.281001e+004
1.015637e+002, 1.280336e+004
1.020458e+002, 1.280149e+004
1.025280e+002, 1.279963e+004
1.030101e+002, 1.279947e+004
1.034922e+002, 1.280495e+004
1.039743e+002, 1.281893e+004
1.044564e+002, 1.284098e+004
1.049385e+002, 1.286478e+004
1.054207e+002, 1.288939e+004
1.059028e+002, 1.291456e+004
1.063849e+002, 1.293994e+004
1.068670e+002, 1.296518e+004
1.073491e+002, 1.298999e+004
1.078312e+002, 1.301314e+004
1.083134e+002, 1.303469e+004
1.087955e+002, 1.305868e+004
1.092776e+002, 1.308553e+004
1.097597e+002, 1.311501e+004
1.102418e+002, 1.314726e+004
1.107239e+002, 1.318286e+004
1.112061e+002, 1.321981e+004
1.116882e+002, 1.325612e+004
1.121703e+002, 1.329219e+004
1.126524e+002, 1.332835e+004
1.131345e+002, 1.336585e+004
1.136166e+002, 1.340454e+004
1.140988e+002, 1.344068e+004
1.145809e+002, 1.347027e+004
1.150630e+002, 1.349996e+004
1.155451e+002, 1.353361e+004
1.160272e+002, 1.357123e+004
1.165093e+002, 1.360924e+004
1.169915e+002, 1.364358e+004
1.174736e+002, 1.367364e+004
1.179557e+002, 1.370030e+004
1.184378e+002, 1.372202e+004
1.189199e+002, 1.374152e+004
1.194020e+002, 1.376154e+004
1.198842e+002, 1.378267e+004
1.203663e+002, 1.380223e+004
1.208484e+002, 1.381440e+004
1.213305e+002, 1.381352e+004
1.218126e+002, 1.380993e+004
1.222947e+002, 1.380183e+004
1.227769e+002, 1.379154e+004
1.232590e+002, 1.378297e+004
1.237411e+002, 1.377863e+004
1.242232e+002, 1.377623e+004
1.247053e+002, 1.376419e+004
1.251874e+002, 1.373846e+004
1.256696e+002, 1.371037e+004
1.261517e+002, 1.368431e+004
1.266338e+002, 1.365961e+004
1.271159e+002, 1.363247e+004
1.275980e+002, 1.360048e+004
1.280801e+002, 1.356411e+004
1.285623e+002, 1.352648e+004
1.290444e+002, 1.348567e+004
1.295265e+002, 1.344511e+004
1.300086e+002, 1.340887e+004
1.304907e+002, 1.337811e+004
1.309728e+002, 1.334638e+004
1.314550e+002, 1.330651e+004
1.319371e+002, 1.326340e+004
1.324192e+002, 1.322426e+004
1.329013e+002, 1.319394e+004
1.333834e+002, 1.316932e+004
1.338655e+002, 1.314084e+004
1.343477e+002, 1.310551e+004
1.348298e+002, 1.307052e+004
1.353119e+002, 1.303827e+004
1.357940e+002, 1.300864e+004
1.362761e+002, 1.298169e+004
1.367582e+002, 1.295848e+004
1.372404e+002, 1.293939e+004
1.377225e+002, 1.291620e+004
1.382046e+002, 1.288456e+004
1.386867e+002, 1.285281e+004
1.391688e+002, 1.282290e+004
1.396509e+002, 1.279525e+004
1.401331e+002, 1.276972e+004
1.406152e+002, 1.274600e+004
1.410973e+002, 1.272486e+004
1.415794e+002, 1.270373e+004
1.420615e+002, 1.268219e+004
1.425436e+002, 1.266096e+004
1.430258e+002, 1.263896e+004
1.435079e+002, 1.261656e+004
1.439900e+002, 1.259681e+004
1.444721e+002, 1.258428e+004
1.449542e+002, 1.258267e+004
1.454363e+002, 1.257926e+004
1.459185e+002, 1.257199e+004
1.464006e+002, 1.256319e+004
1.468827e+002, 1.255549e+004
1.473648e+002, 1.254962e+004
1.478469e+002, 1.254468e+004
1.483290e+002, 1.253847e+004
1.488112e+002, 1.253017e+004
1.492933e+002, 1.252486e+004
1.497754e+002, 1.252729e+004
1.502575e+002, 1.253453e+004
1.507396e+002, 1.253768e+004
1.512217e+002, 1.253254e+004
1.517039e+002, 1.252384e+004
1.521860e+002, 1.251772e+004
1.526681e+002, 1.251431e+004
1.531502e+002, 1.251231e+004
1.536323e+002, 1.251030e+004
1.541144e+002, 1.250826e+004
1.545966e+002, 1.250868e+004
1.550787e+002, 1.251494e+004
1.555608e+002, 1.252255e+004
1.560429e+002, 1.252912e+004
1.565250e+002, 1.253425e+004
1.570071e+002, 1.253720e+004
1.574893e+002, 1.253569e+004
1.579714e+002, 1.252657e+004
1.584535e+002, 1.252167e+004
1.589356e+002, 1.252372e+004
1.594177e+002, 1.252968e+004
1.598998e+002, 1.253901e+004
1.603820e+002, 1.255137e+004
1.608641e+002, 1.256373e+004
1.613462e+002, 1.256838e+004
1.618283e+002, 1.255680e+004
1.623104e+002, 1.254901e+004
1.627925e+002, 1.254817e+004
1.632747e+002, 1.255129e+004
1.637568e+002, 1.255569e+004
1.642389e+002, 1.256006e+004
1.647210e+002, 1.256408e+004
1.652031e+002, 1.256606e+004
1.656852e+002, 1.256861e+004
1.661674e+002, 1.256640e+004
1.666495e+002, 1.255552e+004
1.671316e+002, 1.253953e+004
1.676137e+002, 1.252455e+004
1.680958e+002, 1.251410e+004
1.685779e+002, 1.250751e+004
1.690601e+002, 1.250004e+004
1.695422e+002, 1.249244e+004
1.700243e+002, 1.248352e+004
1.705064e+002, 1.247258e+004
1.709885e+002, 1.245980e+004
1.714706e+002, 1.244558e+004
1.719528e+002, 1.242918e+004
1.724349e+002, 1.241172e+004
1.729170e+002, 1.239748e+004
1.733991e+002, 1.238840e+004
1.738812e+002, 1.238082e+004
1.743633e+002, 1.237380e+004
1.748455e+002, 1.236740e+004
1.753276e+002, 1.235608e+004
1.758097e+002, 1.233052e+004
1.762918e+002, 1.229872e+004
1.767739e+002, 1.227513e+004
1.772560e+002, 1.226602e+004
1.777382e+002, 1.226428e+004
1.782203e+002, 1.226056e+004
1.787024e+002, 1.225444e+004
1.791845e+002, 1.224792e+004
1.796666e+002, 1.224271e+004
1.801487e+002, 1.223769e+004
1.806309e+002, 1.223119e+004
1.811130e+002, 1.222185e+004
1.815951e+002, 1.221095e+004
1.820772e+002, 1.220201e+004
1.825593e+002, 1.219666e+004
1.830414e+002, 1.219062e+004
1.835236e+002, 1.218175e+004
1.840057e+002, 1.217145e+004
1.844878e+002, 1.216152e+004
1.849699e+002, 1.215275e+004
1.854520e+002, 1.214528e+004
1.859341e+002, 1.214036e+004
1.864163e+002, 1.214400e+004
1.868984e+002, 1.214323e+004
1.873805e+002, 1.213119e+004
1.878626e+002, 1.211299e+004
1.883447e+002, 1.209727e+004
1.888268e+002, 1.209015e+004
1.893090e+002, 1.209143e+004
1.897911e+002, 1.209316e+004
1.902732e+002, 1.210040e+004
1.907553e+002, 1.210312e+004
1.912374e+002, 1.209598e+004
1.917195e+002, 1.208191e+004
1.922017e+002, 1.206704e+004
1.926838e+002, 1.205570e+004
1.931659e+002, 1.204775e+004
1.936480e+002, 1.204590e+004
1.941301e+002, 1.205801e+004
1.946122e+002, 1.206737e+004
1.950944e+002, 1.206530e+004
1.955765e+002, 1.205349e+004
1.960586e+002, 1.203930e+004
1.965407e+002, 1.202796e+004
1.970228e+002, 1.201973e+004
1.975049e+002, 1.201564e+004
1.979871e+002, 1.201807e+004
1.984692e+002, 1.202203e+004
1.989513e+002, 1.202548e+004
1.994334e+002, 1.202800e+004
1.999155e+002, 1.202833e+004
2.003976e+002, 1.202436e+004
2.008798e+002, 1.201654e+004
2.013619e+002, 1.201194e+004
2.018440e+002, 1.201366e+004
2.023261e+002, 1.201696e+004
2.028082e+002, 1.201836e+004
2.032903e+002, 1.201774e+004
2.037725e+002, 1.201451e+004
2.042546e+002, 1.200572e+004
2.047367e+002, 1.199381e+004
2.052188e+002, 1.198579e+004
2.057009e+002, 1.198932e+004
2.061830e+002, 1.199479e+004
2.066652e+002, 1.198678e+004
2.071473e+002, 1.196136e+004
2.076294e+002, 1.193737e+004
2.081115e+002, 1.192801e+004
2.085936e+002, 1.192847e+004
2.090757e+002, 1.193297e+004
2.095579e+002, 1.194165e+004
2.100400e+002, 1.195222e+004
2.105221e+002, 1.196093e+004
2.110042e+002, 1.196900e+004
2.114863e+002, 1.197183e+004
2.119685e+002, 1.196272e+004
2.124506e+002, 1.194823e+004
2.129327e+002, 1.193816e+004
2.134148e+002, 1.193852e+004
2.138969e+002, 1.194578e+004
2.143790e+002, 1.194829e+004
2.148612e+002, 1.194073e+004
2.153433e+002, 1.193750e+004
2.158254e+002, 1.194843e+004
2.163075e+002, 1.196504e+004
2.167896e+002, 1.197488e+004
2.172717e+002, 1.196942e+004
2.177539e+002, 1.195311e+004
2.182360e+002, 1.194667e+004
2.187181e+002, 1.196283e+004
2.192002e+002, 1.197214e+004
2.196823e+002, 1.196245e+004
2.201644e+002, 1.194308e+004
2.206466e+002, 1.192677e+004
2.211287e+002, 1.192114e+004
2.216108e+002, 1.192475e+004
2.220929e+002, 1.192969e+004
2.225750e+002, 1.193891e+004
2.230571e+002, 1.194617e+004
2.235393e+002, 1.194979e+004
2.240214e+002, 1.195090e+004
2.245035e+002, 1.195092e+004
2.249856e+002, 1.195061e+004
2.254677e+002, 1.195013e+004
2.259498e+002, 1.195046e+004
2.264320e+002, 1.195209e+004
2.269141e+002, 1.195409e+004
2.273962e+002, 1.195552e+004
2.278783e+002, 1.195737e+004
2.283604e+002, 1.196163e+004
2.288425e+002, 1.196967e+004
2.293247e+002, 1.198047e+004
2.298068e+002, 1.198809e+004
2.302889e+002, 1.199161e+004
2.307710e+002, 1.199325e+004
2.312531e+002, 1.199100e+004
2.317352e+002, 1.198733e+004
2.322174e+002, 1.198687e+004
2.326995e+002, 1.199246e+004
2.331816e+002, 1.200233e+004
2.336637e+002, 1.200863e+004
2.341458e+002, 1.200818e+004
2.346279e+002, 1.200844e+004
2.351101e+002, 1.201072e+004
2.355922e+002, 1.201499e+004
2.360743e+002, 1.202145e+004
2.365564e+002, 1.203042e+004
2.370385e+002, 1.204125e+004
2.375206e+002, 1.205165e+004
2.380028e+002, 1.206166e+004
2.384849e+002, 1.207148e+004
2.389670e+002, 1.208085e+004
2.394491e+002, 1.209006e+004
2.399312e+002, 1.210005e+004
2.404133e+002, 1.211156e+004
2.408955e+002, 1.212347e+004
2.413776e+002, 1.213281e+004
2.418597e+002, 1.213740e+004
2.423418e+002, 1.214489e+004
2.428239e+002, 1.216148e+004
2.433060e+002, 1.218373e+004
2.437882e+002, 1.220210e+004
2.442703e+002, 1.221246e+004
2.447524e+002, 1.221822e+004
2.452345e+002, 1.222647e+004
2.457166e+002, 1.223902e+004
2.461987e+002, 1.224566e+004
2.466809e+002, 1.223826e+004
2.471630e+002, 1.222035e+004
2.476451e+002, 1.220341e+004
2.481272e+002, 1.219065e+004
2.486093e+002, 1.218006e+004
2.490914e+002, 1.217009e+004
2.495736e+002, 1.216096e+004
2.500557e+002, 1.214919e+004
2.505378e+002, 1.213028e+004
2.510199e+002, 1.210644e+004
2.515020e+002, 1.208670e+004
2.519841e+002, 1.207308e+004
2.524663e+002, 1.206387e+004
2.529484e+002, 1.205830e+004
2.534305e+002, 1.205588e+004
2.539126e+002, 1.205202e+004
2.543947e+002, 1.204029e+004
2.548768e+002, 1.202361e+004
2.553590e+002, 1.201699e+004
2.558411e+002, 1.202747e+004
2.563232e+002, 1.204118e+004
2.568053e+002, 1.204773e+004
2.572874e+002, 1.204883e+004
2.577695e+002, 1.205048e+004
2.582516e+002, 1.205737e+004
2.587338e+002, 1.206837e+004
2.592159e+002, 1.207678e+004
2.596980e+002, 1.208086e+004
2.601801e+002, 1.208459e+004
2.606622e+002, 1.209252e+004
2.611443e+002, 1.210192e+004
2.616265e+002, 1.210639e+004
2.621086e+002, 1.209890e+004
2.625907e+002, 1.208305e+004
2.630728e+002, 1.207643e+004
2.635549e+002, 1.208604e+004
2.640370e+002, 1.209424e+004
2.645192e+002, 1.209548e+004
2.650013e+002, 1.209049e+004
2.654834e+002, 1.208025e+004
2.659655e+002, 1.206446e+004
2.664476e+002, 1.204435e+004
2.669297e+002, 1.202380e+004
2.674119e+002, 1.200255e+004
2.678940e+002, 1.198143e+004
2.683761e+002, 1.195798e+004
2.688582e+002, 1.193568e+004
2.693403e+002, 1.191937e+004
2.698224e+002, 1.191222e+004
2.703046e+002, 1.191081e+004
2.707867e+002, 1.190601e+004
2.712688e+002, 1.189713e+004
2.717509e+002, 1.188575e+004
2.722330e+002, 1.187005e+004
2.727151e+002, 1.185347e+004
2.731973e+002, 1.183907e+004
2.736794e+002, 1.182802e+004
2.741615e+002, 1.181991e+004
2.746436e+002, 1.181361e+004
2.751257e+002, 1.180824e+004
2.756078e+002, 1.180667e+004
2.760900e+002, 1.181449e+004
2.765721e+002, 1.182242e+004
2.770542e+002, 1.182116e+004
2.775363e+002, 1.180845e+004
2.780184e+002, 1.179142e+004
2.785005e+002, 1.178290e+004
2.789827e+002, 1.178906e+004
2.794648e+002, 1.178984e+004
2.799469e+002, 1.178033e+004
2.804290e+002, 1.176882e+004
2.809111e+002, 1.176075e+004
2.813932e+002, 1.175711e+004
2.818754e+002, 1.175538e+004
2.823575e+002, 1.175267e+004
2.828396e+002, 1.174966e+004
2.833217e+002, 1.174359e+004
2.838038e+002, 1.173030e+004
2.842859e+002, 1.171783e+004
2.847681e+002, 1.171215e+004
2.852502e+002, 1.171242e+004
2.857323e+002, 1.171267e+004
2.862144e+002, 1.170646e+004
2.866965e+002, 1.169237e+004
2.871786e+002, 1.167989e+004
2.876608e+002, 1.167130e+004
2.881429e+002, 1.166200e+004
2.886250e+002, 1.164940e+004
2.891071e+002, 1.163433e+004
2.895892e+002, 1.161928e+004
2.900714e+002, 1.160604e+004
2.905535e+002, 1.159466e+004
2.910356e+002, 1.158572e+004
2.915177e+002, 1.158251e+004
2.919998e+002, 1.157840e+004
2.924819e+002, 1.156959e+004
2.929641e+002, 1.155868e+004
2.934462e+002, 1.155123e+004
2.939283e+002, 1.155123e+004
2.944104e+002, 1.155703e+004
2.948925e+002, 1.155723e+004
2.953746e+002, 1.154383e+004
2.958568e+002, 1.153344e+004
2.963389e+002, 1.153118e+004
2.968210e+002, 1.153246e+004
2.973031e+002, 1.153033e+004
2.977852e+002, 1.152135e+004
2.982673e+002, 1.150840e+004
2.987495e+002, 1.150022e+004
2.992316e+002, 1.150231e+004
2.997137e+002, 1.150238e+004
3.001958e+002, 1.149894e+004
3.006779e+002, 1.149366e+004
3.011600e+002, 1.148793e+004
3.016422e+002, 1.148227e+004
3.021243e+002, 1.147678e+004
3.026064e+002, 1.147170e+004
3.030885e+002, 1.146685e+004
3.035706e+002, 1.146279e+004
3.040527e+002, 1.145955e+004
3.045349e+002, 1.145703e+004
3.050170e+002, 1.145531e+004
3.054991e+002, 1.145435e+004
3.059812e+002, 1.145404e+004
3.064633e+002, 1.145473e+004
3.069454e+002, 1.145832e+004
3.074276e+002, 1.145578e+004
3.079097e+002, 1.144280e+004
3.083918e+002, 1.142865e+004
3.088739e+002, 1.141803e+004
3.093560e+002, 1.141112e+004
3.098381e+002, 1.140590e+004
3.103203e+002, 1.140038e+004
3.108024e+002, 1.139447e+004
3.112845e+002, 1.139137e+004
3.117666e+002, 1.139394e+004
3.122487e+002, 1.139600e+004
3.127308e+002, 1.139530e+004
3.132130e+002, 1.139238e+004
3.136951e+002, 1.138880e+004
3.141772e+002, 1.138556e+004
3.146593e+002, 1.138244e+004
3.151414e+002, 1.137818e+004
3.156235e+002, 1.137174e+004
3.161057e+002, 1.136514e+004
3.165878e+002, 1.135669e+004
3.170699e+002, 1.134873e+004
3.175520e+002, 1.134552e+004
3.180341e+002, 1.134901e+004
3.185162e+002, 1.135554e+004
3.189984e+002, 1.135568e+004
3.194805e+002, 1.134355e+004
3.199626e+002, 1.133214e+004
3.204447e+002, 1.132038e+004
3.209268e+002, 1.131014e+004
3.214089e+002, 1.130399e+004
3.218911e+002, 1.130234e+004
3.223732e+002, 1.130249e+004
3.228553e+002, 1.130060e+004
3.233374e+002, 1.129655e+004
3.238195e+002, 1.129050e+004
3.243016e+002, 1.127853e+004
3.247838e+002, 1.126796e+004
3.252659e+002, 1.126438e+004
3.257480e+002, 1.126740e+004
3.262301e+002, 1.127238e+004
3.267122e+002, 1.127504e+004
3.271943e+002, 1.127534e+004
3.276765e+002, 1.127308e+004
3.281586e+002, 1.126536e+004
3.286407e+002, 1.125815e+004
3.291228e+002, 1.125361e+004
3.296049e+002, 1.125130e+004
3.300870e+002, 1.124969e+004
3.305692e+002, 1.124766e+004
3.310513e+002, 1.124550e+004
3.315334e+002, 1.124551e+004
3.320155e+002, 1.125379e+004
3.324976e+002, 1.125737e+004
3.329797e+002, 1.125227e+004
3.334619e+002, 1.124215e+004
3.339440e+002, 1.123150e+004
3.344261e+002, 1.122237e+004
3.349082e+002, 1.121420e+004
3.353904e+002, 1.120534e+004
3.358725e+002, 1.119355e+004
3.363546e+002, 1.118514e+004
3.368367e+002, 1.118323e+004
3.373188e+002, 1.118274e+004
3.378009e+002, 1.117930e+004
3.382831e+002, 1.117215e+004
3.387652e+002, 1.116387e+004
3.392473e+002, 1.115808e+004
3.397294e+002, 1.115605e+004
3.402115e+002, 1.115247e+004
3.406936e+002, 1.114728e+004
3.411758e+002, 1.114076e+004
3.416579e+002, 1.113088e+004
3.421400e+002, 1.111923e+004
3.426221e+002, 1.111054e+004
3.431042e+002, 1.110925e+004
3.435863e+002, 1.111531e+004
3.440685e+002, 1.112008e+004
3.445506e+002, 1.112566e+004
3.450327e+002, 1.112735e+004
3.455148e+002, 1.112165e+004
3.459969e+002, 1.111170e+004
3.464790e+002, 1.110202e+004
3.469612e+002, 1.109489e+004
3.474433e+002, 1.109021e+004
3.479254e+002, 1.108789e+004
3.484075e+002, 1.109042e+004
3.488896e+002, 1.109130e+004
3.493717e+002, 1.108729e+004
3.498539e+002, 1.108275e+004
3.503360e+002, 1.108331e+004
3.508181e+002, 1.109020e+004
3.513002e+002, 1.109689e+004
3.517823e+002, 1.109197e+004
3.522644e+002, 1.106989e+004
3.527466e+002, 1.105458e+004
3.532287e+002, 1.105430e+004
3.537108e+002, 1.105530e+004
3.541929e+002, 1.104967e+004
3.546750e+002, 1.103805e+004
3.551571e+002, 1.102660e+004
3.556393e+002, 1.102034e+004
3.561214e+002, 1.101926e+004
3.566035e+002, 1.102195e+004
3.570856e+002, 1.103474e+004
3.575677e+002, 1.104363e+004
3.580498e+002, 1.104317e+004
3.585320e+002, 1.103576e+004
3.590141e+002, 1.102514e+004
3.594962e+002, 1.101250e+004
3.599783e+002, 1.099925e+004
3.604604e+002, 1.098965e+004
3.609425e+002, 1.098536e+004
3.614247e+002, 1.098079e+004
3.619068e+002, 1.097205e+004
3.623889e+002, 1.096340e+004
3.628710e+002, 1.095936e+004
3.633531e+002, 1.096125e+004
3.638352e+002, 1.096509e+004
3.643174e+002, 1.096544e+004
3.647995e+002, 1.096163e+004
3.652816e+002, 1.096132e+004
3.657637e+002, 1.097240e+004
3.662458e+002, 1.098125e+004
3.667279e+002, 1.097702e+004
3.672101e+002, 1.096115e+004
3.676922e+002, 1.094494e+004
3.681743e+002, 1.093767e+004
3.686564e+002, 1.093700e+004
3.691385e+002, 1.093157e+004
3.696206e+002, 1.091823e+004
3.701028e+002, 1.090540e+004
3.705849e+002, 1.089907e+004
3.710670e+002, 1.089657e+004
3.715491e+002, 1.089321e+004
3.720312e+002, 1.088570e+004
3.725133e+002, 1.087813e+004
3.729955e+002, 1.087811e+004
3.734776e+002, 1.088673e+004
3.739597e+002, 1.089211e+004
3.744418e+002, 1.088871e+004
3.749239e+002, 1.087940e+004
3.754060e+002, 1.086629e+004
3.758882e+002, 1.084770e+004
3.763703e+002, 1.083321e+004
3.768524e+002, 1.083151e+004
3.773345e+002, 1.084001e+004
3.778166e+002, 1.084904e+004
3.782987e+002, 1.085862e+004
3.787809e+002, 1.086398e+004
3.792630e+002, 1.085717e+004
3.797451e+002, 1.083985e+004
3.802272e+002, 1.082448e+004
3.807093e+002, 1.081527e+004
3.811914e+002, 1.081023e+004
3.816736e+002, 1.080834e+004
3.821557e+002, 1.080971e+004
3.826378e+002, 1.080916e+004
3.831199e+002, 1.080200e+004
3.836020e+002, 1.078964e+004
3.840841e+002, 1.077942e+004
3.845663e+002, 1.077271e+004
3.850484e+002, 1.076690e+004
3.855305e+002, 1.076092e+004
3.860126e+002, 1.075467e+004
3.864947e+002, 1.074723e+004
3.869768e+002, 1.073739e+004
3.874590e+002, 1.072778e+004
3.879411e+002, 1.072541e+004
3.884232e+002, 1.073368e+004
3.889053e+002, 1.073766e+004
3.893874e+002, 1.073015e+004
3.898695e+002, 1.071884e+004
3.903517e+002, 1.071324e+004
3.908338e+002, 1.071491e+004
3.913159e+002, 1.071793e+004
3.917980e+002, 1.071608e+004
3.922801e+002, 1.070854e+004
3.927622e+002, 1.070294e+004
3.932444e+002, 1.070064e+004
3.937265e+002, 1.069880e+004
3.942086e+002, 1.069583e+004
3.946907e+002, 1.069213e+004
3.951728e+002, 1.068909e+004
3.956549e+002, 1.068759e+004
3.961371e+002, 1.068717e+004
3.966192e+002, 1.068596e+004
3.971013e+002, 1.068783e+004
3.975834e+002, 1.068391e+004
3.980655e+002, 1.066730e+004
3.985476e+002, 1.064774e+004
3.990298e+002, 1.063557e+004
3.995119e+002, 1.063325e+004
3.999940e+002, 1.063517e+004
4.004761e+002, 1.063355e+004
4.009582e+002, 1.062641e+004
4.014403e+002, 1.062283e+004
4.019225e+002, 1.062615e+004
4.024046e+002, 1.062940e+004
4.028867e+002, 1.062950e+004
4.033688e+002, 1.062681e+004
4.038509e+002, 1.062289e+004
4.043330e+002, 1.061870e+004
4.048152e+002, 1.061428e+004
4.052973e+002, 1.061022e+004
4.057794e+002, 1.060800e+004
4.062615e+002, 1.060364e+004
4.067436e+002, 1.059602e+004
4.072257e+002, 1.058632e+004
4.077079e+002, 1.057471e+004
4.081900e+002, 1.056137e+004
4.086721e+002, 1.054905e+004
4.091542e+002, 1.054199e+004
4.096363e+002, 1.054099e+004
4.101184e+002, 1.054030e+004
4.106006e+002, 1.053937e+004
4.110827e+002, 1.053870e+004
4.115648e+002, 1.053970e+004
4.120469e+002, 1.054147e+004
4.125290e+002, 1.054095e+004
4.130111e+002, 1.053455e+004
4.134933e+002, 1.052470e+004
4.139754e+002, 1.052062e+004
4.144575e+002, 1.052609e+004
4.149396e+002, 1.052743e+004
4.154217e+002, 1.051135e+004
4.159038e+002, 1.049002e+004
4.163860e+002, 1.047783e+004
4.168681e+002, 1.047910e+004
4.173502e+002, 1.048607e+004
4.178323e+002, 1.049370e+004
4.183144e+002, 1.050157e+004
4.187965e+002, 1.050554e+004
4.192787e+002, 1.050406e+004
4.197608e+002, 1.049892e+004
4.202429e+002, 1.049108e+004
4.207250e+002, 1.048080e+004
4.212071e+002, 1.047180e+004
4.216892e+002, 1.046511e+004
4.221714e+002, 1.046042e+004
4.226535e+002, 1.045846e+004
4.231356e+002, 1.045927e+004
4.236177e+002, 1.045875e+004
4.240998e+002, 1.045388e+004
4.245819e+002, 1.044540e+004
4.250641e+002, 1.043726e+004
4.255462e+002, 1.042883e+004
4.260283e+002, 1.042160e+004
4.265104e+002, 1.041697e+004
4.269925e+002, 1.041394e+004
4.274746e+002, 1.041043e+004
4.279568e+002, 1.040570e+004
4.284389e+002, 1.040091e+004
4.289210e+002, 1.039811e+004
4.294031e+002, 1.039936e+004
4.298852e+002, 1.039644e+004
4.303673e+002, 1.038419e+004
4.308495e+002, 1.037189e+004
4.313316e+002, 1.036705e+004
4.318137e+002, 1.036864e+004
4.322958e+002, 1.037010e+004
4.327779e+002, 1.036666e+004
4.332600e+002, 1.035894e+004
4.337422e+002, 1.035232e+004
4.342243e+002, 1.034841e+004
4.347064e+002, 1.034360e+004
4.351885e+002, 1.033440e+004
4.356706e+002, 1.032543e+004
4.361527e+002, 1.032361e+004
4.366349e+002, 1.033028e+004
4.371170e+002, 1.033809e+004
4.375991e+002, 1.033499e+004
4.380812e+002, 1.031555e+004
4.385633e+002, 1.030519e+004
4.390454e+002, 1.031243e+004
4.395276e+002, 1.032096e+004
4.400097e+002, 1.032688e+004
4.404918e+002, 1.032896e+004
4.409739e+002, 1.032562e+004
4.414560e+002, 1.031483e+004
4.419381e+002, 1.029936e+004
4.424203e+002, 1.028733e+004
4.429024e+002, 1.028025e+004
4.433845e+002, 1.027293e+004
4.438666e+002, 1.026165e+004
4.443487e+002, 1.025088e+004
4.448308e+002, 1.024483e+004
4.453130e+002, 1.024427e+004
4.457951e+002, 1.024509e+004
4.462772e+002, 1.024460e+004
4.467593e+002, 1.024276e+004
4.472414e+002, 1.023910e+004
4.477235e+002, 1.023278e+004
4.482057e+002, 1.022627e+004
4.486878e+002, 1.022121e+004
4.491699e+002, 1.021734e+004
4.496520e+002, 1.021438e+004
4.501341e+002, 1.021308e+004
4.506162e+002, 1.021185e+004
4.510984e+002, 1.020916e+004
4.515805e+002, 1.020515e+004
4.520626e+002, 1.020053e+004
4.525447e+002, 1.019516e+004
4.530268e+002, 1.018989e+004
4.535089e+002, 1.018710e+004
4.539911e+002, 1.018769e+004
4.544732e+002, 1.018599e+004
4.549553e+002, 1.017845e+004
4.554374e+002, 1.016926e+004
4.559195e+002, 1.016244e+004
4.564016e+002, 1.015847e+004
4.568838e+002, 1.015696e+004
4.573659e+002, 1.015848e+004
4.578480e+002, 1.016254e+004
4.583301e+002, 1.016014e+004
4.588122e+002, 1.014659e+004
4.592943e+002, 1.013322e+004
4.597765e+002, 1.012187e+004
4.602586e+002, 1.011260e+004
4.607407e+002, 1.010571e+004
4.612228e+002, 1.010122e+004
4.617049e+002, 1.009796e+004
4.621870e+002, 1.009439e+004
4.626692e+002, 1.009118e+004
4.631513e+002, 1.008566e+004
4.636334e+002, 1.007405e+004
4.641155e+002, 1.006413e+004
4.645976e+002, 1.006110e+004
4.650797e+002, 1.006243e+004
4.655619e+002, 1.006199e+004
4.660440e+002, 1.005594e+004
4.665261e+002, 1.004618e+004
4.670082e+002, 1.003714e+004
4.674903e+002, 1.002713e+004
4.679724e+002, 1.002247e+004
4.684546e+002, 1.003230e+004
4.689367e+002, 1.004295e+004
4.694188e+002, 1.004362e+004
4.699009e+002, 1.003354e+004
4.703830e+002, 1.002105e+004
4.708651e+002, 1.001158e+004
4.713473e+002, 1.000467e+004
4.718294e+002, 9.998864e+003
4.723115e+002, 9.994043e+003
4.727936e+002, 9.990239e+003
4.732757e+002, 9.989848e+003
4.737578e+002, 9.989996e+003
4.742400e+002, 9.984600e+003
4.747221e+002, 9.969072e+003
4.752042e+002, 9.953812e+003
4.756863e+002, 9.946079e+003
4.761684e+002, 9.944278e+003
4.766505e+002, 9.944399e+003
4.771327e+002, 9.945722e+003
4.776148e+002, 9.947041e+003
4.780969e+002, 9.947343e+003
4.785790e+002, 9.946893e+003
4.790611e+002, 9.942747e+003
4.795432e+002, 9.931027e+003
4.800254e+002, 9.918979e+003
4.805075e+002, 9.912521e+003
4.809896e+002, 9.909870e+003
4.814717e+002, 9.904701e+003
4.819538e+002, 9.893282e+003
4.824359e+002, 9.878288e+003
4.829181e+002, 9.867287e+003
4.834002e+002, 9.861394e+003
4.838823e+002, 9.858308e+003
4.843644e+002, 9.862431e+003
4.848465e+002, 9.865868e+003
4.853286e+002, 9.861159e+003
4.858108e+002, 9.849234e+003
4.862929e+002, 9.837666e+003
4.867750e+002, 9.833221e+003
4.872571e+002, 9.834938e+003
4.877392e+002, 9.834442e+003
4.882213e+002, 9.830944e+003
4.887035e+002, 9.826228e+003
4.891856e+002, 9.818979e+003
4.896677e+002, 9.811787e+003
4.901498e+002, 9.808271e+003
4.906319e+002, 9.809276e+003
4.911140e+002, 9.809775e+003
4.915962e+002, 9.803392e+003
4.920783e+002, 9.791193e+003
4.925604e+002, 9.782456e+003
4.930425e+002, 9.779223e+003
4.935246e+002, 9.777444e+003
4.940067e+002, 9.775794e+003
4.944889e+002, 9.773374e+003
4.949710e+002, 9.767556e+003
4.954531e+002, 9.755865e+003
4.959352e+002, 9.742849e+003
4.964173e+002, 9.731057e+003
4.968994e+002, 9.720785e+003
4.973816e+002, 9.713521e+003
4.978637e+002, 9.710381e+003
4.983458e+002, 9.708610e+003
4.988279e+002, 9.704469e+003
4.993100e+002, 9.697733e+003
4.997921e+002, 9.689468e+003
5.002743e+002, 9.677942e+003
5.007564e+002, 9.666457e+003
5.012385e+002, 9.657640e+003
5.017206e+002, 9.650806e+003
5.022027e+002, 9.643693e+003
5.026848e+002, 9.634965e+003
5.031670e+002, 9.625348e+003
5.036491e+002, 9.616974e+003
5.041312e+002, 9.608260e+003
5.046133e+002, 9.603660e+003
5.050954e+002, 9.608124e+003
5.055775e+002, 9.612528e+003
5.060597e+002, 9.609399e+003
5.065418e+002, 9.599705e+003
5.070239e+002, 9.590531e+003
5.075060e+002, 9.588192e+003
5.079881e+002, 9.590615e+003
5.084702e+002, 9.587415e+003
5.089524e+002, 9.576037e+003
5.094345e+002, 9.564824e+003
5.099166e+002, 9.555344e+003
5.103987e+002, 9.548002e+003
5.108808e+002, 9.544394e+003
5.113629e+002, 9.544782e+003
5.118451e+002, 9.544653e+003
5.123271e+002, 9.539521e+003
5.128093e+002, 9.531348e+003
5.132914e+002, 9.527052e+003
5.137735e+002, 9.528550e+003
5.142556e+002, 9.526913e+003
5.147377e+002, 9.512833e+003
5.152198e+002, 9.490896e+003
5.157020e+002, 9.477331e+003
5.161841e+002, 9.477091e+003
5.166662e+002, 9.478646e+003
5.171483e+002, 9.477269e+003
5.176304e+002, 9.474252e+003
5.181125e+002, 9.472521e+003
5.185947e+002, 9.472673e+003
5.190768e+002, 9.471011e+003
5.195589e+002, 9.462988e+003
5.200410e+002, 9.447587e+003
5.205231e+002, 9.435184e+003
5.210052e+002, 9.426529e+003
5.214874e+002, 9.419500e+003
5.219695e+002, 9.413290e+003
5.224516e+002, 9.408308e+003
5.229337e+002, 9.406175e+003
5.234158e+002, 9.407299e+003
5.238979e+002, 9.408651e+003
5.243801e+002, 9.405181e+003
5.248622e+002, 9.395756e+003
5.253443e+002, 9.387690e+003
5.258264e+002, 9.381676e+003
5.263085e+002, 9.376630e+003
5.267906e+002, 9.372026e+003
5.272728e+002, 9.368028e+003
5.277549e+002, 9.365479e+003
5.282370e+002, 9.365848e+003
5.287191e+002, 9.365216e+003
5.292012e+002, 9.357318e+003
5.296833e+002, 9.342665e+003
5.301655e+002, 9.328974e+003
5.306476e+002, 9.317514e+003
5.311297e+002, 9.308599e+003
5.316118e+002, 9.303526e+003
5.320939e+002, 9.301754e+003
5.325760e+002, 9.300173e+003
5.330582e+002, 9.301443e+003
5.335403e+002, 9.299915e+003
5.340224e+002, 9.288356e+003
5.345045e+002, 9.270089e+003
5.349866e+002, 9.255028e+003
5.354688e+002, 9.247515e+003
5.359509e+002, 9.245777e+003
5.364330e+002, 9.247082e+003
5.369151e+002, 9.254396e+003
5.373972e+002, 9.257610e+003
5.378793e+002, 9.256576e+003
5.383615e+002, 9.252040e+003
5.388436e+002, 9.242388e+003
5.393257e+002, 9.229666e+003
5.398078e+002, 9.217712e+003
5.402899e+002, 9.208540e+003
5.407720e+002, 9.201955e+003
5.412542e+002, 9.197577e+003
5.417363e+002, 9.195511e+003
5.422184e+002, 9.195196e+003
5.427005e+002, 9.200215e+003
5.431826e+002, 9.203657e+003
5.436647e+002, 9.200350e+003
5.441469e+002, 9.191544e+003
5.446290e+002, 9.182879e+003
5.451111e+002, 9.178176e+003
5.455932e+002, 9.174471e+003
5.460753e+002, 9.165470e+003
5.465574e+002, 9.151533e+003
5.470396e+002, 9.143184e+003
5.475217e+002, 9.147097e+003
5.480038e+002, 9.154854e+003
5.484859e+002, 9.152781e+003
5.489680e+002, 9.140662e+003
5.494501e+002, 9.126906e+003
5.499323e+002, 9.108388e+003
5.504144e+002, 9.092579e+003
5.508965e+002, 9.088104e+003
5.513786e+002, 9.092122e+003
5.518607e+002, 9.094689e+003
5.523428e+002, 9.090604e+003
5.528250e+002, 9.081083e+003
5.533071e+002, 9.068566e+003
5.537892e+002, 9.047502e+003
5.542713e+002, 9.033743e+003
5.547534e+002, 9.032267e+003
5.552355e+002, 9.032592e+003
5.557177e+002, 9.028949e+003
5.561998e+002, 9.021998e+003
5.566819e+002, 9.015144e+003
5.571640e+002, 9.010500e+003
5.576461e+002, 9.007046e+003
5.581282e+002, 9.002691e+003
5.586104e+002, 8.997365e+003
5.590925e+002, 8.991498e+003
5.595746e+002, 8.984446e+003
5.600567e+002, 8.977619e+003
5.605388e+002, 8.972324e+003
5.610209e+002, 8.968409e+003
5.615031e+002, 8.964607e+003
5.619852e+002, 8.959761e+003
5.624673e+002, 8.955326e+003
5.629494e+002, 8.953373e+003
5.634315e+002, 8.953379e+003
5.639136e+002, 8.953022e+003
5.643958e+002, 8.951522e+003
5.648779e+002, 8.948485e+003
5.653600e+002, 8.942693e+003
5.658421e+002, 8.931654e+003
5.663242e+002, 8.925426e+003
5.668063e+002, 8.929193e+003
5.672885e+002, 8.932709e+003
5.677706e+002, 8.930810e+003
5.682527e+002, 8.924069e+003
5.687348e+002, 8.914177e+003
5.692169e+002, 8.901844e+003
5.696990e+002, 8.888611e+003
5.701812e+002, 8.876750e+003
5.706633e+002, 8.865356e+003
5.711454e+002, 8.859396e+003
5.716275e+002, 8.865046e+003
5.721096e+002, 8.870318e+003
5.725917e+002, 8.868567e+003
5.730739e+002, 8.861917e+003
5.735560e+002, 8.855645e+003
5.740381e+002, 8.851943e+003
5.745202e+002, 8.849085e+003
5.750023e+002, 8.845847e+003
5.754844e+002, 8.841985e+003
5.759666e+002, 8.834661e+003
5.764487e+002, 8.821194e+003
5.769308e+002, 8.810721e+003
5.774129e+002, 8.816113e+003
5.778950e+002, 8.837676e+003
5.783771e+002, 8.847229e+003
5.788593e+002, 8.837480e+003
5.793414e+002, 8.822843e+003
5.798235e+002, 8.805395e+003
5.803056e+002, 8.788605e+003
5.807877e+002, 8.777842e+003
5.812698e+002, 8.774571e+003
5.817520e+002, 8.775989e+003
5.822341e+002, 8.779281e+003
5.827162e+002, 8.784993e+003
5.831984e+002, 8.787480e+003
5.836805e+002, 8.787581e+003
5.841626e+002, 8.782994e+003
5.846447e+002, 8.768384e+003
5.851268e+002, 8.751065e+003
5.856089e+002, 8.740746e+003
5.860911e+002, 8.740093e+003
5.865732e+002, 8.741298e+003
5.870553e+002, 8.737476e+003
5.875374e+002, 8.729587e+003
5.880195e+002, 8.720939e+003
5.885016e+002, 8.711492e+003
5.889838e+002, 8.702949e+003
5.894659e+002, 8.696966e+003
5.899480e+002, 8.692572e+003
5.904301e+002, 8.686780e+003
5.909122e+002, 8.679271e+003
5.913943e+002, 8.671116e+003
5.918765e+002, 8.660191e+003
5.923586e+002, 8.650244e+003
5.928407e+002, 8.646848e+003
5.933228e+002, 8.649463e+003
5.938049e+002, 8.652210e+003
5.942870e+002, 8.651148e+003
5.947692e+002, 8.646084e+003
5.952513e+002, 8.635098e+003
5.957334e+002, 8.609958e+003
5.962155e+002, 8.593824e+003
5.966976e+002, 8.593892e+003
5.971797e+002, 8.598605e+003
5.976619e+002, 8.601674e+003
5.981440e+002, 8.602251e+003
5.986261e+002, 8.601101e+003
5.991082e+002, 8.598487e+003
5.995903e+002, 8.594553e+003
6.000724e+002, 8.588984e+003
6.005546e+002, 8.581729e+003
6.010367e+002, 8.575488e+003
6.015188e+002, 8.571423e+003
6.020009e+002, 8.568107e+003
6.024830e+002, 8.563223e+003
6.029651e+002, 8.556744e+003
6.034473e+002, 8.552191e+003
6.039294e+002, 8.553049e+003
6.044115e+002, 8.553053e+003
6.048936e+002, 8.547936e+003
6.053757e+002, 8.539192e+003
6.058578e+002, 8.529592e+003
6.063400e+002, 8.520260e+003
6.068221e+002, 8.511843e+003
6.073042e+002, 8.505576e+003
6.077863e+002, 8.502118e+003
6.082684e+002, 8.497009e+003
6.087505e+002, 8.489223e+003
6.092327e+002, 8.481137e+003
6.097148e+002, 8.472370e+003
6.101969e+002, 8.464293e+003
6.106790e+002, 8.459292e+003
6.111611e+002, 8.458144e+003
6.116432e+002, 8.456619e+003
6.121254e+002, 8.449870e+003
6.126075e+002, 8.439729e+003
6.130896e+002, 8.432650e+003
6.135717e+002, 8.429552e+003
6.140538e+002, 8.425007e+003
6.145359e+002, 8.413743e+003
6.150181e+002, 8.399635e+003
6.155002e+002, 8.395080e+003
6.159823e+002, 8.406224e+003
6.164644e+002, 8.411728e+003
6.169465e+002, 8.404019e+003
6.174286e+002, 8.391313e+003
6.179108e+002, 8.378284e+003
6.183929e+002, 8.366646e+003
6.188750e+002, 8.358888e+003
6.193571e+002, 8.356771e+003
6.198392e+002, 8.358716e+003
6.203214e+002, 8.361486e+003
6.208035e+002, 8.367236e+003
6.212856e+002, 8.367260e+003
6.217677e+002, 8.356716e+003
6.222498e+002, 8.343866e+003
6.227319e+002, 8.332076e+003
6.232141e+002, 8.321467e+003
6.236962e+002, 8.311743e+003
6.241783e+002, 8.302660e+003
6.246604e+002, 8.294710e+003
6.251425e+002, 8.287510e+003
6.256246e+002, 8.281730e+003
6.261068e+002, 8.281552e+003
6.265889e+002, 8.288760e+003
6.270710e+002, 8.293335e+003
6.275531e+002, 8.284166e+003
6.280352e+002, 8.262198e+003
6.285173e+002, 8.249412e+003
6.289995e+002, 8.251829e+003
6.294816e+002, 8.254372e+003
6.299637e+002, 8.254654e+003
6.304458e+002, 8.253155e+003
6.309279e+002, 8.249553e+003
6.314100e+002, 8.244404e+003
6.318922e+002, 8.240046e+003
6.323743e+002, 8.239019e+003
6.328564e+002, 8.239754e+003
6.333385e+002, 8.235692e+003
6.338206e+002, 8.225080e+003
6.343027e+002, 8.216608e+003
6.347849e+002, 8.213027e+003
6.352670e+002, 8.212299e+003
6.357491e+002, 8.214239e+003
6.362312e+002, 8.218162e+003
6.367133e+002, 8.217108e+003
6.371954e+002, 8.204752e+003
6.376776e+002, 8.190374e+003
6.381597e+002, 8.181576e+003
6.386418e+002, 8.176692e+003
6.391239e+002, 8.171460e+003
6.396060e+002, 8.164534e+003
6.400881e+002, 8.156798e+003
6.405703e+002, 8.149572e+003
6.410524e+002, 8.143159e+003
6.415345e+002, 8.134550e+003
6.420166e+002, 8.119478e+003
6.424987e+002, 8.107516e+003
6.429808e+002, 8.102991e+003
6.434630e+002, 8.101159e+003
6.439451e+002, 8.097180e+003
6.444272e+002, 8.090223e+003
6.449093e+002, 8.082517e+003
6.453914e+002, 8.076408e+003
6.458735e+002, 8.070673e+003
6.463557e+002, 8.060923e+003
6.468378e+002, 8.046767e+003
6.473199e+002, 8.037017e+003
6.478020e+002, 8.036919e+003
6.482841e+002, 8.040655e+003
6.487662e+002, 8.038108e+003
6.492484e+002, 8.027447e+003
6.497305e+002, 8.020839e+003
6.502126e+002, 8.022983e+003
6.506947e+002, 8.025599e+003
6.511768e+002, 8.025071e+003
6.516589e+002, 8.021532e+003
6.521411e+002, 8.014714e+003
6.526232e+002, 8.004830e+003
6.531053e+002, 7.995256e+003
6.535874e+002, 7.991259e+003
6.540695e+002, 7.992934e+003
6.545516e+002, 7.990462e+003
6.550338e+002, 7.980382e+003
6.555159e+002, 7.973119e+003
6.559980e+002, 7.979015e+003
6.564801e+002, 7.987191e+003
6.569622e+002, 7.983893e+003
6.574443e+002, 7.966614e+003
6.579265e+002, 7.951660e+003
6.584086e+002, 7.949776e+003
6.588907e+002, 7.951497e+003
6.593728e+002, 7.945542e+003
6.598549e+002, 7.933241e+003
6.603370e+002, 7.923162e+003
6.608192e+002, 7.919443e+003
6.613013e+002, 7.917890e+003
6.617834e+002, 7.910729e+003
6.622655e+002, 7.895183e+003
6.627476e+002, 7.884381e+003
6.632297e+002, 7.881052e+003
6.637119e+002, 7.879561e+003
6.641940e+002, 7.880245e+003
6.646761e+002, 7.880958e+003
6.651582e+002, 7.878624e+003
6.656403e+002, 7.872438e+003
6.661224e+002, 7.865623e+003
6.666046e+002, 7.861543e+003
6.670867e+002, 7.858685e+003
6.675688e+002, 7.852838e+003
6.680509e+002, 7.843806e+003
6.685330e+002, 7.835224e+003
6.690151e+002, 7.828900e+003
6.694973e+002, 7.824111e+003
6.699794e+002, 7.819452e+003
6.704615e+002, 7.814880e+003
6.709436e+002, 7.810650e+003
6.714257e+002, 7.807499e+003
6.719078e+002, 7.803936e+003
6.723900e+002, 7.799137e+003
6.728721e+002, 7.793356e+003
6.733542e+002, 7.786352e+003
6.738363e+002, 7.778161e+003
6.743184e+002, 7.771341e+003
6.748005e+002, 7.770334e+003
6.752827e+002, 7.774260e+003
6.757648e+002, 7.774357e+003
6.762469e+002, 7.769773e+003
6.767290e+002, 7.763475e+003
6.772111e+002, 7.755698e+003
6.776932e+002, 7.747733e+003
6.781754e+002, 7.741747e+003
6.786575e+002, 7.737952e+003
6.791396e+002, 7.734975e+003
6.796217e+002, 7.732879e+003
6.801038e+002, 7.731194e+003
6.805859e+002, 7.731252e+003
6.810681e+002, 7.731276e+003
6.815502e+002, 7.726764e+003
6.820323e+002, 7.716118e+003
6.825144e+002, 7.703214e+003
6.829965e+002, 7.692643e+003
6.834786e+002, 7.684161e+003
6.839608e+002, 7.683075e+003
6.844429e+002, 7.694236e+003
6.849250e+002, 7.704006e+003
6.854071e+002, 7.707647e+003
6.858892e+002, 7.706565e+003
6.863713e+002, 7.700078e+003
6.868535e+002, 7.687731e+003
6.873356e+002, 7.678729e+003
6.878177e+002, 7.682398e+003
6.882998e+002, 7.687300e+003
6.887819e+002, 7.678781e+003
6.892640e+002, 7.660898e+003
6.897462e+002, 7.649331e+003
6.902283e+002, 7.650231e+003
6.907104e+002, 7.654934e+003
6.911925e+002, 7.650416e+003
6.916746e+002, 7.635001e+003
6.921567e+002, 7.625849e+003
6.926389e+002, 7.630733e+003
6.931210e+002, 7.631210e+003
6.936031e+002, 7.618032e+003
6.940852e+002, 7.601239e+003
6.945673e+002, 7.591924e+003
6.950494e+002, 7.591049e+003
6.955316e+002, 7.589568e+003
6.960137e+002, 7.581323e+003
6.964958e+002, 7.570065e+003
6.969779e+002, 7.560472e+003
6.974600e+002, 7.552343e+003
6.979421e+002, 7.543901e+003
6.984243e+002, 7.534421e+003
6.989064e+002, 7.525718e+003
6.993885e+002, 7.520250e+003
6.998706e+002, 7.518310e+003
7.003527e+002, 7.515936e+003
7.008348e+002, 7.515088e+003
7.013170e+002, 7.511322e+003
7.017991e+002, 7.499660e+003
7.022812e+002, 7.487565e+003
7.027633e+002, 7.483272e+003
7.032454e+002, 7.486514e+003
7.037275e+002, 7.488897e+003
7.042097e+002, 7.482920e+003
7.046918e+002, 7.474892e+003
7.051739e+002, 7.477171e+003
7.056560e+002, 7.487505e+003
7.061381e+002, 7.490487e+003
7.066202e+002, 7.481031e+003
7.071024e+002, 7.467746e+003
7.075845e+002, 7.459071e+003
7.080666e+002, 7.454847e+003
7.085487e+002, 7.450874e+003
7.090308e+002, 7.446830e+003
7.095129e+002, 7.443345e+003
7.099951e+002, 7.439708e+003
7.104772e+002, 7.437201e+003
7.109593e+002, 7.438438e+003
7.114414e+002, 7.442125e+003
7.119235e+002, 7.443408e+003
7.124056e+002, 7.439386e+003
7.128878e+002, 7.431680e+003
7.133699e+002, 7.419654e+003
7.138520e+002, 7.404877e+003
7.143341e+002, 7.400382e+003
7.148162e+002, 7.410201e+003
7.152983e+002, 7.422422e+003
7.157805e+002, 7.427575e+003
7.162626e+002, 7.426988e+003
7.167447e+002, 7.428209e+003
7.172268e+002, 7.434049e+003
7.177089e+002, 7.437667e+003
7.181910e+002, 7.437864e+003
7.186732e+002, 7.436300e+003
7.191553e+002, 7.431451e+003
7.196374e+002, 7.426075e+003
7.201195e+002, 7.426402e+003
7.206016e+002, 7.435793e+003
7.210837e+002, 7.449513e+003
7.215659e+002, 7.462573e+003
7.220480e+002, 7.474697e+003
7.225301e+002, 7.483935e+003
7.230122e+002, 7.489843e+003
7.234943e+002, 7.494142e+003
7.239764e+002, 7.496338e+003
7.244586e+002, 7.498729e+003
7.249407e+002, 7.507038e+003
7.254228e+002, 7.520322e+003
7.259049e+002, 7.541704e+003
7.263870e+002, 7.572246e+003
7.268691e+002, 7.609962e+003
7.273513e+002, 7.657967e+003
7.278334e+002, 7.711012e+003
7.283155e+002, 7.763552e+003
7.287976e+002, 7.813132e+003
7.292797e+002, 7.852245e+003
7.297618e+002, 7.876162e+003
7.302440e+002, 7.882989e+003
7.307261e+002, 7.863300e+003
7.312082e+002, 7.815969e+003
7.316903e+002, 7.753876e+003
7.321724e+002, 7.677868e+003
7.326545e+002, 7.597831e+003
7.331367e+002, 7.527146e+003
7.336188e+002, 7.466877e+003
7.341009e+002, 7.412822e+003
7.345830e+002, 7.361447e+003
7.350651e+002, 7.320100e+003
7.355472e+002, 7.295903e+003
7.360294e+002, 7.280377e+003
7.365115e+002, 7.264775e+003
7.369936e+002, 7.247428e+003
7.374757e+002, 7.230839e+003
7.379578e+002, 7.216991e+003
7.384399e+002, 7.205008e+003
7.389221e+002, 7.192123e+003
7.394042e+002, 7.178656e+003
7.398863e+002, 7.170000e+003
7.403684e+002, 7.168442e+003
7.408505e+002, 7.168329e+003
7.413326e+002, 7.164781e+003
7.418148e+002, 7.157962e+003
7.422969e+002, 7.149766e+003
7.427790e+002, 7.139075e+003
7.432611e+002, 7.128668e+003
7.437432e+002, 7.116813e+003
7.442253e+002, 7.107133e+003
7.447075e+002, 7.103908e+003
7.451896e+002, 7.105134e+003
7.456717e+002, 7.105362e+003
7.461538e+002, 7.102222e+003
7.466359e+002, 7.096317e+003
7.471180e+002, 7.086327e+003
7.476002e+002, 7.074072e+003
7.480823e+002, 7.066915e+003
7.485644e+002, 7.065893e+003
7.490465e+002, 7.064690e+003
7.495286e+002, 7.059767e+003
7.500107e+002, 7.051896e+003
7.504929e+002, 7.042376e+003
7.509750e+002, 7.027770e+003
7.514571e+002, 7.020208e+003
7.519392e+002, 7.025381e+003
7.524213e+002, 7.030650e+003
7.529034e+002, 7.031487e+003
7.533856e+002, 7.029162e+003
7.538677e+002, 7.025107e+003
7.543498e+002, 7.019828e+003
7.548319e+002, 7.015233e+003
7.553140e+002, 7.014991e+003
7.557961e+002, 7.015161e+003
7.562783e+002, 7.006756e+003
7.567604e+002, 6.991748e+003
7.572425e+002, 6.982164e+003
7.577246e+002, 6.982288e+003
7.582067e+002, 6.986675e+003
7.586888e+002, 6.989741e+003
7.591710e+002, 6.991446e+003
7.596531e+002, 6.988786e+003
7.601352e+002, 6.977357e+003
7.606173e+002, 6.968196e+003
7.610994e+002, 6.963308e+003
7.615815e+002, 6.960686e+003
7.620637e+002, 6.960438e+003
7.625458e+002, 6.961285e+003
7.630279e+002, 6.959378e+003
7.635100e+002, 6.952093e+003
7.639921e+002, 6.943709e+003
7.644742e+002, 6.937069e+003
7.649564e+002, 6.932025e+003
7.654385e+002, 6.929271e+003
7.659206e+002, 6.928370e+003
7.664027e+002, 6.925863e+003
7.668848e+002, 6.919307e+003
7.673669e+002, 6.911025e+003
7.678491e+002, 6.906756e+003
7.683312e+002, 6.907750e+003
7.688133e+002, 6.908272e+003
7.692954e+002, 6.908992e+003
7.697775e+002, 6.908124e+003
7.702596e+002, 6.905489e+003
7.707418e+002, 6.900589e+003
7.712239e+002, 6.891201e+003
7.717060e+002, 6.876281e+003
7.721881e+002, 6.865489e+003
7.726702e+002, 6.865034e+003
7.731523e+002, 6.867780e+003
7.736345e+002, 6.869508e+003
7.741166e+002, 6.869625e+003
7.745987e+002, 6.867436e+003
7.750808e+002, 6.862852e+003
7.755629e+002, 6.856742e+003
7.760450e+002, 6.849737e+003
7.765272e+002, 6.842083e+003
7.770093e+002, 6.834267e+003
7.774914e+002, 6.825583e+003
7.779735e+002, 6.821103e+003
7.784556e+002, 6.824216e+003
7.789377e+002, 6.828429e+003
7.794199e+002, 6.827552e+003
7.799020e+002, 6.822713e+003
7.803841e+002, 6.819636e+003
7.808662e+002, 6.821257e+003
7.813483e+002, 6.820532e+003
7.818304e+002, 6.812989e+003
7.823126e+002, 6.804698e+003
7.827947e+002, 6.799391e+003
7.832768e+002, 6.797765e+003
7.837589e+002, 6.801820e+003
7.842410e+002, 6.812838e+003
7.847231e+002, 6.822014e+003
7.852053e+002, 6.815326e+003
7.856874e+002, 6.797506e+003
7.861695e+002, 6.787632e+003
7.866516e+002, 6.786948e+003
7.871337e+002, 6.788878e+003
7.876158e+002, 6.791399e+003
7.880980e+002, 6.793152e+003
7.885801e+002, 6.791734e+003
7.890622e+002, 6.786471e+003
7.895443e+002, 6.782717e+003
7.900264e+002, 6.780202e+003
7.905085e+002, 6.779573e+003
7.909907e+002, 6.784258e+003
7.914728e+002, 6.788562e+003
7.919549e+002, 6.784963e+003
7.924370e+002, 6.775201e+003
7.929191e+002, 6.769884e+003
7.934012e+002, 6.776644e+003
7.938834e+002, 6.786098e+003
7.943655e+002, 6.789646e+003
7.948476e+002, 6.788822e+003
7.953297e+002, 6.785233e+003
7.958118e+002, 6.779844e+003
7.962939e+002, 6.778115e+003
7.967761e+002, 6.784017e+003
7.972582e+002, 6.793978e+003
7.977403e+002, 6.798816e+003
7.982224e+002, 6.796416e+003
7.987045e+002, 6.798162e+003
7.991866e+002, 6.806764e+003
7.996688e+002, 6.815687e+003
8.001509e+002, 6.820083e+003
8.006330e+002, 6.824250e+003
8.011151e+002, 6.833018e+003
8.015972e+002, 6.846678e+003
8.020793e+002, 6.865265e+003
8.025615e+002, 6.893733e+003
8.030436e+002, 6.922029e+003
8.035257e+002, 6.942193e+003
8.040078e+002, 6.958911e+003
8.044899e+002, 6.977384e+003
8.049720e+002, 6.999656e+003
8.054542e+002, 7.028747e+003
8.059363e+002, 7.068291e+003
8.064184e+002, 7.113567e+003
8.069005e+002, 7.151347e+003
8.073826e+002, 7.182386e+003
8.078647e+002, 7.225968e+003
8.083469e+002, 7.286654e+003
8.088290e+002, 7.353059e+003
8.093111e+002, 7.415705e+003
8.097932e+002, 7.479329e+003
8.102753e+002, 7.557514e+003
8.107574e+002, 7.652430e+003
8.112396e+002, 7.759833e+003
8.117217e+002, 7.883546e+003
8.122038e+002, 8.015427e+003
8.126859e+002, 8.154546e+003
8.131680e+002, 8.299330e+003
8.136501e+002, 8.452112e+003
8.141323e+002, 8.612544e+003
8.146144e+002, 8.760757e+003
8.150965e+002, 8.886803e+003
8.155786e+002, 8.992799e+003
8.160607e+002, 9.086645e+003
8.165428e+002, 9.161079e+003
8.170250e+002, 9.195363e+003
8.175071e+002, 9.185526e+003
8.179892e+002, 9.145438e+003
8.184713e+002, 9.085480e+003
8.189534e+002, 9.006021e+003
8.194355e+002, 8.907501e+003
8.199177e+002, 8.786934e+003
8.203998e+002, 8.659321e+003
8.208819e+002, 8.522517e+003
8.213640e+002, 8.384932e+003
8.218461e+002, 8.249738e+003
8.223282e+002, 8.118062e+003
8.228104e+002, 7.990211e+003
8.232925e+002, 7.864631e+003
8.237746e+002, 7.748635e+003
8.242567e+002, 7.646626e+003
8.247388e+002, 7.550813e+003
8.252209e+002, 7.456204e+003
8.257031e+002, 7.365030e+003
8.261852e+002, 7.279590e+003
8.266673e+002, 7.201555e+003
8.271494e+002, 7.135750e+003
8.276315e+002, 7.090966e+003
8.281136e+002, 7.055579e+003
8.285958e+002, 7.006807e+003
8.290779e+002, 6.948429e+003
8.295600e+002, 6.898728e+003
8.300421e+002, 6.861301e+003
8.305242e+002, 6.830280e+003
8.310063e+002, 6.802184e+003
8.314885e+002, 6.775859e+003
8.319706e+002, 6.747668e+003
8.324527e+002, 6.715012e+003
8.329348e+002, 6.686977e+003
8.334169e+002, 6.662964e+003
8.338990e+002, 6.644598e+003
8.343812e+002, 6.636188e+003
8.348633e+002, 6.631333e+003
8.353454e+002, 6.621842e+003
8.358275e+002, 6.606896e+003
8.363096e+002, 6.591674e+003
8.367917e+002, 6.578003e+003
8.372739e+002, 6.564530e+003
8.377560e+002, 6.550338e+003
8.382381e+002, 6.535792e+003
8.387202e+002, 6.520964e+003
8.392023e+002, 6.506196e+003
8.396844e+002, 6.492458e+003
8.401666e+002, 6.480374e+003
8.406487e+002, 6.470056e+003
8.411308e+002, 6.462137e+003
8.416129e+002, 6.456405e+003
8.420950e+002, 6.452137e+003
8.425771e+002, 6.449495e+003
8.430593e+002, 6.444763e+003
8.435414e+002, 6.435255e+003
8.440235e+002, 6.423945e+003
8.445056e+002, 6.416622e+003
8.449877e+002, 6.414830e+003
8.454698e+002, 6.409438e+003
8.459520e+002, 6.397661e+003
8.464341e+002, 6.385937e+003
8.469162e+002, 6.374722e+003
8.473983e+002, 6.364968e+003
8.478804e+002, 6.357670e+003
8.483625e+002, 6.352662e+003
8.488447e+002, 6.348670e+003
8.493268e+002, 6.345211e+003
8.498089e+002, 6.342807e+003
8.502910e+002, 6.343186e+003
8.507731e+002, 6.343775e+003
8.512552e+002, 6.341747e+003
8.517374e+002, 6.337028e+003
8.522195e+002, 6.329739e+003
8.527016e+002, 6.319918e+003
8.531837e+002, 6.311104e+003
8.536658e+002, 6.309467e+003
8.541479e+002, 6.313017e+003
8.546301e+002, 6.312170e+003
8.551122e+002, 6.306760e+003
8.555943e+002, 6.299807e+003
8.560764e+002, 6.292362e+003
8.565585e+002, 6.283484e+003
8.570406e+002, 6.271403e+003
8.575228e+002, 6.256751e+003
8.580049e+002, 6.246491e+003
8.584870e+002, 6.242985e+003
8.589691e+002, 6.240116e+003
8.594512e+002, 6.238206e+003
8.599333e+002, 6.236048e+003
8.604155e+002, 6.232970e+003
8.608976e+002, 6.229248e+003
8.613797e+002, 6.225679e+003
8.618618e+002, 6.222757e+003
8.623439e+002, 6.217982e+003
8.628260e+002, 6.206278e+003
8.633082e+002, 6.196175e+003
8.637903e+002, 6.196289e+003
8.642724e+002, 6.202118e+003
8.647545e+002, 6.206994e+003
8.652366e+002, 6.208625e+003
8.657188e+002, 6.205291e+003
8.662009e+002, 6.194229e+003
8.666830e+002, 6.179894e+003
8.671651e+002, 6.171072e+003
8.676472e+002, 6.166918e+003
8.681293e+002, 6.162294e+003
8.686115e+002, 6.156364e+003
8.690936e+002, 6.151449e+003
8.695757e+002, 6.148886e+003
8.700578e+002, 6.148324e+003
8.705399e+002, 6.149540e+003
8.710220e+002, 6.153617e+003
8.715042e+002, 6.153850e+003
8.719863e+002, 6.148407e+003
8.724684e+002, 6.142123e+003
8.729505e+002, 6.137330e+003
8.734326e+002, 6.131710e+003
8.739147e+002, 6.120896e+003
8.743969e+002, 6.106498e+003
8.748790e+002, 6.098911e+003
8.753611e+002, 6.106615e+003
8.758432e+002, 6.112290e+003
8.763253e+002, 6.108617e+003
8.768074e+002, 6.101548e+003
8.772896e+002, 6.096116e+003
8.777717e+002, 6.091701e+003
8.782538e+002, 6.084408e+003
8.787359e+002, 6.072883e+003
8.792180e+002, 6.063978e+003
8.797001e+002, 6.065853e+003
8.801823e+002, 6.073626e+003
8.806644e+002, 6.079859e+003
8.811465e+002, 6.083921e+003
8.816286e+002, 6.083463e+003
8.821107e+002, 6.077937e+003
8.825928e+002, 6.070107e+003
8.830750e+002, 6.062030e+003
8.835571e+002, 6.054327e+003
8.840392e+002, 6.049538e+003
8.845213e+002, 6.048189e+003
8.850034e+002, 6.046880e+003
8.854855e+002, 6.045906e+003
8.859677e+002, 6.043580e+003
8.864498e+002, 6.037994e+003
8.869319e+002, 6.031395e+003
8.874140e+002, 6.028281e+003
8.878961e+002, 6.029745e+003
8.883782e+002, 6.027732e+003
8.888604e+002, 6.017960e+003
8.893425e+002, 6.010095e+003
8.898246e+002, 6.008619e+003
8.903067e+002, 6.008739e+003
8.907888e+002, 6.006328e+003
8.912709e+002, 6.001699e+003
8.917531e+002, 5.997205e+003
8.922352e+002, 5.993711e+003
8.927173e+002, 5.990380e+003
8.931994e+002, 5.987108e+003
8.936815e+002, 5.983354e+003
8.941636e+002, 5.977902e+003
8.946458e+002, 5.971451e+003
8.951279e+002, 5.965565e+003
8.956100e+002, 5.960859e+003
8.960921e+002, 5.958328e+003
8.965742e+002, 5.960245e+003
8.970563e+002, 5.963615e+003
8.975385e+002, 5.958206e+003
8.980206e+002, 5.945077e+003
8.985027e+002, 5.939608e+003
8.989848e+002, 5.945112e+003
8.994669e+002, 5.951378e+003
8.999490e+002, 5.952216e+003
9.004312e+002, 5.948544e+003
9.009133e+002, 5.941908e+003
9.013954e+002, 5.930835e+003
9.018775e+002, 5.923757e+003
9.023596e+002, 5.922946e+003
9.028417e+002, 5.922260e+003
9.033239e+002, 5.920324e+003
9.038060e+002, 5.917292e+003
9.042881e+002, 5.912564e+003
9.047702e+002, 5.906622e+003
9.052523e+002, 5.902500e+003
9.057344e+002, 5.902806e+003
9.062166e+002, 5.901662e+003
9.066987e+002, 5.896028e+003
9.071808e+002, 5.890039e+003
9.076629e+002, 5.886342e+003
9.081450e+002, 5.884610e+003
9.086271e+002, 5.884794e+003
9.091093e+002, 5.886646e+003
9.095914e+002, 5.885888e+003
9.100735e+002, 5.876713e+003
9.105556e+002, 5.865861e+003
9.110377e+002, 5.861122e+003
9.115198e+002, 5.860280e+003
9.120020e+002, 5.859488e+003
9.124841e+002, 5.857681e+003
9.129662e+002, 5.853922e+003
9.134483e+002, 5.847455e+003
9.139304e+002, 5.839901e+003
9.144125e+002, 5.833803e+003
9.148947e+002, 5.829072e+003
9.153768e+002, 5.824251e+003
9.158589e+002, 5.819171e+003
9.163410e+002, 5.817928e+003
9.168231e+002, 5.822890e+003
9.173052e+002, 5.828882e+003
9.177874e+002, 5.830339e+003
9.182695e+002, 5.827516e+003
9.187516e+002, 5.822339e+003
9.192337e+002, 5.812978e+003
9.197158e+002, 5.805856e+003
9.201979e+002, 5.804823e+003
9.206801e+002, 5.801878e+003
9.211622e+002, 5.786702e+003
9.216443e+002, 5.769240e+003
9.221264e+002, 5.768258e+003
9.226085e+002, 5.787695e+003
9.230906e+002, 5.798303e+003
9.235728e+002, 5.787095e+003
9.240549e+002, 5.777497e+003
9.245370e+002, 5.781995e+003
9.250191e+002, 5.789071e+003
9.255012e+002, 5.785910e+003
9.259833e+002, 5.775086e+003
9.264655e+002, 5.768639e+003
9.269476e+002, 5.772083e+003
9.274297e+002, 5.776090e+003
9.279118e+002, 5.773709e+003
9.283939e+002, 5.768872e+003
9.288760e+002, 5.765921e+003
9.293582e+002, 5.764165e+003
9.298403e+002, 5.761308e+003
9.303224e+002, 5.756872e+003
9.308045e+002, 5.752265e+003
9.312866e+002, 5.748667e+003
9.317687e+002, 5.745560e+003
9.322509e+002, 5.741585e+003
9.327330e+002, 5.737243e+003
9.332151e+002, 5.735022e+003
9.336972e+002, 5.735141e+003
9.341793e+002, 5.735717e+003
9.346614e+002, 5.736079e+003
9.351436e+002, 5.734804e+003
9.356257e+002, 5.729352e+003
9.361078e+002, 5.720026e+003
9.365899e+002, 5.712650e+003
9.370720e+002, 5.707686e+003
9.375541e+002, 5.703093e+003
9.380363e+002, 5.699052e+003
9.385184e+002, 5.693886e+003
9.390005e+002, 5.685197e+003
9.394826e+002, 5.674950e+003
9.399647e+002, 5.668628e+003
9.404468e+002, 5.666836e+003
9.409290e+002, 5.667292e+003
9.414111e+002, 5.673930e+003
9.418932e+002, 5.677686e+003
9.423753e+002, 5.674372e+003
9.428574e+002, 5.668286e+003
9.433395e+002, 5.662337e+003
9.438217e+002, 5.657137e+003
9.443038e+002, 5.654372e+003
9.447859e+002, 5.656256e+003
9.452680e+002, 5.657076e+003
9.457501e+002, 5.654818e+003
9.462322e+002, 5.650775e+003
9.467144e+002, 5.643313e+003
9.471965e+002, 5.635894e+003
9.476786e+002, 5.635479e+003
9.481607e+002, 5.642517e+003
9.486428e+002, 5.647368e+003
9.491249e+002, 5.642052e+003
9.496071e+002, 5.634257e+003
9.500892e+002, 5.632884e+003
9.505713e+002, 5.633899e+003
9.510534e+002, 5.629650e+003
9.515355e+002, 5.620767e+003
9.520176e+002, 5.613211e+003
9.524998e+002, 5.609654e+003
9.529819e+002, 5.608116e+003
9.534640e+002, 5.606718e+003
9.539461e+002, 5.605318e+003
9.544282e+002, 5.602852e+003
9.549103e+002, 5.599681e+003
9.553925e+002, 5.599513e+003
9.558746e+002, 5.603130e+003
9.563567e+002, 5.605454e+003
9.568388e+002, 5.602763e+003
9.573209e+002, 5.597180e+003
9.578030e+002, 5.593682e+003
9.582852e+002, 5.592703e+003
9.587673e+002, 5.588158e+003
9.592494e+002, 5.578854e+003
9.597315e+002, 5.570751e+003
9.602136e+002, 5.565725e+003
9.606957e+002, 5.562377e+003
9.611779e+002, 5.559539e+003
9.616600e+002, 5.557248e+003
9.621421e+002, 5.555731e+003
9.626242e+002, 5.555894e+003
9.631063e+002, 5.555110e+003
9.635884e+002, 5.553032e+003
9.640706e+002, 5.550454e+003
9.645527e+002, 5.547438e+003
9.650348e+002, 5.544239e+003
9.655169e+002, 5.540986e+003
9.659990e+002, 5.537717e+003
9.664811e+002, 5.534937e+003
9.669633e+002, 5.532612e+003
9.674454e+002, 5.530900e+003
9.679275e+002, 5.530256e+003
9.684096e+002, 5.529775e+003
9.688917e+002, 5.529102e+003
9.693738e+002, 5.528043e+003
9.698560e+002, 5.526292e+003
9.703381e+002, 5.523804e+003
9.708202e+002, 5.521133e+003
9.713023e+002, 5.519028e+003
9.717844e+002, 5.516289e+003
9.722665e+002, 5.511511e+003
9.727487e+002, 5.506109e+003
9.732308e+002, 5.501313e+003
9.737129e+002, 5.497538e+003
9.741950e+002, 5.495644e+003
9.746771e+002, 5.495955e+003
9.751592e+002, 5.495906e+003
9.756414e+002, 5.492847e+003
9.761235e+002, 5.488322e+003
9.766056e+002, 5.483589e+003
9.770877e+002, 5.479372e+003
9.775698e+002, 5.477788e+003
9.780519e+002, 5.478765e+003
9.785341e+002, 5.480091e+003
9.790162e+002, 5.480546e+003
9.794983e+002, 5.479672e+003
9.799804e+002, 5.476016e+003
9.804625e+002, 5.470500e+003
9.809446e+002, 5.466455e+003
9.814268e+002, 5.463961e+003
9.819089e+002, 5.463420e+003
9.823910e+002, 5.464963e+003
9.828731e+002, 5.465900e+003
9.833552e+002, 5.463953e+003
9.838373e+002, 5.460270e+003
9.843195e+002, 5.458345e+003
9.848016e+002, 5.458447e+003
9.852837e+002, 5.453047e+003
9.857658e+002, 5.440008e+003
9.862479e+002, 5.433563e+003
9.867300e+002, 5.441314e+003
9.872122e+002, 5.449235e+003
9.876943e+002, 5.441801e+003
9.881764e+002, 5.422748e+003
9.886585e+002, 5.412744e+003
9.891406e+002, 5.414465e+003
9.896227e+002, 5.417711e+003
9.901049e+002, 5.424242e+003
9.905870e+002, 5.428356e+003
9.910691e+002, 5.427484e+003
9.915512e+002, 5.423258e+003
9.920333e+002, 5.416156e+003
9.925154e+002, 5.406433e+003
9.929976e+002, 5.401248e+003
9.934797e+002, 5.405569e+003
9.939618e+002, 5.406858e+003
9.944439e+002, 5.401930e+003
9.949260e+002, 5.396718e+003
9.954081e+002, 5.392801e+003
9.958903e+002, 5.390958e+003
9.963724e+002, 5.393831e+003
9.968545e+002, 5.401313e+003
9.973366e+002, 5.403886e+003
9.978187e+002, 5.394307e+003
9.983008e+002, 5.387064e+003
9.987830e+002, 5.388721e+003
9.992651e+002, 5.391668e+003
9.997472e+002, 5.390581e+003
1.000229e+003, 5.386745e+003
1.000711e+003, 5.383093e+003
1.001194e+003, 5.380193e+003
1.001676e+003, 5.376627e+003
1.002158e+003, 5.370866e+003
1.002640e+003, 5.365381e+003
1.003122e+003, 5.361328e+003
1.003604e+003, 5.358516e+003
1.004086e+003, 5.357564e+003
1.004568e+003, 5.357498e+003
1.005050e+003, 5.356532e+003
1.005533e+003, 5.354087e+003
1.006015e+003, 5.349723e+003
1.006497e+003, 5.339709e+003
1.006979e+003, 5.330997e+003
1.007461e+003, 5.332633e+003
1.007943e+003, 5.338851e+003
1.008425e+003, 5.341076e+003
1.008907e+003, 5.338874e+003
1.009390e+003, 5.335214e+003
1.009872e+003, 5.331354e+003
1.010354e+003, 5.327411e+003
1.010836e+003, 5.322674e+003
1.011318e+003, 5.318419e+003
1.011800e+003, 5.316590e+003
1.012282e+003, 5.316968e+003
1.012764e+003, 5.320338e+003
1.013246e+003, 5.325781e+003
1.013729e+003, 5.328686e+003
1.014211e+003, 5.326609e+003
1.014693e+003, 5.321504e+003
1.015175e+003, 5.314090e+003
1.015657e+003, 5.306175e+003
1.016139e+003, 5.304417e+003
1.016621e+003, 5.307387e+003
1.017103e+003, 5.308098e+003
1.017586e+003, 5.305130e+003
1.018068e+003, 5.298832e+003
1.018550e+003, 5.289197e+003
1.019032e+003, 5.278865e+003
1.019514e+003, 5.271923e+003
1.019996e+003, 5.268299e+003
1.020478e+003, 5.268251e+003
1.020960e+003, 5.271690e+003
1.021442e+003, 5.275692e+003
1.021925e+003, 5.279823e+003
1.022407e+003, 5.279846e+003
1.022889e+003, 5.272057e+003
1.023371e+003, 5.261143e+003
1.023853e+003, 5.256786e+003
1.024335e+003, 5.259041e+003
1.024817e+003, 5.260302e+003
1.025299e+003, 5.260271e+003
1.025781e+003, 5.261912e+003
1.026264e+003, 5.266944e+003
1.026746e+003, 5.269119e+003
1.027228e+003, 5.263044e+003
1.027710e+003, 5.252238e+003
1.028192e+003, 5.244997e+003
1.028674e+003, 5.241702e+003
1.029156e+003, 5.239267e+003
1.029638e+003, 5.237928e+003
1.030120e+003, 5.236501e+003
1.030603e+003, 5.234085e+003
1.031085e+003, 5.232961e+003
1.031567e+003, 5.235405e+003
1.032049e+003, 5.240079e+003
1.032531e+003, 5.243768e+003
1.033013e+003, 5.247208e+003
1.033495e+003, 5.246360e+003
1.033977e+003, 5.240336e+003
1.034460e+003, 5.231629e+003
1.034942e+003, 5.217553e+003
1.035424e+003, 5.205821e+003
1.035906e+003, 5.204025e+003
1.036388e+003, 5.208688e+003
1.036870e+003, 5.209673e+003
1.037352e+003, 5.205333e+003
1.037834e+003, 5.203215e+003
1.038317e+003, 5.207383e+003
1.038799e+003, 5.207449e+003
1.039281e+003, 5.196012e+003
1.039763e+003, 5.184732e+003
1.040245e+003, 5.183841e+003
1.040727e+003, 5.189769e+003
1.041209e+003, 5.192411e+003
1.041691e+003, 5.191048e+003
1.042173e+003, 5.188631e+003
1.042656e+003, 5.185895e+003
1.043138e+003, 5.181124e+003
1.043620e+003, 5.169521e+003
1.044102e+003, 5.159716e+003
1.044584e+003, 5.158794e+003
1.045066e+003, 5.164589e+003
1.045548e+003, 5.172295e+003
1.046030e+003, 5.183447e+003
1.046512e+003, 5.188989e+003
1.046995e+003, 5.183947e+003
1.047477e+003, 5.178477e+003
1.047959e+003, 5.176168e+003
1.048441e+003, 5.173994e+003
1.048923e+003, 5.167937e+003
1.049405e+003, 5.160454e+003
1.049887e+003, 5.157934e+003
1.050369e+003, 5.162120e+003
1.050852e+003, 5.166069e+003
1.051334e+003, 5.170252e+003
1.051816e+003, 5.171693e+003
1.052298e+003, 5.165483e+003
1.052780e+003, 5.159666e+003
1.053262e+003, 5.162431e+003
1.053744e+003, 5.170252e+003
1.054226e+003, 5.173966e+003
1.054708e+003, 5.171393e+003
1.055191e+003, 5.170890e+003
1.055673e+003, 5.175649e+003
1.056155e+003, 5.181603e+003
1.056637e+003, 5.188659e+003
1.057119e+003, 5.194910e+003
1.057601e+003, 5.197146e+003
1.058083e+003, 5.197890e+003
1.058565e+003, 5.202294e+003
1.059047e+003, 5.211341e+003
1.059530e+003, 5.222808e+003
1.060012e+003, 5.236243e+003
1.060494e+003, 5.251500e+003
1.060976e+003, 5.269705e+003
1.061458e+003, 5.288500e+003
1.061940e+003, 5.308420e+003
1.062422e+003, 5.326738e+003
1.062904e+003, 5.339724e+003
1.063387e+003, 5.346616e+003
1.063869e+003, 5.345778e+003
1.064351e+003, 5.334431e+003
1.064833e+003, 5.318043e+003
1.065315e+003, 5.297615e+003
1.065797e+003, 5.274489e+003
1.066279e+003, 5.248141e+003
1.066761e+003, 5.220667e+003
1.067244e+003, 5.195313e+003
1.067726e+003, 5.172731e+003
1.068208e+003, 5.152539e+003
1.068690e+003, 5.134132e+003
1.069172e+003, 5.118649e+003
1.069654e+003, 5.106234e+003
1.070136e+003, 5.097358e+003
1.070618e+003, 5.094776e+003
1.071100e+003, 5.094916e+003
1.071583e+003, 5.092153e+003
1.072065e+003, 5.085817e+003
1.072547e+003, 5.079383e+003
1.073029e+003, 5.074097e+003
1.073511e+003, 5.069191e+003
1.073993e+003, 5.063313e+003
1.074475e+003, 5.058680e+003
1.074957e+003, 5.057651e+003
1.075439e+003, 5.058641e+003
1.075922e+003, 5.060261e+003
1.076404e+003, 5.061641e+003
1.076886e+003, 5.059890e+003
1.077368e+003, 5.051774e+003
1.077850e+003, 5.045330e+003
1.078332e+003, 5.046836e+003
1.078814e+003, 5.048653e+003
1.079297e+003, 5.045062e+003
1.079779e+003, 5.038484e+003
1.080261e+003, 5.031273e+003
1.080743e+003, 5.024518e+003
1.081225e+003, 5.020838e+003
1.081707e+003, 5.022168e+003
1.082189e+003, 5.023003e+003
1.082671e+003, 5.020570e+003
1.083153e+003, 5.017137e+003
1.083635e+003, 5.013393e+003
1.084118e+003, 5.010043e+003
1.084600e+003, 5.007881e+003
1.085082e+003, 5.006774e+003
1.085564e+003, 5.006528e+003
1.086046e+003, 5.007687e+003
1.086528e+003, 5.006407e+003
1.087010e+003, 4.998900e+003
1.087492e+003, 4.991145e+003
1.087975e+003, 4.986169e+003
1.088457e+003, 4.982830e+003
1.088939e+003, 4.979320e+003
1.089421e+003, 4.976433e+003
1.089903e+003, 4.977279e+003
1.090385e+003, 4.983050e+003
1.090867e+003, 4.985882e+003
1.091349e+003, 4.980128e+003
1.091832e+003, 4.974177e+003
1.092314e+003, 4.971627e+003
1.092796e+003, 4.970727e+003
1.093278e+003, 4.970271e+003
1.093760e+003, 4.970152e+003
1.094242e+003, 4.971357e+003
1.094724e+003, 4.973930e+003
1.095206e+003, 4.972992e+003
1.095688e+003, 4.961524e+003
1.096171e+003, 4.953835e+003
1.096653e+003, 4.959375e+003
1.097135e+003, 4.965745e+003
1.097617e+003, 4.963920e+003
1.098099e+003, 4.957588e+003
1.098581e+003, 4.952685e+003
1.099063e+003, 4.949768e+003
1.099545e+003, 4.946431e+003
1.100027e+003, 4.940913e+003
1.100510e+003, 4.936866e+003
1.100992e+003, 4.936235e+003
1.101474e+003, 4.936110e+003
1.101956e+003, 4.935716e+003
1.102438e+003, 4.934396e+003
1.102920e+003, 4.930250e+003
1.103402e+003, 4.924314e+003
1.103884e+003, 4.921955e+003
1.104367e+003, 4.926378e+003
1.104849e+003, 4.928452e+003
1.105331e+003, 4.924343e+003
1.105813e+003, 4.920464e+003
1.106295e+003, 4.918948e+003
1.106777e+003, 4.918995e+003
1.107259e+003, 4.920718e+003
1.107741e+003, 4.923268e+003
1.108224e+003, 4.924459e+003
1.108706e+003, 4.924041e+003
1.109188e+003, 4.922564e+003
1.109670e+003, 4.920162e+003
1.110152e+003, 4.916593e+003
1.110634e+003, 4.911092e+003
1.111116e+003, 4.905136e+003
1.111598e+003, 4.897933e+003
1.112080e+003, 4.891577e+003
1.112563e+003, 4.890971e+003
1.113045e+003, 4.897128e+003
1.113527e+003, 4.900183e+003
1.114009e+003, 4.900825e+003
1.114491e+003, 4.897189e+003
1.114973e+003, 4.885581e+003
1.115455e+003, 4.874295e+003
1.115937e+003, 4.865095e+003
1.116419e+003, 4.860315e+003
1.116902e+003, 4.865932e+003
1.117384e+003, 4.880340e+003
1.117866e+003, 4.883476e+003
1.118348e+003, 4.867439e+003
1.118830e+003, 4.858744e+003
1.119312e+003, 4.861225e+003
1.119794e+003, 4.865356e+003
1.120276e+003, 4.869440e+003
1.120759e+003, 4.871163e+003
1.121241e+003, 4.867477e+003
1.121723e+003, 4.860088e+003
1.122205e+003, 4.855163e+003
1.122687e+003, 4.853275e+003
1.123169e+003, 4.850463e+003
1.123651e+003, 4.845047e+003
1.124133e+003, 4.844882e+003
1.124615e+003, 4.853947e+003
1.125098e+003, 4.862405e+003
1.125580e+003, 4.863124e+003
1.126062e+003, 4.859616e+003
1.126544e+003, 4.858871e+003
1.127026e+003, 4.860789e+003
1.127508e+003, 4.858963e+003
1.127990e+003, 4.852550e+003
1.128472e+003, 4.850733e+003
1.128954e+003, 4.855850e+003
1.129437e+003, 4.858026e+003
1.129919e+003, 4.851745e+003
1.130401e+003, 4.844187e+003
1.130883e+003, 4.844868e+003
1.131365e+003, 4.850860e+003
1.131847e+003, 4.849707e+003
1.132329e+003, 4.841825e+003
1.132811e+003, 4.835214e+003
1.133294e+003, 4.830493e+003
1.133776e+003, 4.828670e+003
1.134258e+003, 4.830091e+003
1.134740e+003, 4.830714e+003
1.135222e+003, 4.826697e+003
1.135704e+003, 4.821793e+003
1.136186e+003, 4.825306e+003
1.136668e+003, 4.834180e+003
1.137151e+003, 4.834967e+003
1.137633e+003, 4.829228e+003
1.138115e+003, 4.825329e+003
1.138597e+003, 4.825360e+003
1.139079e+003, 4.831230e+003
1.139561e+003, 4.844268e+003
1.140043e+003, 4.854291e+003
1.140525e+003, 4.845441e+003
1.141007e+003, 4.827807e+003
1.141490e+003, 4.820204e+003
1.141972e+003, 4.819191e+003
1.142454e+003, 4.817571e+003
1.142936e+003, 4.814755e+003
1.143418e+003, 4.813010e+003
1.143900e+003, 4.812889e+003
1.144382e+003, 4.811625e+003
1.144864e+003, 4.805774e+003
1.145346e+003, 4.800543e+003
1.145829e+003, 4.802791e+003
1.146311e+003, 4.807925e+003
1.146793e+003, 4.812084e+003
1.147275e+003, 4.813682e+003
1.147757e+003, 4.808710e+003
1.148239e+003, 4.798570e+003
1.148721e+003, 4.792136e+003
1.149203e+003, 4.794146e+003
1.149686e+003, 4.796921e+003
1.150168e+003, 4.795631e+003
1.150650e+003, 4.793297e+003
1.151132e+003, 4.791869e+003
1.151614e+003, 4.790875e+003
1.152096e+003, 4.789104e+003
1.152578e+003, 4.787358e+003
1.153060e+003, 4.788208e+003
1.153542e+003, 4.792332e+003
1.154025e+003, 4.794910e+003
1.154507e+003, 4.793202e+003
1.154989e+003, 4.791117e+003
1.155471e+003, 4.789288e+003
1.155953e+003, 4.788216e+003
1.156435e+003, 4.789231e+003
1.156917e+003, 4.790502e+003
1.157399e+003, 4.789281e+003
1.157881e+003, 4.785664e+003
1.158364e+003, 4.782232e+003
1.158846e+003, 4.776953e+003
1.159328e+003, 4.776196e+003
1.159810e+003, 4.786785e+003
1.160292e+003, 4.793238e+003
1.160774e+003, 4.788013e+003
1.161256e+003, 4.780645e+003
1.161738e+003, 4.779415e+003
1.162221e+003, 4.781075e+003
1.162703e+003, 4.777085e+003
1.163185e+003, 4.766165e+003
1.163667e+003, 4.760688e+003
1.164149e+003, 4.762714e+003
1.164631e+003, 4.764321e+003
1.165113e+003, 4.764295e+003
1.165595e+003, 4.763915e+003
1.166078e+003, 4.763721e+003
1.166560e+003, 4.763661e+003
1.167042e+003, 4.763553e+003
1.167524e+003, 4.763602e+003
1.168006e+003, 4.764856e+003
1.168488e+003, 4.767346e+003
1.168970e+003, 4.770889e+003
1.169452e+003, 4.775624e+003
1.169934e+003, 4.775500e+003
1.170417e+003, 4.768644e+003
1.170899e+003, 4.761687e+003
1.171381e+003, 4.759546e+003
1.171863e+003, 4.759675e+003
1.172345e+003, 4.757114e+003
1.172827e+003, 4.753389e+003
1.173309e+003, 4.755523e+003
1.173791e+003, 4.761374e+003
1.174273e+003, 4.762148e+003
1.174756e+003, 4.757504e+003
1.175238e+003, 4.752543e+003
1.175720e+003, 4.749325e+003
1.176202e+003, 4.746904e+003
1.176684e+003, 4.744400e+003
1.177166e+003, 4.742392e+003
1.177648e+003, 4.742188e+003
1.178130e+003, 4.742487e+003
1.178613e+003, 4.740192e+003
1.179095e+003, 4.737333e+003
1.179577e+003, 4.740333e+003
1.180059e+003, 4.747791e+003
1.180541e+003, 4.748634e+003
1.181023e+003, 4.736904e+003
1.181505e+003, 4.725773e+003
1.181987e+003, 4.723049e+003
1.182469e+003, 4.723812e+003
1.182952e+003, 4.726059e+003
1.183434e+003, 4.729069e+003
1.183916e+003, 4.733273e+003
1.184398e+003, 4.737382e+003
1.184880e+003, 4.739421e+003
1.185362e+003, 4.739043e+003
1.185844e+003, 4.735739e+003
1.186326e+003, 4.725643e+003
1.186808e+003, 4.718424e+003
1.187291e+003, 4.715456e+003
1.187773e+003, 4.716052e+003
1.188255e+003, 4.723357e+003
1.188737e+003, 4.731132e+003
1.189219e+003, 4.734410e+003
1.189701e+003, 4.733290e+003
1.190183e+003, 4.727177e+003
1.190665e+003, 4.713708e+003
1.191148e+003, 4.707980e+003
1.191630e+003, 4.713321e+003
1.192112e+003, 4.717315e+003
1.192594e+003, 4.718349e+003
1.193076e+003, 4.716167e+003
1.193558e+003, 4.709794e+003
1.194040e+003, 4.702576e+003
1.194522e+003, 4.698823e+003
1.195005e+003, 4.697840e+003
1.195487e+003, 4.697234e+003
1.195969e+003, 4.696929e+003
1.196451e+003, 4.693414e+003
1.196933e+003, 4.686859e+003
1.197415e+003, 4.685670e+003
1.197897e+003, 4.691721e+003
1.198379e+003, 4.697612e+003
1.198861e+003, 4.698709e+003
1.199344e+003, 4.696666e+003
1.199826e+003, 4.692960e+003
1.200308e+003, 4.688244e+003
1.200790e+003, 4.682865e+003
1.201272e+003, 4.677915e+003
1.201754e+003, 4.676789e+003
1.202236e+003, 4.678287e+003
1.202718e+003, 4.677176e+003
1.203200e+003, 4.672616e+003
1.203683e+003, 4.670636e+003
1.204165e+003, 4.676249e+003
1.204647e+003, 4.681578e+003
1.205129e+003, 4.680819e+003
1.205611e+003, 4.677152e+003
1.206093e+003, 4.671006e+003
1.206575e+003, 4.665256e+003
1.207057e+003, 4.662635e+003
1.207540e+003, 4.663409e+003
1.208022e+003, 4.668666e+003
1.208504e+003, 4.679364e+003
1.208986e+003, 4.684352e+003
1.209468e+003, 4.675206e+003
1.209950e+003, 4.668733e+003
1.210432e+003, 4.671958e+003
1.210914e+003, 4.674705e+003
1.211396e+003, 4.671073e+003
1.211879e+003, 4.664981e+003
1.212361e+003, 4.659454e+003
1.212843e+003, 4.655043e+003
1.213325e+003, 4.654507e+003
1.213807e+003, 4.659327e+003
1.214289e+003, 4.660817e+003
1.214771e+003, 4.658359e+003
1.215253e+003, 4.654579e+003
1.215735e+003, 4.649229e+003
1.216218e+003, 4.647167e+003
1.216700e+003, 4.651825e+003
1.217182e+003, 4.656730e+003
1.217664e+003, 4.653159e+003
1.218146e+003, 4.644470e+003
1.218628e+003, 4.641986e+003
1.219110e+003, 4.644096e+003
1.219592e+003, 4.642116e+003
1.220075e+003, 4.636370e+003
1.220557e+003, 4.629867e+003
1.221039e+003, 4.624250e+003
1.221521e+003, 4.624827e+003
1.222003e+003, 4.634799e+003
1.222485e+003, 4.646002e+003
1.222967e+003, 4.651195e+003
1.223449e+003, 4.652229e+003
1.223932e+003, 4.650717e+003
1.224414e+003, 4.646753e+003
1.224896e+003, 4.637792e+003
1.225378e+003, 4.627574e+003
1.225860e+003, 4.623991e+003
1.226342e+003, 4.627326e+003
1.226824e+003, 4.630271e+003
1.227306e+003, 4.630738e+003
1.227788e+003, 4.629382e+003
1.228271e+003, 4.623016e+003
1.228753e+003, 4.619318e+003
1.229235e+003, 4.625278e+003
1.229717e+003, 4.631544e+003
1.230199e+003, 4.629224e+003
1.230681e+003, 4.622769e+003
1.231163e+003, 4.620634e+003
1.231645e+003, 4.622713e+003
1.232127e+003, 4.624338e+003
1.232610e+003, 4.625682e+003
1.233092e+003, 4.625898e+003
1.233574e+003, 4.624617e+003
1.234056e+003, 4.623265e+003
1.234538e+003, 4.622107e+003
1.235020e+003, 4.622128e+003
1.235502e+003, 4.624509e+003
1.235984e+003, 4.626576e+003
1.236467e+003, 4.622760e+003
1.236949e+003, 4.615098e+003
1.237431e+003, 4.613337e+003
1.237913e+003, 4.615659e+003
1.238395e+003, 4.612497e+003
1.238877e+003, 4.604724e+003
1.239359e+003, 4.602237e+003
1.239841e+003, 4.607067e+003
1.240323e+003, 4.609989e+003
1.240806e+003, 4.604421e+003
1.241288e+003, 4.598405e+003
1.241770e+003, 4.600479e+003
1.242252e+003, 4.604889e+003
1.242734e+003, 4.606635e+003
1.243216e+003, 4.606807e+003
1.243698e+003, 4.607777e+003
1.244180e+003, 4.608193e+003
1.244662e+003, 4.603417e+003
1.245145e+003, 4.593411e+003
1.245627e+003, 4.588106e+003
1.246109e+003, 4.594309e+003
1.246591e+003, 4.597647e+003
1.247073e+003, 4.592374e+003
1.247555e+003, 4.588502e+003
1.248037e+003, 4.591217e+003
1.248519e+003, 4.594360e+003
1.249002e+003, 4.594341e+003
1.249484e+003, 4.591117e+003
1.249966e+003, 4.583377e+003
1.250448e+003, 4.571792e+003
1.250930e+003, 4.568391e+003
1.251412e+003, 4.573969e+003
1.251894e+003, 4.579624e+003
1.252376e+003, 4.584782e+003
1.252859e+003, 4.586177e+003
1.253341e+003, 4.582852e+003
1.253823e+003, 4.581509e+003
1.254305e+003, 4.587018e+003
1.254787e+003, 4.593821e+003
1.255269e+003, 4.594342e+003
1.255751e+003, 4.590826e+003
1.256233e+003, 4.585220e+003
1.256715e+003, 4.579961e+003
1.257198e+003, 4.581589e+003
1.257680e+003, 4.586977e+003
1.258162e+003, 4.586022e+003
1.258644e+003, 4.578395e+003
1.259126e+003, 4.575826e+003
1.259608e+003, 4.585308e+003
1.260090e+003, 4.592412e+003
1.260572e+003, 4.587854e+003
1.261054e+003, 4.582789e+003
1.261537e+003, 4.584189e+003
1.262019e+003, 4.585458e+003
1.262501e+003, 4.579346e+003
1.262983e+003, 4.571023e+003
1.263465e+003, 4.569397e+003
1.263947e+003, 4.573575e+003
1.264429e+003, 4.576101e+003
1.264911e+003, 4.576601e+003
1.265394e+003, 4.576349e+003
1.265876e+003, 4.574687e+003
1.266358e+003, 4.575853e+003
1.266840e+003, 4.581471e+003
1.267322e+003, 4.584309e+003
1.267804e+003, 4.579998e+003
1.268286e+003, 4.574521e+003
1.268768e+003, 4.575292e+003
1.269250e+003, 4.579697e+003
1.269733e+003, 4.583438e+003
1.270215e+003, 4.585405e+003
1.270697e+003, 4.580666e+003
1.271179e+003, 4.572347e+003
1.271661e+003, 4.569159e+003
1.272143e+003, 4.571434e+003
1.272625e+003, 4.574062e+003
1.273107e+003, 4.575129e+003
1.273589e+003, 4.574986e+003
1.274072e+003, 4.572464e+003
1.274554e+003, 4.570722e+003
1.275036e+003, 4.572443e+003
1.275518e+003, 4.574183e+003
1.276000e+003, 4.573928e+003
1.276482e+003, 4.572141e+003
1.276964e+003, 4.568870e+003
1.277446e+003, 4.565311e+003
1.277929e+003, 4.563288e+003
1.278411e+003, 4.562921e+003
1.278893e+003, 4.563322e+003
1.279375e+003, 4.565392e+003
1.279857e+003, 4.565078e+003
1.280339e+003, 4.561654e+003
1.280821e+003, 4.557256e+003
1.281303e+003, 4.552494e+003
1.281786e+003, 4.552062e+003
1.282268e+003, 4.558933e+003
##END=



