##NAMES=Grimselite
##RRUFFID=R141028
##IDEAL CHEMISTRY=K_3_Na(U^6+^O_2_)(CO_3_)_3_&#183;H_2_O
##LOCALITY=Rovnost Mine, Jáchymov, Krušné Hory Mts, Karlovy Vary, Bohemia, Czech Republic
##OWNER=RRUFF
##SOURCE=William W. Pinch
##DESCRIPTION=Radial aggregate of light or greenish yellow bladed crystals
##STATUS=The identification of this mineral has been confirmed by single-crystal X-ray diffraction.
##URL=rruff.info/R141028
8.813672e+001, 1.825406e+003
8.861884e+001, 1.847015e+003
8.910095e+001, 1.869404e+003
8.958307e+001, 1.899752e+003
9.006519e+001, 1.936729e+003
9.054730e+001, 1.973372e+003
9.102942e+001, 2.011662e+003
9.151154e+001, 2.048687e+003
9.199365e+001, 2.081198e+003
9.247577e+001, 2.110301e+003
9.295789e+001, 2.138598e+003
9.344000e+001, 2.167103e+003
9.392212e+001, 2.194244e+003
9.440424e+001, 2.221769e+003
9.488635e+001, 2.253161e+003
9.536847e+001, 2.288019e+003
9.585059e+001, 2.323642e+003
9.633270e+001, 2.359908e+003
9.681482e+001, 2.397508e+003
9.729694e+001, 2.436394e+003
9.777905e+001, 2.476671e+003
9.826117e+001, 2.518963e+003
9.874329e+001, 2.563089e+003
9.922540e+001, 2.608748e+003
9.970752e+001, 2.656143e+003
1.001896e+002, 2.704499e+003
1.006718e+002, 2.754462e+003
1.011539e+002, 2.806108e+003
1.016360e+002, 2.859533e+003
1.021181e+002, 2.915346e+003
1.026002e+002, 2.973190e+003
1.030823e+002, 3.032817e+003
1.035645e+002, 3.095449e+003
1.040466e+002, 3.161647e+003
1.045287e+002, 3.230880e+003
1.050108e+002, 3.304062e+003
1.054929e+002, 3.381907e+003
1.059750e+002, 3.462221e+003
1.064572e+002, 3.543891e+003
1.069393e+002, 3.627951e+003
1.074214e+002, 3.712208e+003
1.079035e+002, 3.795328e+003
1.083856e+002, 3.879267e+003
1.088677e+002, 3.967120e+003
1.093499e+002, 4.064462e+003
1.098320e+002, 4.163033e+003
1.103141e+002, 4.259172e+003
1.107962e+002, 4.345844e+003
1.112783e+002, 4.439958e+003
1.117604e+002, 4.547442e+003
1.122426e+002, 4.667100e+003
1.127247e+002, 4.782908e+003
1.132068e+002, 4.889531e+003
1.136889e+002, 4.993580e+003
1.141710e+002, 5.098503e+003
1.146531e+002, 5.209745e+003
1.151353e+002, 5.317267e+003
1.156174e+002, 5.419169e+003
1.160995e+002, 5.514953e+003
1.165816e+002, 5.609415e+003
1.170637e+002, 5.709181e+003
1.175458e+002, 5.806512e+003
1.180280e+002, 5.894241e+003
1.185101e+002, 5.967057e+003
1.189922e+002, 6.030183e+003
1.194743e+002, 6.084642e+003
1.199564e+002, 6.130305e+003
1.204385e+002, 6.170685e+003
1.209207e+002, 6.207667e+003
1.214028e+002, 6.240619e+003
1.218849e+002, 6.268424e+003
1.223670e+002, 6.294747e+003
1.228491e+002, 6.313796e+003
1.233312e+002, 6.318485e+003
1.238134e+002, 6.306599e+003
1.242955e+002, 6.285319e+003
1.247776e+002, 6.259467e+003
1.252597e+002, 6.229186e+003
1.257418e+002, 6.195147e+003
1.262239e+002, 6.157751e+003
1.267061e+002, 6.116385e+003
1.271882e+002, 6.071294e+003
1.276703e+002, 6.021854e+003
1.281524e+002, 5.968411e+003
1.286345e+002, 5.910236e+003
1.291166e+002, 5.847562e+003
1.295988e+002, 5.783522e+003
1.300809e+002, 5.720797e+003
1.305630e+002, 5.658666e+003
1.310451e+002, 5.594022e+003
1.315272e+002, 5.526295e+003
1.320093e+002, 5.456211e+003
1.324915e+002, 5.383720e+003
1.329736e+002, 5.308459e+003
1.334557e+002, 5.232807e+003
1.339378e+002, 5.159301e+003
1.344199e+002, 5.087555e+003
1.349020e+002, 5.017939e+003
1.353842e+002, 4.950078e+003
1.358663e+002, 4.884913e+003
1.363484e+002, 4.821470e+003
1.368305e+002, 4.760245e+003
1.373126e+002, 4.698829e+003
1.377947e+002, 4.634667e+003
1.382769e+002, 4.566479e+003
1.387590e+002, 4.500319e+003
1.392411e+002, 4.439197e+003
1.397232e+002, 4.382514e+003
1.402053e+002, 4.324847e+003
1.406874e+002, 4.264613e+003
1.411696e+002, 4.204483e+003
1.416517e+002, 4.149251e+003
1.421338e+002, 4.100518e+003
1.426159e+002, 4.052623e+003
1.430980e+002, 4.002612e+003
1.435801e+002, 3.949238e+003
1.440623e+002, 3.902691e+003
1.445444e+002, 3.866032e+003
1.450265e+002, 3.834742e+003
1.455086e+002, 3.801702e+003
1.459907e+002, 3.763535e+003
1.464728e+002, 3.728026e+003
1.469550e+002, 3.697395e+003
1.474371e+002, 3.672971e+003
1.479192e+002, 3.651050e+003
1.484013e+002, 3.632344e+003
1.488834e+002, 3.616131e+003
1.493655e+002, 3.600505e+003
1.498477e+002, 3.582927e+003
1.503298e+002, 3.568195e+003
1.508119e+002, 3.558288e+003
1.512940e+002, 3.556164e+003
1.517761e+002, 3.554365e+003
1.522583e+002, 3.552774e+003
1.527404e+002, 3.551397e+003
1.532225e+002, 3.550276e+003
1.537046e+002, 3.548964e+003
1.541867e+002, 3.548234e+003
1.546688e+002, 3.548452e+003
1.551510e+002, 3.550111e+003
1.556331e+002, 3.552181e+003
1.561152e+002, 3.553574e+003
1.565973e+002, 3.554969e+003
1.570794e+002, 3.559021e+003
1.575615e+002, 3.569708e+003
1.580437e+002, 3.581246e+003
1.585258e+002, 3.590068e+003
1.590079e+002, 3.592472e+003
1.594900e+002, 3.595166e+003
1.599721e+002, 3.599989e+003
1.604542e+002, 3.606720e+003
1.609364e+002, 3.614043e+003
1.614185e+002, 3.623880e+003
1.619006e+002, 3.632971e+003
1.623827e+002, 3.638690e+003
1.628648e+002, 3.637583e+003
1.633469e+002, 3.635295e+003
1.638291e+002, 3.635823e+003
1.643112e+002, 3.638542e+003
1.647933e+002, 3.637073e+003
1.652754e+002, 3.627535e+003
1.657575e+002, 3.612460e+003
1.662396e+002, 3.594511e+003
1.667218e+002, 3.572492e+003
1.672039e+002, 3.549488e+003
1.676860e+002, 3.528029e+003
1.681681e+002, 3.508231e+003
1.686502e+002, 3.486640e+003
1.691323e+002, 3.461987e+003
1.696145e+002, 3.434271e+003
1.700966e+002, 3.403606e+003
1.705787e+002, 3.368129e+003
1.710608e+002, 3.330890e+003
1.715429e+002, 3.294500e+003
1.720250e+002, 3.258753e+003
1.725072e+002, 3.223290e+003
1.729893e+002, 3.186753e+003
1.734714e+002, 3.149684e+003
1.739535e+002, 3.113069e+003
1.744356e+002, 3.076281e+003
1.749177e+002, 3.040732e+003
1.753999e+002, 3.008422e+003
1.758820e+002, 2.979468e+003
1.763641e+002, 2.950677e+003
1.768462e+002, 2.917010e+003
1.773283e+002, 2.880327e+003
1.778104e+002, 2.845322e+003
1.782926e+002, 2.814301e+003
1.787747e+002, 2.786577e+003
1.792568e+002, 2.761759e+003
1.797389e+002, 2.740282e+003
1.802210e+002, 2.719904e+003
1.807031e+002, 2.698759e+003
1.811853e+002, 2.676995e+003
1.816674e+002, 2.655771e+003
1.821495e+002, 2.636038e+003
1.826316e+002, 2.617315e+003
1.831137e+002, 2.599336e+003
1.835958e+002, 2.582166e+003
1.840780e+002, 2.564900e+003
1.845601e+002, 2.544650e+003
1.850422e+002, 2.522458e+003
1.855243e+002, 2.502501e+003
1.860064e+002, 2.488434e+003
1.864885e+002, 2.478773e+003
1.869707e+002, 2.468930e+003
1.874528e+002, 2.458688e+003
1.879349e+002, 2.447812e+003
1.884170e+002, 2.435446e+003
1.888991e+002, 2.421680e+003
1.893812e+002, 2.408167e+003
1.898634e+002, 2.395583e+003
1.903455e+002, 2.383898e+003
1.908276e+002, 2.372728e+003
1.913097e+002, 2.361941e+003
1.917918e+002, 2.351526e+003
1.922739e+002, 2.341329e+003
1.927561e+002, 2.331176e+003
1.932382e+002, 2.321636e+003
1.937203e+002, 2.313168e+003
1.942024e+002, 2.305698e+003
1.946845e+002, 2.297625e+003
1.951666e+002, 2.288466e+003
1.956488e+002, 2.279343e+003
1.961309e+002, 2.273050e+003
1.966130e+002, 2.269890e+003
1.970951e+002, 2.266516e+003
1.975772e+002, 2.260776e+003
1.980593e+002, 2.252653e+003
1.985415e+002, 2.244593e+003
1.990236e+002, 2.236597e+003
1.995057e+002, 2.228977e+003
1.999878e+002, 2.222827e+003
2.004699e+002, 2.218380e+003
2.009520e+002, 2.214247e+003
2.014342e+002, 2.209249e+003
2.019163e+002, 2.203130e+003
2.023984e+002, 2.199374e+003
2.028805e+002, 2.199286e+003
2.033626e+002, 2.200726e+003
2.038447e+002, 2.197843e+003
2.043269e+002, 2.189608e+003
2.048090e+002, 2.180701e+003
2.052911e+002, 2.173239e+003
2.057732e+002, 2.166926e+003
2.062553e+002, 2.164244e+003
2.067374e+002, 2.166936e+003
2.072196e+002, 2.172329e+003
2.077017e+002, 2.172428e+003
2.081838e+002, 2.165449e+003
2.086659e+002, 2.158106e+003
2.091480e+002, 2.154119e+003
2.096301e+002, 2.153887e+003
2.101123e+002, 2.155402e+003
2.105944e+002, 2.159534e+003
2.110765e+002, 2.164864e+003
2.115586e+002, 2.166754e+003
2.120407e+002, 2.163562e+003
2.125228e+002, 2.160656e+003
2.130050e+002, 2.161515e+003
2.134871e+002, 2.167555e+003
2.139692e+002, 2.171963e+003
2.144513e+002, 2.173972e+003
2.149334e+002, 2.174237e+003
2.154155e+002, 2.174480e+003
2.158977e+002, 2.174015e+003
2.163798e+002, 2.174820e+003
2.168619e+002, 2.178597e+003
2.173440e+002, 2.187122e+003
2.178261e+002, 2.192681e+003
2.183082e+002, 2.193603e+003
2.187904e+002, 2.191668e+003
2.192725e+002, 2.192316e+003
2.197546e+002, 2.196163e+003
2.202367e+002, 2.201466e+003
2.207188e+002, 2.207397e+003
2.212009e+002, 2.214161e+003
2.216831e+002, 2.221272e+003
2.221652e+002, 2.228922e+003
2.226473e+002, 2.236926e+003
2.231294e+002, 2.244374e+003
2.236115e+002, 2.250982e+003
2.240936e+002, 2.257720e+003
2.245758e+002, 2.265214e+003
2.250579e+002, 2.273806e+003
2.255400e+002, 2.282179e+003
2.260221e+002, 2.289583e+003
2.265042e+002, 2.297016e+003
2.269863e+002, 2.307049e+003
2.274685e+002, 2.320671e+003
2.279506e+002, 2.335546e+003
2.284327e+002, 2.350502e+003
2.289148e+002, 2.365038e+003
2.293969e+002, 2.381181e+003
2.298790e+002, 2.399308e+003
2.303612e+002, 2.418902e+003
2.308433e+002, 2.438707e+003
2.313254e+002, 2.459259e+003
2.318075e+002, 2.479470e+003
2.322896e+002, 2.498644e+003
2.327717e+002, 2.515512e+003
2.332539e+002, 2.534298e+003
2.337360e+002, 2.554833e+003
2.342181e+002, 2.576952e+003
2.347002e+002, 2.600744e+003
2.351823e+002, 2.627163e+003
2.356644e+002, 2.653463e+003
2.361466e+002, 2.678072e+003
2.366287e+002, 2.698900e+003
2.371108e+002, 2.723660e+003
2.375929e+002, 2.753109e+003
2.380750e+002, 2.785812e+003
2.385571e+002, 2.818844e+003
2.390393e+002, 2.852987e+003
2.395214e+002, 2.886249e+003
2.400035e+002, 2.917707e+003
2.404856e+002, 2.947209e+003
2.409677e+002, 2.976329e+003
2.414498e+002, 3.004561e+003
2.419320e+002, 3.032700e+003
2.424141e+002, 3.063159e+003
2.428962e+002, 3.098812e+003
2.433783e+002, 3.132324e+003
2.438604e+002, 3.161825e+003
2.443425e+002, 3.188021e+003
2.448247e+002, 3.207818e+003
2.453068e+002, 3.220670e+003
2.457889e+002, 3.227504e+003
2.462710e+002, 3.230042e+003
2.467531e+002, 3.228937e+003
2.472352e+002, 3.222399e+003
2.477174e+002, 3.209781e+003
2.481995e+002, 3.191065e+003
2.486816e+002, 3.166198e+003
2.491637e+002, 3.131362e+003
2.496458e+002, 3.093046e+003
2.501279e+002, 3.061178e+003
2.506101e+002, 3.038624e+003
2.510922e+002, 3.016407e+003
2.515743e+002, 2.991015e+003
2.520564e+002, 2.960852e+003
2.525385e+002, 2.939012e+003
2.530206e+002, 2.928147e+003
2.535028e+002, 2.923103e+003
2.539849e+002, 2.917478e+003
2.544670e+002, 2.908886e+003
2.549491e+002, 2.904683e+003
2.554312e+002, 2.907442e+003
2.559133e+002, 2.917517e+003
2.563955e+002, 2.927478e+003
2.568776e+002, 2.936350e+003
2.573597e+002, 2.946258e+003
2.578418e+002, 2.959748e+003
2.583239e+002, 2.978445e+003
2.588061e+002, 2.997029e+003
2.592882e+002, 3.014163e+003
2.597703e+002, 3.029965e+003
2.602524e+002, 3.048156e+003
2.607345e+002, 3.070798e+003
2.612166e+002, 3.093154e+003
2.616988e+002, 3.112222e+003
2.621809e+002, 3.129134e+003
2.626630e+002, 3.138520e+003
2.631451e+002, 3.138695e+003
2.636272e+002, 3.130190e+003
2.641093e+002, 3.117733e+003
2.645915e+002, 3.101052e+003
2.650736e+002, 3.080806e+003
2.655557e+002, 3.057582e+003
2.660378e+002, 3.032759e+003
2.665199e+002, 3.001154e+003
2.670020e+002, 2.959962e+003
2.674842e+002, 2.911404e+003
2.679663e+002, 2.868665e+003
2.684484e+002, 2.832745e+003
2.689305e+002, 2.800456e+003
2.694126e+002, 2.769911e+003
2.698947e+002, 2.740192e+003
2.703769e+002, 2.714657e+003
2.708590e+002, 2.693908e+003
2.713411e+002, 2.677115e+003
2.718232e+002, 2.662468e+003
2.723053e+002, 2.650083e+003
2.727874e+002, 2.639492e+003
2.732696e+002, 2.630116e+003
2.737517e+002, 2.621776e+003
2.742338e+002, 2.615947e+003
2.747159e+002, 2.612532e+003
2.751980e+002, 2.611776e+003
2.756801e+002, 2.615401e+003
2.761623e+002, 2.624555e+003
2.766444e+002, 2.633050e+003
2.771265e+002, 2.637594e+003
2.776086e+002, 2.638014e+003
2.780907e+002, 2.637639e+003
2.785728e+002, 2.636516e+003
2.790550e+002, 2.634744e+003
2.795371e+002, 2.632650e+003
2.800192e+002, 2.630330e+003
2.805013e+002, 2.626894e+003
2.809834e+002, 2.621799e+003
2.814655e+002, 2.615057e+003
2.819477e+002, 2.607830e+003
2.824298e+002, 2.600383e+003
2.829119e+002, 2.591853e+003
2.833940e+002, 2.580586e+003
2.838761e+002, 2.566488e+003
2.843582e+002, 2.552274e+003
2.848404e+002, 2.539763e+003
2.853225e+002, 2.528203e+003
2.858046e+002, 2.512581e+003
2.862867e+002, 2.492522e+003
2.867688e+002, 2.470802e+003
2.872509e+002, 2.450168e+003
2.877331e+002, 2.430616e+003
2.882152e+002, 2.411958e+003
2.886973e+002, 2.394268e+003
2.891794e+002, 2.377375e+003
2.896615e+002, 2.361262e+003
2.901436e+002, 2.345875e+003
2.906258e+002, 2.330695e+003
2.911079e+002, 2.314257e+003
2.915900e+002, 2.297129e+003
2.920721e+002, 2.282316e+003
2.925542e+002, 2.271253e+003
2.930363e+002, 2.262566e+003
2.935185e+002, 2.253665e+003
2.940006e+002, 2.244498e+003
2.944827e+002, 2.235766e+003
2.949648e+002, 2.227221e+003
2.954469e+002, 2.219253e+003
2.959290e+002, 2.213619e+003
2.964112e+002, 2.211457e+003
2.968933e+002, 2.210172e+003
2.973754e+002, 2.204680e+003
2.978575e+002, 2.195791e+003
2.983396e+002, 2.188458e+003
2.988217e+002, 2.187470e+003
2.993039e+002, 2.190134e+003
2.997860e+002, 2.191129e+003
3.002681e+002, 2.189540e+003
3.007502e+002, 2.186851e+003
3.012323e+002, 2.184454e+003
3.017144e+002, 2.182315e+003
3.021966e+002, 2.180473e+003
3.026787e+002, 2.179459e+003
3.031608e+002, 2.178519e+003
3.036429e+002, 2.176323e+003
3.041250e+002, 2.172620e+003
3.046071e+002, 2.168925e+003
3.050893e+002, 2.166736e+003
3.055714e+002, 2.165585e+003
3.060535e+002, 2.164575e+003
3.065356e+002, 2.163202e+003
3.070177e+002, 2.161820e+003
3.074998e+002, 2.160809e+003
3.079820e+002, 2.160177e+003
3.084641e+002, 2.159727e+003
3.089462e+002, 2.159300e+003
3.094283e+002, 2.158996e+003
3.099104e+002, 2.158957e+003
3.103925e+002, 2.159720e+003
3.108747e+002, 2.160426e+003
3.113568e+002, 2.160632e+003
3.118389e+002, 2.160339e+003
3.123210e+002, 2.159447e+003
3.128031e+002, 2.157230e+003
3.132852e+002, 2.154694e+003
3.137674e+002, 2.152723e+003
3.142495e+002, 2.151130e+003
3.147316e+002, 2.150733e+003
3.152137e+002, 2.154040e+003
3.156958e+002, 2.159391e+003
3.161779e+002, 2.161218e+003
3.166601e+002, 2.152854e+003
3.171422e+002, 2.142939e+003
3.176243e+002, 2.137176e+003
3.181064e+002, 2.137690e+003
3.185885e+002, 2.140148e+003
3.190706e+002, 2.145812e+003
3.195528e+002, 2.152256e+003
3.200349e+002, 2.154801e+003
3.205170e+002, 2.147985e+003
3.209991e+002, 2.140368e+003
3.214812e+002, 2.135911e+003
3.219633e+002, 2.135989e+003
3.224455e+002, 2.135431e+003
3.229276e+002, 2.131513e+003
3.234097e+002, 2.126947e+003
3.238918e+002, 2.125064e+003
3.243739e+002, 2.131020e+003
3.248560e+002, 2.135183e+003
3.253382e+002, 2.133662e+003
3.258203e+002, 2.125405e+003
3.263024e+002, 2.120968e+003
3.267845e+002, 2.125854e+003
3.272666e+002, 2.132256e+003
3.277487e+002, 2.133937e+003
3.282309e+002, 2.124127e+003
3.287130e+002, 2.117492e+003
3.291951e+002, 2.116701e+003
3.296772e+002, 2.121095e+003
3.301593e+002, 2.124130e+003
3.306414e+002, 2.125388e+003
3.311236e+002, 2.125630e+003
3.316057e+002, 2.125146e+003
3.320878e+002, 2.123055e+003
3.325699e+002, 2.121773e+003
3.330520e+002, 2.121682e+003
3.335341e+002, 2.122355e+003
3.340163e+002, 2.122679e+003
3.344984e+002, 2.122651e+003
3.349805e+002, 2.122237e+003
3.354626e+002, 2.121314e+003
3.359447e+002, 2.119649e+003
3.364268e+002, 2.118413e+003
3.369090e+002, 2.117749e+003
3.373911e+002, 2.117386e+003
3.378732e+002, 2.116633e+003
3.383553e+002, 2.115024e+003
3.388374e+002, 2.114777e+003
3.393195e+002, 2.117094e+003
3.398017e+002, 2.121850e+003
3.402838e+002, 2.125562e+003
3.407659e+002, 2.128290e+003
3.412480e+002, 2.129904e+003
3.417301e+002, 2.130075e+003
3.422122e+002, 2.128724e+003
3.426944e+002, 2.126936e+003
3.431765e+002, 2.124559e+003
3.436586e+002, 2.122077e+003
3.441407e+002, 2.121110e+003
3.446228e+002, 2.121648e+003
3.451049e+002, 2.123569e+003
3.455871e+002, 2.127749e+003
3.460692e+002, 2.133716e+003
3.465513e+002, 2.137830e+003
3.470334e+002, 2.139429e+003
3.475155e+002, 2.139413e+003
3.479977e+002, 2.139070e+003
3.484798e+002, 2.138377e+003
3.489619e+002, 2.137201e+003
3.494440e+002, 2.134533e+003
3.499261e+002, 2.131427e+003
3.504082e+002, 2.130492e+003
3.508904e+002, 2.132058e+003
3.513725e+002, 2.134666e+003
3.518546e+002, 2.137162e+003
3.523367e+002, 2.139542e+003
3.528188e+002, 2.141821e+003
3.533009e+002, 2.145507e+003
3.537831e+002, 2.148307e+003
3.542652e+002, 2.146243e+003
3.547473e+002, 2.139563e+003
3.552294e+002, 2.133574e+003
3.557115e+002, 2.132153e+003
3.561936e+002, 2.133732e+003
3.566758e+002, 2.136427e+003
3.571579e+002, 2.140816e+003
3.576400e+002, 2.144767e+003
3.581221e+002, 2.146493e+003
3.586042e+002, 2.146430e+003
3.590863e+002, 2.146190e+003
3.595685e+002, 2.146003e+003
3.600506e+002, 2.146316e+003
3.605327e+002, 2.147892e+003
3.610148e+002, 2.151888e+003
3.614969e+002, 2.154373e+003
3.619790e+002, 2.151450e+003
3.624612e+002, 2.146270e+003
3.629433e+002, 2.144099e+003
3.634254e+002, 2.150564e+003
3.639075e+002, 2.156788e+003
3.643896e+002, 2.158312e+003
3.648717e+002, 2.153979e+003
3.653539e+002, 2.151630e+003
3.658360e+002, 2.154470e+003
3.663181e+002, 2.159165e+003
3.668002e+002, 2.162704e+003
3.672823e+002, 2.163815e+003
3.677644e+002, 2.164757e+003
3.682466e+002, 2.165973e+003
3.687287e+002, 2.167392e+003
3.692108e+002, 2.168205e+003
3.696929e+002, 2.167905e+003
3.701750e+002, 2.167460e+003
3.706571e+002, 2.167365e+003
3.711393e+002, 2.167794e+003
3.716214e+002, 2.168312e+003
3.721035e+002, 2.168943e+003
3.725856e+002, 2.169681e+003
3.730677e+002, 2.170470e+003
3.735498e+002, 2.171271e+003
3.740320e+002, 2.172231e+003
3.745141e+002, 2.173257e+003
3.749962e+002, 2.174234e+003
3.754783e+002, 2.176675e+003
3.759604e+002, 2.181593e+003
3.764425e+002, 2.186291e+003
3.769247e+002, 2.186608e+003
3.774068e+002, 2.181515e+003
3.778889e+002, 2.178569e+003
3.783710e+002, 2.180526e+003
3.788531e+002, 2.185893e+003
3.793352e+002, 2.188000e+003
3.798174e+002, 2.186385e+003
3.802995e+002, 2.184523e+003
3.807816e+002, 2.185840e+003
3.812637e+002, 2.189818e+003
3.817458e+002, 2.191729e+003
3.822279e+002, 2.190390e+003
3.827101e+002, 2.187912e+003
3.831922e+002, 2.187509e+003
3.836743e+002, 2.189038e+003
3.841564e+002, 2.191500e+003
3.846385e+002, 2.195471e+003
3.851206e+002, 2.199798e+003
3.856028e+002, 2.201852e+003
3.860849e+002, 2.201376e+003
3.865670e+002, 2.200339e+003
3.870491e+002, 2.199965e+003
3.875312e+002, 2.200393e+003
3.880133e+002, 2.201928e+003
3.884955e+002, 2.205501e+003
3.889776e+002, 2.209522e+003
3.894597e+002, 2.213024e+003
3.899418e+002, 2.215865e+003
3.904239e+002, 2.217208e+003
3.909060e+002, 2.214677e+003
3.913882e+002, 2.211388e+003
3.918703e+002, 2.210437e+003
3.923524e+002, 2.213601e+003
3.928345e+002, 2.216704e+003
3.933166e+002, 2.216648e+003
3.937987e+002, 2.215157e+003
3.942809e+002, 2.215683e+003
3.947630e+002, 2.223151e+003
3.952451e+002, 2.229601e+003
3.957272e+002, 2.230554e+003
3.962093e+002, 2.224449e+003
3.966914e+002, 2.220620e+003
3.971736e+002, 2.222995e+003
3.976557e+002, 2.227433e+003
3.981378e+002, 2.230129e+003
3.986199e+002, 2.228256e+003
3.991020e+002, 2.227317e+003
3.995841e+002, 2.229312e+003
4.000663e+002, 2.233409e+003
4.005484e+002, 2.233806e+003
4.010305e+002, 2.226172e+003
4.015126e+002, 2.219519e+003
4.019947e+002, 2.218761e+003
4.024768e+002, 2.227845e+003
4.029590e+002, 2.233478e+003
4.034411e+002, 2.234814e+003
4.039232e+002, 2.233398e+003
4.044053e+002, 2.231640e+003
4.048874e+002, 2.229238e+003
4.053695e+002, 2.227529e+003
4.058517e+002, 2.227039e+003
4.063338e+002, 2.227726e+003
4.068159e+002, 2.228728e+003
4.072980e+002, 2.230144e+003
4.077801e+002, 2.231590e+003
4.082622e+002, 2.232216e+003
4.087444e+002, 2.232106e+003
4.092265e+002, 2.233606e+003
4.097086e+002, 2.237574e+003
4.101907e+002, 2.242797e+003
4.106728e+002, 2.247532e+003
4.111549e+002, 2.251669e+003
4.116371e+002, 2.253884e+003
4.121192e+002, 2.250941e+003
4.126013e+002, 2.245782e+003
4.130834e+002, 2.245807e+003
4.135655e+002, 2.252157e+003
4.140476e+002, 2.259080e+003
4.145298e+002, 2.261441e+003
4.150119e+002, 2.260274e+003
4.154940e+002, 2.257673e+003
4.159761e+002, 2.251456e+003
4.164582e+002, 2.246461e+003
4.169403e+002, 2.249071e+003
4.174225e+002, 2.257911e+003
4.179046e+002, 2.264457e+003
4.183867e+002, 2.260384e+003
4.188688e+002, 2.253773e+003
4.193509e+002, 2.251570e+003
4.198330e+002, 2.256752e+003
4.203152e+002, 2.262946e+003
4.207973e+002, 2.270000e+003
4.212794e+002, 2.276212e+003
4.217615e+002, 2.278556e+003
4.222436e+002, 2.271612e+003
4.227257e+002, 2.265079e+003
4.232079e+002, 2.262418e+003
4.236900e+002, 2.264268e+003
4.241721e+002, 2.266443e+003
4.246542e+002, 2.268670e+003
4.251363e+002, 2.271079e+003
4.256184e+002, 2.273891e+003
4.261006e+002, 2.278468e+003
4.265827e+002, 2.281158e+003
4.270648e+002, 2.280999e+003
4.275469e+002, 2.278741e+003
4.280290e+002, 2.276860e+003
4.285111e+002, 2.274904e+003
4.289933e+002, 2.274114e+003
4.294754e+002, 2.275367e+003
4.299575e+002, 2.279017e+003
4.304396e+002, 2.281834e+003
4.309217e+002, 2.283586e+003
4.314038e+002, 2.284963e+003
4.318860e+002, 2.287440e+003
4.323681e+002, 2.291143e+003
4.328502e+002, 2.292236e+003
4.333323e+002, 2.288145e+003
4.338144e+002, 2.281882e+003
4.342965e+002, 2.283116e+003
4.347787e+002, 2.291747e+003
4.352608e+002, 2.299493e+003
4.357429e+002, 2.298888e+003
4.362250e+002, 2.293073e+003
4.367071e+002, 2.289931e+003
4.371892e+002, 2.290731e+003
4.376714e+002, 2.292946e+003
4.381535e+002, 2.293399e+003
4.386356e+002, 2.293195e+003
4.391177e+002, 2.294760e+003
4.395998e+002, 2.302272e+003
4.400819e+002, 2.309802e+003
4.405641e+002, 2.311436e+003
4.410462e+002, 2.307633e+003
4.415283e+002, 2.303944e+003
4.420104e+002, 2.303092e+003
4.424925e+002, 2.303801e+003
4.429746e+002, 2.305063e+003
4.434568e+002, 2.306768e+003
4.439389e+002, 2.308747e+003
4.444210e+002, 2.311035e+003
4.449031e+002, 2.313535e+003
4.453852e+002, 2.316086e+003
4.458673e+002, 2.319530e+003
4.463495e+002, 2.322168e+003
4.468316e+002, 2.323173e+003
4.473137e+002, 2.322214e+003
4.477958e+002, 2.322090e+003
4.482779e+002, 2.323302e+003
4.487600e+002, 2.324989e+003
4.492422e+002, 2.326507e+003
4.497243e+002, 2.327647e+003
4.502064e+002, 2.329222e+003
4.506885e+002, 2.331771e+003
4.511706e+002, 2.334612e+003
4.516527e+002, 2.335563e+003
4.521349e+002, 2.334065e+003
4.526170e+002, 2.332617e+003
4.530991e+002, 2.332088e+003
4.535812e+002, 2.332472e+003
4.540633e+002, 2.334298e+003
4.545454e+002, 2.337794e+003
4.550276e+002, 2.341582e+003
4.555097e+002, 2.344448e+003
4.559918e+002, 2.346383e+003
4.564739e+002, 2.347010e+003
4.569560e+002, 2.345610e+003
4.574381e+002, 2.343814e+003
4.579203e+002, 2.344968e+003
4.584024e+002, 2.348360e+003
4.588845e+002, 2.350691e+003
4.593666e+002, 2.347710e+003
4.598488e+002, 2.343592e+003
4.603309e+002, 2.344355e+003
4.608130e+002, 2.350901e+003
4.612951e+002, 2.357095e+003
4.617772e+002, 2.357758e+003
4.622593e+002, 2.355915e+003
4.627415e+002, 2.355103e+003
4.632236e+002, 2.358590e+003
4.637057e+002, 2.361196e+003
4.641878e+002, 2.360163e+003
4.646699e+002, 2.356446e+003
4.651520e+002, 2.353348e+003
4.656342e+002, 2.351179e+003
4.661163e+002, 2.350362e+003
4.665984e+002, 2.351297e+003
4.670805e+002, 2.354689e+003
4.675626e+002, 2.357960e+003
4.680447e+002, 2.361225e+003
4.685269e+002, 2.364233e+003
4.690090e+002, 2.366718e+003
4.694911e+002, 2.368320e+003
4.699732e+002, 2.370159e+003
4.704553e+002, 2.373046e+003
4.709374e+002, 2.376248e+003
4.714196e+002, 2.376127e+003
4.719017e+002, 2.371595e+003
4.723838e+002, 2.366989e+003
4.728659e+002, 2.364527e+003
4.733480e+002, 2.364188e+003
4.738301e+002, 2.364896e+003
4.743123e+002, 2.366732e+003
4.747944e+002, 2.369120e+003
4.752765e+002, 2.371360e+003
4.757586e+002, 2.373522e+003
4.762407e+002, 2.376093e+003
4.767228e+002, 2.379611e+003
4.772050e+002, 2.383200e+003
4.776871e+002, 2.385529e+003
4.781692e+002, 2.386724e+003
4.786513e+002, 2.387263e+003
4.791334e+002, 2.387228e+003
4.796155e+002, 2.386856e+003
4.800977e+002, 2.386013e+003
4.805798e+002, 2.384499e+003
4.810619e+002, 2.384204e+003
4.815440e+002, 2.387680e+003
4.820261e+002, 2.392527e+003
4.825082e+002, 2.395980e+003
4.829904e+002, 2.396298e+003
4.834725e+002, 2.396080e+003
4.839546e+002, 2.395797e+003
4.844367e+002, 2.395530e+003
4.849188e+002, 2.395604e+003
4.854009e+002, 2.396084e+003
4.858831e+002, 2.396843e+003
4.863652e+002, 2.397640e+003
4.868473e+002, 2.398053e+003
4.873294e+002, 2.399932e+003
4.878115e+002, 2.404067e+003
4.882936e+002, 2.408852e+003
4.887758e+002, 2.412893e+003
4.892579e+002, 2.416440e+003
4.897400e+002, 2.418153e+003
4.902221e+002, 2.417207e+003
4.907042e+002, 2.414636e+003
4.911863e+002, 2.413561e+003
4.916685e+002, 2.414047e+003
4.921506e+002, 2.415311e+003
4.926327e+002, 2.417969e+003
4.931148e+002, 2.421330e+003
4.935969e+002, 2.421041e+003
4.940790e+002, 2.416709e+003
4.945612e+002, 2.412704e+003
4.950433e+002, 2.413958e+003
4.955254e+002, 2.418740e+003
4.960075e+002, 2.423427e+003
4.964896e+002, 2.427464e+003
4.969717e+002, 2.430331e+003
4.974539e+002, 2.430845e+003
4.979360e+002, 2.429687e+003
4.984181e+002, 2.428573e+003
4.989002e+002, 2.427884e+003
4.993823e+002, 2.427790e+003
4.998644e+002, 2.428328e+003
5.003466e+002, 2.429467e+003
5.008287e+002, 2.431313e+003
5.013108e+002, 2.434584e+003
5.017929e+002, 2.438101e+003
5.022750e+002, 2.440947e+003
5.027571e+002, 2.441327e+003
5.032393e+002, 2.443199e+003
5.037214e+002, 2.448550e+003
5.042035e+002, 2.455023e+003
5.046856e+002, 2.457414e+003
5.051677e+002, 2.453297e+003
5.056498e+002, 2.449507e+003
5.061320e+002, 2.448151e+003
5.066141e+002, 2.449148e+003
5.070962e+002, 2.450052e+003
5.075783e+002, 2.450734e+003
5.080604e+002, 2.451891e+003
5.085425e+002, 2.454562e+003
5.090247e+002, 2.458594e+003
5.095068e+002, 2.461704e+003
5.099889e+002, 2.463620e+003
5.104710e+002, 2.464688e+003
5.109531e+002, 2.465333e+003
5.114352e+002, 2.465536e+003
5.119174e+002, 2.465179e+003
5.123995e+002, 2.463148e+003
5.128816e+002, 2.461237e+003
5.133637e+002, 2.462071e+003
5.138458e+002, 2.465176e+003
5.143279e+002, 2.467802e+003
5.148101e+002, 2.466765e+003
5.152922e+002, 2.465481e+003
5.157743e+002, 2.467011e+003
5.162564e+002, 2.472610e+003
5.167385e+002, 2.478077e+003
5.172206e+002, 2.483139e+003
5.177028e+002, 2.486784e+003
5.181849e+002, 2.487833e+003
5.186670e+002, 2.482661e+003
5.191491e+002, 2.478881e+003
5.196312e+002, 2.478181e+003
5.201133e+002, 2.479882e+003
5.205955e+002, 2.481043e+003
5.210776e+002, 2.481560e+003
5.215597e+002, 2.481844e+003
5.220418e+002, 2.482234e+003
5.225239e+002, 2.482877e+003
5.230060e+002, 2.482125e+003
5.234882e+002, 2.479347e+003
5.239703e+002, 2.477050e+003
5.244524e+002, 2.478725e+003
5.249345e+002, 2.484015e+003
5.254166e+002, 2.487491e+003
5.258987e+002, 2.487536e+003
5.263809e+002, 2.486537e+003
5.268630e+002, 2.488309e+003
5.273451e+002, 2.492358e+003
5.278272e+002, 2.496664e+003
5.283093e+002, 2.500838e+003
5.287914e+002, 2.504328e+003
5.292736e+002, 2.506219e+003
5.297557e+002, 2.506581e+003
5.302378e+002, 2.506778e+003
5.307199e+002, 2.507100e+003
5.312020e+002, 2.507841e+003
5.316841e+002, 2.509321e+003
5.321663e+002, 2.511973e+003
5.326484e+002, 2.514531e+003
5.331305e+002, 2.516190e+003
5.336126e+002, 2.517749e+003
5.340947e+002, 2.520444e+003
5.345768e+002, 2.528478e+003
5.350590e+002, 2.532517e+003
5.355411e+002, 2.529301e+003
5.360232e+002, 2.520393e+003
5.365053e+002, 2.515356e+003
5.369874e+002, 2.515451e+003
5.374695e+002, 2.516821e+003
5.379517e+002, 2.517299e+003
5.384338e+002, 2.516761e+003
5.389159e+002, 2.518935e+003
5.393980e+002, 2.524436e+003
5.398801e+002, 2.530171e+003
5.403622e+002, 2.532000e+003
5.408444e+002, 2.530757e+003
5.413265e+002, 2.530431e+003
5.418086e+002, 2.531862e+003
5.422907e+002, 2.534596e+003
5.427728e+002, 2.539699e+003
5.432549e+002, 2.545862e+003
5.437371e+002, 2.549229e+003
5.442192e+002, 2.544862e+003
5.447013e+002, 2.539166e+003
5.451834e+002, 2.536970e+003
5.456655e+002, 2.538248e+003
5.461476e+002, 2.540305e+003
5.466298e+002, 2.542969e+003
5.471119e+002, 2.545414e+003
5.475940e+002, 2.546926e+003
5.480761e+002, 2.546286e+003
5.485582e+002, 2.547153e+003
5.490403e+002, 2.551942e+003
5.495225e+002, 2.557363e+003
5.500046e+002, 2.559311e+003
5.504867e+002, 2.556291e+003
5.509688e+002, 2.552481e+003
5.514509e+002, 2.547030e+003
5.519330e+002, 2.541687e+003
5.524152e+002, 2.544527e+003
5.528973e+002, 2.557140e+003
5.533794e+002, 2.568239e+003
5.538615e+002, 2.570691e+003
5.543436e+002, 2.566229e+003
5.548257e+002, 2.564092e+003
5.553079e+002, 2.564335e+003
5.557900e+002, 2.566008e+003
5.562721e+002, 2.569460e+003
5.567542e+002, 2.573503e+003
5.572363e+002, 2.575711e+003
5.577184e+002, 2.575065e+003
5.582006e+002, 2.574048e+003
5.586827e+002, 2.574584e+003
5.591648e+002, 2.576106e+003
5.596469e+002, 2.577652e+003
5.601290e+002, 2.579504e+003
5.606111e+002, 2.580710e+003
5.610933e+002, 2.580318e+003
5.615754e+002, 2.578675e+003
5.620575e+002, 2.578029e+003
5.625396e+002, 2.579583e+003
5.630217e+002, 2.581375e+003
5.635038e+002, 2.582743e+003
5.639860e+002, 2.583696e+003
5.644681e+002, 2.583949e+003
5.649502e+002, 2.582748e+003
5.654323e+002, 2.581992e+003
5.659144e+002, 2.584567e+003
5.663965e+002, 2.591062e+003
5.668787e+002, 2.593449e+003
5.673608e+002, 2.589486e+003
5.678429e+002, 2.583182e+003
5.683250e+002, 2.581899e+003
5.688071e+002, 2.584837e+003
5.692892e+002, 2.587774e+003
5.697714e+002, 2.588337e+003
5.702535e+002, 2.588183e+003
5.707356e+002, 2.589776e+003
5.712177e+002, 2.592841e+003
5.716998e+002, 2.595640e+003
5.721819e+002, 2.596512e+003
5.726641e+002, 2.597172e+003
5.731462e+002, 2.599273e+003
5.736283e+002, 2.603446e+003
5.741104e+002, 2.606592e+003
5.745925e+002, 2.606600e+003
5.750746e+002, 2.605765e+003
5.755568e+002, 2.606200e+003
5.760389e+002, 2.609552e+003
5.765210e+002, 2.612057e+003
5.770031e+002, 2.613145e+003
5.774852e+002, 2.613508e+003
5.779673e+002, 2.614766e+003
5.784495e+002, 2.617508e+003
5.789316e+002, 2.619345e+003
5.794137e+002, 2.619187e+003
5.798958e+002, 2.617659e+003
5.803779e+002, 2.617477e+003
5.808600e+002, 2.618713e+003
5.813422e+002, 2.620179e+003
5.818243e+002, 2.620889e+003
5.823064e+002, 2.621274e+003
5.827885e+002, 2.622347e+003
5.832706e+002, 2.624206e+003
5.837527e+002, 2.626307e+003
5.842349e+002, 2.629110e+003
5.847170e+002, 2.631538e+003
5.851991e+002, 2.632098e+003
5.856812e+002, 2.629288e+003
5.861633e+002, 2.626410e+003
5.866454e+002, 2.623560e+003
5.871276e+002, 2.621740e+003
5.876097e+002, 2.622804e+003
5.880918e+002, 2.632112e+003
5.885739e+002, 2.638629e+003
5.890560e+002, 2.638711e+003
5.895381e+002, 2.633481e+003
5.900203e+002, 2.631342e+003
5.905024e+002, 2.633838e+003
5.909845e+002, 2.636405e+003
5.914666e+002, 2.636351e+003
5.919487e+002, 2.633653e+003
5.924308e+002, 2.633733e+003
5.929130e+002, 2.637139e+003
5.933951e+002, 2.640703e+003
5.938772e+002, 2.640150e+003
5.943593e+002, 2.637082e+003
5.948414e+002, 2.637328e+003
5.953235e+002, 2.642859e+003
5.958057e+002, 2.648711e+003
5.962878e+002, 2.648910e+003
5.967699e+002, 2.645904e+003
5.972520e+002, 2.644274e+003
5.977341e+002, 2.647563e+003
5.982162e+002, 2.650949e+003
5.986984e+002, 2.651109e+003
5.991805e+002, 2.649133e+003
5.996626e+002, 2.649235e+003
6.001447e+002, 2.655131e+003
6.006268e+002, 2.660545e+003
6.011089e+002, 2.662984e+003
6.015911e+002, 2.662213e+003
6.020732e+002, 2.661293e+003
6.025553e+002, 2.659600e+003
6.030374e+002, 2.658774e+003
6.035195e+002, 2.660584e+003
6.040016e+002, 2.665364e+003
6.044838e+002, 2.668435e+003
6.049659e+002, 2.669387e+003
6.054480e+002, 2.669120e+003
6.059301e+002, 2.667713e+003
6.064122e+002, 2.665817e+003
6.068943e+002, 2.666437e+003
6.073765e+002, 2.671921e+003
6.078586e+002, 2.677575e+003
6.083407e+002, 2.676604e+003
6.088228e+002, 2.671583e+003
6.093049e+002, 2.668856e+003
6.097870e+002, 2.674300e+003
6.102692e+002, 2.680130e+003
6.107513e+002, 2.682047e+003
6.112334e+002, 2.680187e+003
6.117155e+002, 2.677888e+003
6.121976e+002, 2.673786e+003
6.126797e+002, 2.671219e+003
6.131619e+002, 2.671950e+003
6.136440e+002, 2.676849e+003
6.141261e+002, 2.681294e+003
6.146082e+002, 2.685714e+003
6.150903e+002, 2.689119e+003
6.155724e+002, 2.690190e+003
6.160546e+002, 2.688822e+003
6.165367e+002, 2.688375e+003
6.170188e+002, 2.689490e+003
6.175009e+002, 2.690993e+003
6.179830e+002, 2.691139e+003
6.184651e+002, 2.690208e+003
6.189473e+002, 2.689079e+003
6.194294e+002, 2.687316e+003
6.199115e+002, 2.686337e+003
6.203936e+002, 2.688600e+003
6.208757e+002, 2.692924e+003
6.213578e+002, 2.695833e+003
6.218400e+002, 2.693750e+003
6.223221e+002, 2.691660e+003
6.228042e+002, 2.692495e+003
6.232863e+002, 2.696431e+003
6.237684e+002, 2.699503e+003
6.242505e+002, 2.701114e+003
6.247327e+002, 2.701990e+003
6.252148e+002, 2.702013e+003
6.256969e+002, 2.700260e+003
6.261790e+002, 2.702166e+003
6.266611e+002, 2.709399e+003
6.271432e+002, 2.716784e+003
6.276254e+002, 2.717548e+003
6.281075e+002, 2.712246e+003
6.285896e+002, 2.709898e+003
6.290717e+002, 2.712370e+003
6.295538e+002, 2.717198e+003
6.300359e+002, 2.722106e+003
6.305181e+002, 2.726743e+003
6.310002e+002, 2.730369e+003
6.314823e+002, 2.732406e+003
6.319644e+002, 2.733558e+003
6.324465e+002, 2.733511e+003
6.329286e+002, 2.732845e+003
6.334108e+002, 2.733395e+003
6.338929e+002, 2.736837e+003
6.343750e+002, 2.740601e+003
6.348571e+002, 2.743960e+003
6.353392e+002, 2.746916e+003
6.358214e+002, 2.748665e+003
6.363035e+002, 2.748234e+003
6.367856e+002, 2.748055e+003
6.372677e+002, 2.749755e+003
6.377498e+002, 2.753701e+003
6.382319e+002, 2.757080e+003
6.387141e+002, 2.760066e+003
6.391962e+002, 2.762064e+003
6.396783e+002, 2.761955e+003
6.401604e+002, 2.760273e+003
6.406425e+002, 2.759094e+003
6.411246e+002, 2.758894e+003
6.416068e+002, 2.758951e+003
6.420889e+002, 2.758418e+003
6.425710e+002, 2.757640e+003
6.430531e+002, 2.757218e+003
6.435352e+002, 2.758420e+003
6.440173e+002, 2.758902e+003
6.444995e+002, 2.756558e+003
6.449816e+002, 2.752632e+003
6.454637e+002, 2.750692e+003
6.459458e+002, 2.754575e+003
6.464279e+002, 2.756747e+003
6.469100e+002, 2.754196e+003
6.473922e+002, 2.747526e+003
6.478743e+002, 2.745448e+003
6.483564e+002, 2.749172e+003
6.488385e+002, 2.753785e+003
6.493206e+002, 2.756179e+003
6.498027e+002, 2.756737e+003
6.502849e+002, 2.758913e+003
6.507670e+002, 2.762800e+003
6.512491e+002, 2.766869e+003
6.517312e+002, 2.769696e+003
6.522133e+002, 2.771753e+003
6.526954e+002, 2.773847e+003
6.531776e+002, 2.776158e+003
6.536597e+002, 2.778327e+003
6.541418e+002, 2.780072e+003
6.546239e+002, 2.781626e+003
6.551060e+002, 2.783269e+003
6.555881e+002, 2.785335e+003
6.560703e+002, 2.787180e+003
6.565524e+002, 2.789108e+003
6.570345e+002, 2.790647e+003
6.575166e+002, 2.790581e+003
6.579987e+002, 2.787601e+003
6.584808e+002, 2.786445e+003
6.589630e+002, 2.788882e+003
6.594451e+002, 2.793601e+003
6.599272e+002, 2.796137e+003
6.604093e+002, 2.796489e+003
6.608914e+002, 2.796148e+003
6.613735e+002, 2.795310e+003
6.618557e+002, 2.794554e+003
6.623378e+002, 2.795409e+003
6.628199e+002, 2.797669e+003
6.633020e+002, 2.799347e+003
6.637841e+002, 2.798531e+003
6.642662e+002, 2.797085e+003
6.647484e+002, 2.796068e+003
6.652305e+002, 2.795395e+003
6.657126e+002, 2.796791e+003
6.661947e+002, 2.803262e+003
6.666768e+002, 2.810166e+003
6.671589e+002, 2.814193e+003
6.676411e+002, 2.814148e+003
6.681232e+002, 2.813410e+003
6.686053e+002, 2.810953e+003
6.690874e+002, 2.809151e+003
6.695695e+002, 2.811713e+003
6.700516e+002, 2.818575e+003
6.705338e+002, 2.824698e+003
6.710159e+002, 2.829179e+003
6.714980e+002, 2.832293e+003
6.719801e+002, 2.833021e+003
6.724622e+002, 2.832587e+003
6.729443e+002, 2.834349e+003
6.734265e+002, 2.841770e+003
6.739086e+002, 2.849936e+003
6.743907e+002, 2.855974e+003
6.748728e+002, 2.860196e+003
6.753549e+002, 2.863418e+003
6.758370e+002, 2.864639e+003
6.763192e+002, 2.866262e+003
6.768013e+002, 2.868442e+003
6.772834e+002, 2.871355e+003
6.777655e+002, 2.877673e+003
6.782476e+002, 2.888209e+003
6.787297e+002, 2.900396e+003
6.792119e+002, 2.912660e+003
6.796940e+002, 2.925133e+003
6.801761e+002, 2.940170e+003
6.806582e+002, 2.957887e+003
6.811403e+002, 2.976098e+003
6.816224e+002, 2.992304e+003
6.821046e+002, 3.007888e+003
6.825867e+002, 3.025257e+003
6.830688e+002, 3.045003e+003
6.835509e+002, 3.065211e+003
6.840330e+002, 3.084344e+003
6.845151e+002, 3.103592e+003
6.849973e+002, 3.124621e+003
6.854794e+002, 3.150649e+003
6.859615e+002, 3.173928e+003
6.864436e+002, 3.195328e+003
6.869257e+002, 3.212521e+003
6.874078e+002, 3.223304e+003
6.878900e+002, 3.229751e+003
6.883721e+002, 3.223680e+003
6.888542e+002, 3.201903e+003
6.893363e+002, 3.169771e+003
6.898184e+002, 3.136034e+003
6.903005e+002, 3.101258e+003
6.907827e+002, 3.070554e+003
6.912648e+002, 3.045926e+003
6.917469e+002, 3.026726e+003
6.922290e+002, 3.013487e+003
6.927111e+002, 3.005179e+003
6.931932e+002, 2.999172e+003
6.936754e+002, 2.995318e+003
6.941575e+002, 2.992255e+003
6.946396e+002, 2.989062e+003
6.951217e+002, 2.985789e+003
6.956038e+002, 2.983532e+003
6.960859e+002, 2.983739e+003
6.965681e+002, 2.983643e+003
6.970502e+002, 2.982122e+003
6.975323e+002, 2.979110e+003
6.980144e+002, 2.976519e+003
6.984965e+002, 2.974668e+003
6.989786e+002, 2.972156e+003
6.994608e+002, 2.966850e+003
6.999429e+002, 2.959784e+003
7.004250e+002, 2.955926e+003
7.009071e+002, 2.955646e+003
7.013892e+002, 2.956781e+003
7.018713e+002, 2.957090e+003
7.023535e+002, 2.957876e+003
7.028356e+002, 2.961372e+003
7.033177e+002, 2.969431e+003
7.037998e+002, 2.975671e+003
7.042819e+002, 2.975029e+003
7.047640e+002, 2.972613e+003
7.052462e+002, 2.973954e+003
7.057283e+002, 2.980258e+003
7.062104e+002, 2.988848e+003
7.066925e+002, 3.000894e+003
7.071746e+002, 3.013943e+003
7.076567e+002, 3.023993e+003
7.081389e+002, 3.030827e+003
7.086210e+002, 3.036845e+003
7.091031e+002, 3.041751e+003
7.095852e+002, 3.047760e+003
7.100673e+002, 3.059744e+003
7.105494e+002, 3.076036e+003
7.110316e+002, 3.091956e+003
7.115137e+002, 3.102437e+003
7.119958e+002, 3.114273e+003
7.124779e+002, 3.131665e+003
7.129600e+002, 3.154185e+003
7.134421e+002, 3.180072e+003
7.139243e+002, 3.206448e+003
7.144064e+002, 3.239219e+003
7.148885e+002, 3.279002e+003
7.153706e+002, 3.326222e+003
7.158527e+002, 3.382910e+003
7.163348e+002, 3.450996e+003
7.168170e+002, 3.522260e+003
7.172991e+002, 3.593000e+003
7.177812e+002, 3.663494e+003
7.182633e+002, 3.729966e+003
7.187454e+002, 3.793407e+003
7.192275e+002, 3.859760e+003
7.197097e+002, 3.933385e+003
7.201918e+002, 4.013719e+003
7.206739e+002, 4.098792e+003
7.211560e+002, 4.187741e+003
7.216381e+002, 4.293019e+003
7.221202e+002, 4.415117e+003
7.226024e+002, 4.558560e+003
7.230845e+002, 4.728791e+003
7.235666e+002, 4.933506e+003
7.240487e+002, 5.143181e+003
7.245308e+002, 5.363432e+003
7.250129e+002, 5.584397e+003
7.254951e+002, 5.794416e+003
7.259772e+002, 5.993905e+003
7.264593e+002, 6.206928e+003
7.269414e+002, 6.434864e+003
7.274235e+002, 6.678140e+003
7.279056e+002, 6.952889e+003
7.283878e+002, 7.241260e+003
7.288699e+002, 7.522925e+003
7.293520e+002, 7.833857e+003
7.298341e+002, 8.024528e+003
7.303162e+002, 7.999556e+003
7.307983e+002, 7.793354e+003
7.312805e+002, 7.449925e+003
7.317626e+002, 6.849630e+003
7.322447e+002, 6.276384e+003
7.327268e+002, 5.740389e+003
7.332089e+002, 5.256885e+003
7.336910e+002, 4.853039e+003
7.341732e+002, 4.535227e+003
7.346553e+002, 4.269596e+003
7.351374e+002, 4.055888e+003
7.356195e+002, 3.884924e+003
7.361016e+002, 3.746478e+003
7.365837e+002, 3.638390e+003
7.370659e+002, 3.551776e+003
7.375480e+002, 3.489871e+003
7.380301e+002, 3.440347e+003
7.385122e+002, 3.394398e+003
7.389943e+002, 3.352435e+003
7.394764e+002, 3.316106e+003
7.399586e+002, 3.287859e+003
7.404407e+002, 3.263350e+003
7.409228e+002, 3.241265e+003
7.414049e+002, 3.221683e+003
7.418870e+002, 3.205909e+003
7.423691e+002, 3.195364e+003
7.428513e+002, 3.185595e+003
7.433334e+002, 3.174661e+003
7.438155e+002, 3.163311e+003
7.442976e+002, 3.154782e+003
7.447797e+002, 3.148990e+003
7.452618e+002, 3.144544e+003
7.457440e+002, 3.140453e+003
7.462261e+002, 3.137263e+003
7.467082e+002, 3.136018e+003
7.471903e+002, 3.136527e+003
7.476724e+002, 3.136831e+003
7.481545e+002, 3.135585e+003
7.486367e+002, 3.134296e+003
7.491188e+002, 3.133906e+003
7.496009e+002, 3.134570e+003
7.500830e+002, 3.134709e+003
7.505651e+002, 3.134389e+003
7.510472e+002, 3.133372e+003
7.515294e+002, 3.131159e+003
7.520115e+002, 3.127784e+003
7.524936e+002, 3.125075e+003
7.529757e+002, 3.122960e+003
7.534578e+002, 3.122359e+003
7.539399e+002, 3.125471e+003
7.544221e+002, 3.130070e+003
7.549042e+002, 3.132843e+003
7.553863e+002, 3.133406e+003
7.558684e+002, 3.133040e+003
7.563505e+002, 3.130396e+003
7.568326e+002, 3.128472e+003
7.573148e+002, 3.130134e+003
7.577969e+002, 3.138358e+003
7.582790e+002, 3.142724e+003
7.587611e+002, 3.141286e+003
7.592432e+002, 3.138667e+003
7.597253e+002, 3.138569e+003
7.602075e+002, 3.140996e+003
7.606896e+002, 3.145444e+003
7.611717e+002, 3.152195e+003
7.616538e+002, 3.159394e+003
7.621359e+002, 3.166505e+003
7.626180e+002, 3.172375e+003
7.631002e+002, 3.173718e+003
7.635823e+002, 3.167848e+003
7.640644e+002, 3.164538e+003
7.645465e+002, 3.172047e+003
7.650286e+002, 3.183507e+003
7.655107e+002, 3.191466e+003
7.659929e+002, 3.191898e+003
7.664750e+002, 3.193483e+003
7.669571e+002, 3.196760e+003
7.674392e+002, 3.200792e+003
7.679213e+002, 3.203983e+003
7.684034e+002, 3.206235e+003
7.688856e+002, 3.211194e+003
7.693677e+002, 3.220277e+003
7.698498e+002, 3.229293e+003
7.703319e+002, 3.231618e+003
7.708140e+002, 3.229961e+003
7.712961e+002, 3.229984e+003
7.717783e+002, 3.233317e+003
7.722604e+002, 3.238765e+003
7.727425e+002, 3.247869e+003
7.732246e+002, 3.257999e+003
7.737067e+002, 3.265211e+003
7.741888e+002, 3.265756e+003
7.746710e+002, 3.268409e+003
7.751531e+002, 3.274548e+003
7.756352e+002, 3.282657e+003
7.761173e+002, 3.290080e+003
7.765994e+002, 3.296772e+003
7.770815e+002, 3.303638e+003
7.775637e+002, 3.310719e+003
7.780458e+002, 3.318560e+003
7.785279e+002, 3.329327e+003
7.790100e+002, 3.341384e+003
7.794921e+002, 3.351026e+003
7.799742e+002, 3.353925e+003
7.804564e+002, 3.357199e+003
7.809385e+002, 3.363625e+003
7.814206e+002, 3.372691e+003
7.819027e+002, 3.383463e+003
7.823848e+002, 3.395763e+003
7.828669e+002, 3.409787e+003
7.833491e+002, 3.426816e+003
7.838312e+002, 3.444755e+003
7.843133e+002, 3.457478e+003
7.847954e+002, 3.465100e+003
7.852775e+002, 3.473489e+003
7.857596e+002, 3.483960e+003
7.862418e+002, 3.497022e+003
7.867239e+002, 3.514144e+003
7.872060e+002, 3.534335e+003
7.876881e+002, 3.555710e+003
7.881702e+002, 3.579250e+003
7.886523e+002, 3.601258e+003
7.891345e+002, 3.617159e+003
7.896166e+002, 3.630232e+003
7.900987e+002, 3.650995e+003
7.905808e+002, 3.683672e+003
7.910629e+002, 3.715215e+003
7.915450e+002, 3.741623e+003
7.920272e+002, 3.765537e+003
7.925093e+002, 3.792241e+003
7.929914e+002, 3.822092e+003
7.934735e+002, 3.855661e+003
7.939556e+002, 3.894219e+003
7.944377e+002, 3.936085e+003
7.949199e+002, 3.979042e+003
7.954020e+002, 4.024152e+003
7.958841e+002, 4.072305e+003
7.963662e+002, 4.120745e+003
7.968483e+002, 4.176192e+003
7.973304e+002, 4.239351e+003
7.978126e+002, 4.311401e+003
7.982947e+002, 4.393957e+003
7.987768e+002, 4.486294e+003
7.992589e+002, 4.590814e+003
7.997410e+002, 4.706798e+003
8.002231e+002, 4.836695e+003
8.007053e+002, 4.985297e+003
8.011874e+002, 5.152349e+003
8.016695e+002, 5.341653e+003
8.021516e+002, 5.551454e+003
8.026337e+002, 5.785524e+003
8.031158e+002, 6.048873e+003
8.035980e+002, 6.337104e+003
8.040801e+002, 6.650137e+003
8.045622e+002, 6.977901e+003
8.050443e+002, 7.339632e+003
8.055264e+002, 7.735422e+003
8.060085e+002, 8.167367e+003
8.064907e+002, 8.642644e+003
8.069728e+002, 9.163197e+003
8.074549e+002, 9.724917e+003
8.079370e+002, 1.032473e+004
8.084191e+002, 1.097323e+004
8.089012e+002, 1.168910e+004
8.093834e+002, 1.247221e+004
8.098655e+002, 1.332210e+004
8.103476e+002, 1.424972e+004
8.108297e+002, 1.523741e+004
8.113118e+002, 1.627894e+004
8.117939e+002, 1.736720e+004
8.122761e+002, 1.847110e+004
8.127582e+002, 1.962096e+004
8.132403e+002, 2.074374e+004
8.137224e+002, 2.184957e+004
8.142045e+002, 2.290796e+004
8.146866e+002, 2.385559e+004
8.151688e+002, 2.467858e+004
8.156509e+002, 2.532686e+004
8.161330e+002, 2.579571e+004
8.166151e+002, 2.605758e+004
8.170972e+002, 2.606494e+004
8.175793e+002, 2.583152e+004
8.180615e+002, 2.539252e+004
8.185436e+002, 2.470886e+004
8.190257e+002, 2.388293e+004
8.195078e+002, 2.292093e+004
8.199899e+002, 2.184720e+004
8.204720e+002, 2.073858e+004
8.209542e+002, 1.958160e+004
8.214363e+002, 1.844542e+004
8.219184e+002, 1.733415e+004
8.224005e+002, 1.626164e+004
8.228826e+002, 1.524784e+004
8.233647e+002, 1.428603e+004
8.238469e+002, 1.339097e+004
8.243290e+002, 1.255953e+004
8.248111e+002, 1.179369e+004
8.252932e+002, 1.108871e+004
8.257753e+002, 1.043727e+004
8.262574e+002, 9.845592e+003
8.267396e+002, 9.311860e+003
8.272217e+002, 8.828816e+003
8.277038e+002, 8.390421e+003
8.281859e+002, 7.996581e+003
8.286681e+002, 7.640507e+003
8.291502e+002, 7.327141e+003
8.296323e+002, 7.036604e+003
8.301144e+002, 6.765838e+003
8.305966e+002, 6.518220e+003
8.310787e+002, 6.291346e+003
8.315608e+002, 6.086664e+003
8.320429e+002, 5.902483e+003
8.325250e+002, 5.745784e+003
8.330071e+002, 5.600956e+003
8.334893e+002, 5.459417e+003
8.339714e+002, 5.324149e+003
8.344535e+002, 5.196931e+003
8.349356e+002, 5.077367e+003
8.354177e+002, 4.965775e+003
8.358998e+002, 4.863130e+003
8.363820e+002, 4.768768e+003
8.368641e+002, 4.680718e+003
8.373462e+002, 4.599307e+003
8.378283e+002, 4.523809e+003
8.383104e+002, 4.454752e+003
8.387925e+002, 4.392008e+003
8.392747e+002, 4.337681e+003
8.397568e+002, 4.288374e+003
8.402389e+002, 4.238941e+003
8.407210e+002, 4.185989e+003
8.412031e+002, 4.136522e+003
8.416852e+002, 4.093600e+003
8.421674e+002, 4.054056e+003
8.426495e+002, 4.015126e+003
8.431316e+002, 3.976444e+003
8.436137e+002, 3.941138e+003
8.440958e+002, 3.909450e+003
8.445779e+002, 3.880000e+003
8.450601e+002, 3.849774e+003
8.455422e+002, 3.820834e+003
8.460243e+002, 3.797497e+003
8.465064e+002, 3.781133e+003
8.469885e+002, 3.766345e+003
8.474706e+002, 3.750494e+003
8.479528e+002, 3.734389e+003
8.484349e+002, 3.718534e+003
8.489170e+002, 3.702242e+003
8.493991e+002, 3.688124e+003
8.498812e+002, 3.676543e+003
8.503633e+002, 3.666068e+003
8.508455e+002, 3.655029e+003
8.513276e+002, 3.643781e+003
8.518097e+002, 3.636152e+003
8.522918e+002, 3.632366e+003
8.527739e+002, 3.627708e+003
8.532560e+002, 3.616639e+003
8.537382e+002, 3.604052e+003
8.542203e+002, 3.594394e+003
8.547024e+002, 3.588347e+003
8.551845e+002, 3.583601e+003
8.556666e+002, 3.581852e+003
8.561487e+002, 3.579163e+003
8.566309e+002, 3.573630e+003
8.571130e+002, 3.565383e+003
8.575951e+002, 3.555612e+003
8.580772e+002, 3.544074e+003
8.585593e+002, 3.533485e+003
8.590414e+002, 3.526262e+003
8.595236e+002, 3.520665e+003
8.600057e+002, 3.514012e+003
8.604878e+002, 3.506392e+003
8.609699e+002, 3.499082e+003
8.614520e+002, 3.493174e+003
8.619341e+002, 3.487112e+003
8.624163e+002, 3.479876e+003
8.628984e+002, 3.471652e+003
8.633805e+002, 3.464024e+003
8.638626e+002, 3.457101e+003
8.643447e+002, 3.450011e+003
8.648268e+002, 3.441649e+003
8.653090e+002, 3.433352e+003
8.657911e+002, 3.430039e+003
8.662732e+002, 3.430306e+003
8.667553e+002, 3.428557e+003
8.672374e+002, 3.418019e+003
8.677195e+002, 3.408265e+003
8.682017e+002, 3.406741e+003
8.686838e+002, 3.410546e+003
8.691659e+002, 3.411294e+003
8.696480e+002, 3.406095e+003
8.701301e+002, 3.401938e+003
8.706122e+002, 3.400360e+003
8.710944e+002, 3.400267e+003
8.715765e+002, 3.399815e+003
8.720586e+002, 3.398930e+003
8.725407e+002, 3.396590e+003
8.730228e+002, 3.391805e+003
8.735049e+002, 3.387199e+003
8.739871e+002, 3.384906e+003
8.744692e+002, 3.384617e+003
8.749513e+002, 3.385802e+003
8.754334e+002, 3.391242e+003
8.759155e+002, 3.394021e+003
8.763976e+002, 3.391222e+003
8.768798e+002, 3.387875e+003
8.773619e+002, 3.390841e+003
8.778440e+002, 3.400610e+003
8.783261e+002, 3.407061e+003
8.788082e+002, 3.408717e+003
8.792903e+002, 3.408553e+003
8.797725e+002, 3.409068e+003
8.802546e+002, 3.410076e+003
8.807367e+002, 3.411321e+003
8.812188e+002, 3.412694e+003
8.817009e+002, 3.414333e+003
8.821830e+002, 3.416827e+003
8.826652e+002, 3.419086e+003
8.831473e+002, 3.420051e+003
8.836294e+002, 3.419219e+003
8.841115e+002, 3.421233e+003
8.845936e+002, 3.427033e+003
8.850757e+002, 3.431214e+003
8.855579e+002, 3.427451e+003
8.860400e+002, 3.419894e+003
8.865221e+002, 3.417249e+003
8.870042e+002, 3.419622e+003
8.874863e+002, 3.422434e+003
8.879684e+002, 3.422972e+003
8.884506e+002, 3.423573e+003
8.889327e+002, 3.426244e+003
8.894148e+002, 3.430756e+003
8.898969e+002, 3.432449e+003
8.903790e+002, 3.429772e+003
8.908611e+002, 3.429117e+003
8.913433e+002, 3.434840e+003
8.918254e+002, 3.443219e+003
8.923075e+002, 3.443402e+003
8.927896e+002, 3.437096e+003
8.932717e+002, 3.431894e+003
8.937538e+002, 3.432148e+003
8.942360e+002, 3.434016e+003
8.947181e+002, 3.435684e+003
8.952002e+002, 3.437188e+003
8.956823e+002, 3.438664e+003
8.961644e+002, 3.439793e+003
8.966465e+002, 3.441715e+003
8.971287e+002, 3.445283e+003
8.976108e+002, 3.448784e+003
8.980929e+002, 3.448783e+003
8.985750e+002, 3.445823e+003
8.990571e+002, 3.442150e+003
8.995392e+002, 3.437951e+003
9.000214e+002, 3.434352e+003
9.005035e+002, 3.432362e+003
9.009856e+002, 3.431421e+003
9.014677e+002, 3.430881e+003
9.019498e+002, 3.431297e+003
9.024319e+002, 3.431003e+003
9.029141e+002, 3.430106e+003
9.033962e+002, 3.428338e+003
9.038783e+002, 3.424645e+003
9.043604e+002, 3.419413e+003
9.048425e+002, 3.416761e+003
9.053246e+002, 3.416999e+003
9.058068e+002, 3.417910e+003
9.062889e+002, 3.417344e+003
9.067710e+002, 3.416771e+003
9.072531e+002, 3.418377e+003
9.077352e+002, 3.422632e+003
9.082173e+002, 3.423745e+003
9.086995e+002, 3.418730e+003
9.091816e+002, 3.413542e+003
9.096637e+002, 3.410675e+003
9.101458e+002, 3.409874e+003
9.106279e+002, 3.410099e+003
9.111100e+002, 3.411271e+003
9.115922e+002, 3.411550e+003
9.120743e+002, 3.408036e+003
9.125564e+002, 3.404602e+003
9.130385e+002, 3.405613e+003
9.135206e+002, 3.410048e+003
9.140027e+002, 3.414704e+003
9.144849e+002, 3.420876e+003
9.149670e+002, 3.424153e+003
9.154491e+002, 3.422108e+003
9.159312e+002, 3.417927e+003
9.164133e+002, 3.419363e+003
9.168954e+002, 3.426247e+003
9.173776e+002, 3.429915e+003
9.178597e+002, 3.427615e+003
9.183418e+002, 3.423520e+003
9.188239e+002, 3.421892e+003
9.193060e+002, 3.421504e+003
9.197881e+002, 3.420547e+003
9.202703e+002, 3.417778e+003
9.207524e+002, 3.416072e+003
9.212345e+002, 3.415996e+003
9.217166e+002, 3.416870e+003
9.221987e+002, 3.418375e+003
9.226808e+002, 3.420543e+003
9.231630e+002, 3.421997e+003
9.236451e+002, 3.422581e+003
9.241272e+002, 3.423911e+003
9.246093e+002, 3.428344e+003
9.250914e+002, 3.433674e+003
9.255735e+002, 3.437689e+003
9.260557e+002, 3.440142e+003
9.265378e+002, 3.441081e+003
9.270199e+002, 3.439051e+003
9.275020e+002, 3.437010e+003
9.279841e+002, 3.435766e+003
9.284662e+002, 3.435361e+003
9.289484e+002, 3.436188e+003
9.294305e+002, 3.438243e+003
9.299126e+002, 3.440603e+003
9.303947e+002, 3.443075e+003
9.308768e+002, 3.445390e+003
9.313589e+002, 3.448061e+003
9.318411e+002, 3.450267e+003
9.323232e+002, 3.450115e+003
9.328053e+002, 3.444013e+003
9.332874e+002, 3.439508e+003
9.337695e+002, 3.437634e+003
9.342516e+002, 3.437997e+003
9.347338e+002, 3.440511e+003
9.352159e+002, 3.445194e+003
9.356980e+002, 3.450140e+003
9.361801e+002, 3.455536e+003
9.366622e+002, 3.458514e+003
9.371443e+002, 3.453553e+003
9.376265e+002, 3.445757e+003
9.381086e+002, 3.440984e+003
9.385907e+002, 3.440084e+003
9.390728e+002, 3.442976e+003
9.395549e+002, 3.453773e+003
9.400370e+002, 3.462900e+003
9.405192e+002, 3.463637e+003
9.410013e+002, 3.456541e+003
9.414834e+002, 3.452512e+003
9.419655e+002, 3.451519e+003
9.424476e+002, 3.454057e+003
9.429297e+002, 3.465011e+003
9.434119e+002, 3.476125e+003
9.438940e+002, 3.478537e+003
9.443761e+002, 3.473683e+003
9.448582e+002, 3.468967e+003
9.453403e+002, 3.466567e+003
9.458224e+002, 3.463587e+003
9.463046e+002, 3.458534e+003
9.467867e+002, 3.453365e+003
9.472688e+002, 3.453725e+003
9.477509e+002, 3.458883e+003
9.482330e+002, 3.462800e+003
9.487151e+002, 3.463809e+003
9.491973e+002, 3.463099e+003
9.496794e+002, 3.460271e+003
9.501615e+002, 3.457071e+003
9.506436e+002, 3.455655e+003
9.511257e+002, 3.457305e+003
9.516078e+002, 3.459281e+003
9.520900e+002, 3.461503e+003
9.525721e+002, 3.464141e+003
9.530542e+002, 3.467677e+003
9.535363e+002, 3.471854e+003
9.540184e+002, 3.474969e+003
9.545005e+002, 3.476948e+003
9.549827e+002, 3.478686e+003
9.554648e+002, 3.480735e+003
9.559469e+002, 3.482770e+003
9.564290e+002, 3.484655e+003
9.569111e+002, 3.486293e+003
9.573932e+002, 3.486955e+003
9.578754e+002, 3.484951e+003
9.583575e+002, 3.485935e+003
9.588396e+002, 3.493060e+003
9.593217e+002, 3.502671e+003
9.598038e+002, 3.505140e+003
9.602859e+002, 3.502279e+003
9.607681e+002, 3.500474e+003
9.612502e+002, 3.502690e+003
9.617323e+002, 3.505588e+003
9.622144e+002, 3.508474e+003
9.626965e+002, 3.510409e+003
9.631786e+002, 3.509995e+003
9.636608e+002, 3.506168e+003
9.641429e+002, 3.503072e+003
9.646250e+002, 3.500737e+003
9.651071e+002, 3.499786e+003
9.655892e+002, 3.501879e+003
9.660714e+002, 3.505610e+003
9.665535e+002, 3.508166e+003
9.670356e+002, 3.509313e+003
9.675177e+002, 3.509343e+003
9.679998e+002, 3.508155e+003
9.684819e+002, 3.506094e+003
9.689641e+002, 3.501859e+003
9.694462e+002, 3.496379e+003
9.699283e+002, 3.497336e+003
9.704104e+002, 3.505624e+003
9.708925e+002, 3.513490e+003
9.713746e+002, 3.518492e+003
9.718568e+002, 3.520621e+003
9.723389e+002, 3.518025e+003
9.728210e+002, 3.512803e+003
9.733031e+002, 3.509434e+003
9.737852e+002, 3.508307e+003
9.742673e+002, 3.510919e+003
9.747495e+002, 3.521366e+003
9.752316e+002, 3.532401e+003
9.757137e+002, 3.535238e+003
9.761958e+002, 3.529464e+003
9.766779e+002, 3.528261e+003
9.771600e+002, 3.533033e+003
9.776422e+002, 3.537804e+003
9.781243e+002, 3.536710e+003
9.786064e+002, 3.533367e+003
9.790885e+002, 3.531487e+003
9.795706e+002, 3.531461e+003
9.800527e+002, 3.531665e+003
9.805349e+002, 3.531906e+003
9.810170e+002, 3.532157e+003
9.814991e+002, 3.531947e+003
9.819812e+002, 3.531940e+003
9.824633e+002, 3.535224e+003
9.829454e+002, 3.541191e+003
9.834276e+002, 3.546227e+003
9.839097e+002, 3.548442e+003
9.843918e+002, 3.549802e+003
9.848739e+002, 3.551902e+003
9.853560e+002, 3.554025e+003
9.858381e+002, 3.554979e+003
9.863203e+002, 3.554215e+003
9.868024e+002, 3.553347e+003
9.872845e+002, 3.552173e+003
9.877666e+002, 3.551684e+003
9.882487e+002, 3.553840e+003
9.887308e+002, 3.557354e+003
9.892130e+002, 3.558484e+003
9.896951e+002, 3.557003e+003
9.901772e+002, 3.555843e+003
9.906593e+002, 3.556794e+003
9.911414e+002, 3.558269e+003
9.916235e+002, 3.559371e+003
9.921057e+002, 3.560163e+003
9.925878e+002, 3.560987e+003
9.930699e+002, 3.561575e+003
9.935520e+002, 3.564312e+003
9.940341e+002, 3.571637e+003
9.945162e+002, 3.578827e+003
9.949984e+002, 3.577859e+003
9.954805e+002, 3.571996e+003
9.959626e+002, 3.567401e+003
9.964447e+002, 3.565942e+003
9.969268e+002, 3.566027e+003
9.974089e+002, 3.568203e+003
9.978911e+002, 3.571005e+003
9.983732e+002, 3.573202e+003
9.988553e+002, 3.574840e+003
9.993374e+002, 3.576882e+003
9.998195e+002, 3.579394e+003
1.000302e+003, 3.580673e+003
1.000784e+003, 3.577098e+003
1.001266e+003, 3.573612e+003
1.001748e+003, 3.574596e+003
1.002230e+003, 3.579876e+003
1.002712e+003, 3.585577e+003
1.003194e+003, 3.592601e+003
1.003676e+003, 3.596835e+003
1.004159e+003, 3.596223e+003
1.004641e+003, 3.593478e+003
1.005123e+003, 3.594654e+003
1.005605e+003, 3.598404e+003
1.006087e+003, 3.600460e+003
1.006569e+003, 3.598767e+003
1.007051e+003, 3.597501e+003
1.007533e+003, 3.599689e+003
1.008016e+003, 3.602655e+003
1.008498e+003, 3.603706e+003
1.008980e+003, 3.602124e+003
1.009462e+003, 3.603538e+003
1.009944e+003, 3.608469e+003
1.010426e+003, 3.612924e+003
1.010908e+003, 3.613237e+003
1.011390e+003, 3.611717e+003
1.011872e+003, 3.610994e+003
1.012355e+003, 3.611100e+003
1.012837e+003, 3.611860e+003
1.013319e+003, 3.613475e+003
1.013801e+003, 3.615402e+003
1.014283e+003, 3.618097e+003
1.014765e+003, 3.620386e+003
1.015247e+003, 3.618436e+003
1.015729e+003, 3.613292e+003
1.016211e+003, 3.614625e+003
1.016694e+003, 3.625875e+003
1.017176e+003, 3.635624e+003
1.017658e+003, 3.632358e+003
1.018140e+003, 3.624907e+003
1.018622e+003, 3.621117e+003
1.019104e+003, 3.622157e+003
1.019586e+003, 3.624804e+003
1.020068e+003, 3.630148e+003
1.020551e+003, 3.633657e+003
1.021033e+003, 3.631965e+003
1.021515e+003, 3.627402e+003
1.021997e+003, 3.624333e+003
1.022479e+003, 3.622748e+003
1.022961e+003, 3.622684e+003
1.023443e+003, 3.624478e+003
1.023925e+003, 3.627386e+003
1.024407e+003, 3.631680e+003
1.024890e+003, 3.636588e+003
1.025372e+003, 3.641029e+003
1.025854e+003, 3.644900e+003
1.026336e+003, 3.650749e+003
1.026818e+003, 3.659181e+003
1.027300e+003, 3.665403e+003
1.027782e+003, 3.662255e+003
1.028264e+003, 3.656977e+003
1.028746e+003, 3.657302e+003
1.029229e+003, 3.663827e+003
1.029711e+003, 3.667705e+003
1.030193e+003, 3.667524e+003
1.030675e+003, 3.666379e+003
1.031157e+003, 3.664455e+003
1.031639e+003, 3.663153e+003
1.032121e+003, 3.667417e+003
1.032603e+003, 3.675125e+003
1.033086e+003, 3.679383e+003
1.033568e+003, 3.676978e+003
1.034050e+003, 3.673278e+003
1.034532e+003, 3.668457e+003
1.035014e+003, 3.665173e+003
1.035496e+003, 3.666421e+003
1.035978e+003, 3.673369e+003
1.036460e+003, 3.675650e+003
1.036943e+003, 3.672840e+003
1.037425e+003, 3.671667e+003
1.037907e+003, 3.679769e+003
1.038389e+003, 3.689994e+003
1.038871e+003, 3.694409e+003
1.039353e+003, 3.693965e+003
1.039835e+003, 3.693066e+003
1.040317e+003, 3.690778e+003
1.040799e+003, 3.691125e+003
1.041281e+003, 3.695087e+003
1.041764e+003, 3.701279e+003
1.042246e+003, 3.708578e+003
1.042728e+003, 3.716293e+003
1.043210e+003, 3.721672e+003
1.043692e+003, 3.724048e+003
1.044174e+003, 3.726283e+003
1.044656e+003, 3.730077e+003
1.045138e+003, 3.734281e+003
1.045621e+003, 3.738305e+003
1.046103e+003, 3.742094e+003
1.046585e+003, 3.744331e+003
1.047067e+003, 3.744715e+003
1.047549e+003, 3.747887e+003
1.048031e+003, 3.756592e+003
1.048513e+003, 3.768113e+003
1.048995e+003, 3.779344e+003
1.049478e+003, 3.790969e+003
1.049960e+003, 3.804153e+003
1.050442e+003, 3.819485e+003
1.050924e+003, 3.836028e+003
1.051406e+003, 3.853937e+003
1.051888e+003, 3.873104e+003
1.052370e+003, 3.893833e+003
1.052852e+003, 3.915985e+003
1.053334e+003, 3.938350e+003
1.053817e+003, 3.961207e+003
1.054299e+003, 3.987336e+003
1.054781e+003, 4.022816e+003
1.055263e+003, 4.057063e+003
1.055745e+003, 4.082660e+003
1.056227e+003, 4.104556e+003
1.056709e+003, 4.133742e+003
1.057191e+003, 4.170244e+003
1.057673e+003, 4.213540e+003
1.058156e+003, 4.264047e+003
1.058638e+003, 4.319633e+003
1.059120e+003, 4.378038e+003
1.059602e+003, 4.441064e+003
1.060084e+003, 4.511186e+003
1.060566e+003, 4.589944e+003
1.061048e+003, 4.673178e+003
1.061530e+003, 4.768962e+003
1.062013e+003, 4.850524e+003
1.062495e+003, 4.905765e+003
1.062977e+003, 4.937577e+003
1.063459e+003, 4.958019e+003
1.063941e+003, 4.962237e+003
1.064423e+003, 4.936735e+003
1.064905e+003, 4.870423e+003
1.065387e+003, 4.781125e+003
1.065870e+003, 4.658461e+003
1.066352e+003, 4.527972e+003
1.066834e+003, 4.407416e+003
1.067316e+003, 4.297650e+003
1.067798e+003, 4.205599e+003
1.068280e+003, 4.131240e+003
1.068762e+003, 4.071755e+003
1.069244e+003, 4.030629e+003
1.069726e+003, 3.997315e+003
1.070208e+003, 3.963608e+003
1.070691e+003, 3.930870e+003
1.071173e+003, 3.907695e+003
1.071655e+003, 3.896501e+003
1.072137e+003, 3.886758e+003
1.072619e+003, 3.876463e+003
1.073101e+003, 3.866837e+003
1.073583e+003, 3.859739e+003
1.074065e+003, 3.854289e+003
1.074548e+003, 3.848745e+003
1.075030e+003, 3.842654e+003
1.075512e+003, 3.838446e+003
1.075994e+003, 3.838060e+003
1.076476e+003, 3.838113e+003
1.076958e+003, 3.837580e+003
1.077440e+003, 3.836364e+003
1.077922e+003, 3.833430e+003
1.078405e+003, 3.829289e+003
1.078887e+003, 3.826467e+003
1.079369e+003, 3.826625e+003
1.079851e+003, 3.827139e+003
1.080333e+003, 3.826784e+003
1.080815e+003, 3.825891e+003
1.081297e+003, 3.824387e+003
1.081779e+003, 3.821499e+003
1.082261e+003, 3.823390e+003
1.082744e+003, 3.830495e+003
1.083226e+003, 3.836946e+003
1.083708e+003, 3.836209e+003
1.084190e+003, 3.834415e+003
1.084672e+003, 3.839452e+003
1.085154e+003, 3.849044e+003
1.085636e+003, 3.855022e+003
1.086118e+003, 3.854585e+003
1.086601e+003, 3.854118e+003
1.087083e+003, 3.854441e+003
1.087565e+003, 3.854733e+003
1.088047e+003, 3.853778e+003
1.088529e+003, 3.852060e+003
1.089011e+003, 3.850308e+003
1.089493e+003, 3.848616e+003
1.089975e+003, 3.847855e+003
1.090458e+003, 3.849439e+003
1.090940e+003, 3.850867e+003
1.091422e+003, 3.851497e+003
1.091904e+003, 3.851145e+003
1.092386e+003, 3.848924e+003
1.092868e+003, 3.845067e+003
1.093350e+003, 3.840763e+003
1.093832e+003, 3.835571e+003
1.094314e+003, 3.832559e+003
1.094797e+003, 3.836280e+003
1.095279e+003, 3.841490e+003
1.095761e+003, 3.843064e+003
1.096243e+003, 3.840656e+003
1.096725e+003, 3.839158e+003
1.097207e+003, 3.838500e+003
1.097689e+003, 3.840087e+003
1.098171e+003, 3.847090e+003
1.098653e+003, 3.854360e+003
1.099136e+003, 3.855068e+003
1.099618e+003, 3.851897e+003
1.100100e+003, 3.850130e+003
1.100582e+003, 3.851565e+003
1.101064e+003, 3.852949e+003
1.101546e+003, 3.854057e+003
1.102028e+003, 3.855334e+003
1.102510e+003, 3.856709e+003
1.102993e+003, 3.858709e+003
1.103475e+003, 3.863669e+003
1.103957e+003, 3.870892e+003
1.104439e+003, 3.875704e+003
1.104921e+003, 3.872936e+003
1.105403e+003, 3.871712e+003
1.105885e+003, 3.874926e+003
1.106367e+003, 3.880213e+003
1.106849e+003, 3.883514e+003
1.107332e+003, 3.885156e+003
1.107814e+003, 3.885868e+003
1.108296e+003, 3.885505e+003
1.108778e+003, 3.888378e+003
1.109260e+003, 3.902413e+003
1.109742e+003, 3.915790e+003
1.110224e+003, 3.919844e+003
1.110706e+003, 3.916536e+003
1.111188e+003, 3.916602e+003
1.111671e+003, 3.920090e+003
1.112153e+003, 3.922997e+003
1.112635e+003, 3.923796e+003
1.113117e+003, 3.924134e+003
1.113599e+003, 3.926750e+003
1.114081e+003, 3.929203e+003
1.114563e+003, 3.928046e+003
1.115045e+003, 3.921851e+003
1.115528e+003, 3.918047e+003
1.116010e+003, 3.917122e+003
1.116492e+003, 3.916401e+003
1.116974e+003, 3.913995e+003
1.117456e+003, 3.911267e+003
1.117938e+003, 3.910317e+003
1.118420e+003, 3.910808e+003
1.118902e+003, 3.911972e+003
1.119385e+003, 3.915946e+003
1.119867e+003, 3.916781e+003
1.120349e+003, 3.913197e+003
1.120831e+003, 3.908609e+003
1.121313e+003, 3.906043e+003
1.121795e+003, 3.904983e+003
1.122277e+003, 3.903759e+003
1.122759e+003, 3.902447e+003
1.123241e+003, 3.901887e+003
1.123724e+003, 3.902848e+003
1.124206e+003, 3.904100e+003
1.124688e+003, 3.905245e+003
1.125170e+003, 3.906407e+003
1.125652e+003, 3.907827e+003
1.126134e+003, 3.909440e+003
1.126616e+003, 3.911055e+003
1.127098e+003, 3.912657e+003
1.127580e+003, 3.913707e+003
1.128063e+003, 3.912544e+003
1.128545e+003, 3.912016e+003
1.129027e+003, 3.914865e+003
1.129509e+003, 3.919778e+003
1.129991e+003, 3.922251e+003
1.130473e+003, 3.922297e+003
1.130955e+003, 3.920361e+003
1.131437e+003, 3.915591e+003
1.131920e+003, 3.912776e+003
1.132402e+003, 3.917852e+003
1.132884e+003, 3.926134e+003
1.133366e+003, 3.933744e+003
1.133848e+003, 3.940358e+003
1.134330e+003, 3.943656e+003
1.134812e+003, 3.942958e+003
1.135294e+003, 3.942542e+003
1.135776e+003, 3.944408e+003
1.136259e+003, 3.947125e+003
1.136741e+003, 3.950277e+003
1.137223e+003, 3.952394e+003
1.137705e+003, 3.950747e+003
1.138187e+003, 3.940502e+003
1.138669e+003, 3.936736e+003
1.139151e+003, 3.941208e+003
1.139633e+003, 3.947833e+003
1.140115e+003, 3.953864e+003
1.140598e+003, 3.958485e+003
1.141080e+003, 3.958708e+003
1.141562e+003, 3.956112e+003
1.142044e+003, 3.955092e+003
1.142526e+003, 3.959560e+003
1.143008e+003, 3.962231e+003
1.143490e+003, 3.961093e+003
1.143972e+003, 3.960035e+003
1.144455e+003, 3.964068e+003
1.144937e+003, 3.971294e+003
1.145419e+003, 3.975532e+003
1.145901e+003, 3.976680e+003
1.146383e+003, 3.976314e+003
1.146865e+003, 3.973098e+003
1.147347e+003, 3.971220e+003
1.147829e+003, 3.972809e+003
1.148312e+003, 3.975437e+003
1.148794e+003, 3.975051e+003
1.149276e+003, 3.972105e+003
1.149758e+003, 3.968892e+003
1.150240e+003, 3.965637e+003
1.150722e+003, 3.965310e+003
1.151204e+003, 3.972536e+003
1.151686e+003, 3.980434e+003
1.152168e+003, 3.984820e+003
1.152651e+003, 3.987008e+003
1.153133e+003, 3.991407e+003
1.153615e+003, 3.997821e+003
1.154097e+003, 4.001958e+003
1.154579e+003, 4.002510e+003
1.155061e+003, 4.002050e+003
1.155543e+003, 4.001314e+003
1.156025e+003, 4.001472e+003
1.156507e+003, 4.004387e+003
1.156990e+003, 4.009578e+003
1.157472e+003, 4.011954e+003
1.157954e+003, 4.011264e+003
1.158436e+003, 4.012471e+003
1.158918e+003, 4.018414e+003
1.159400e+003, 4.024251e+003
1.159882e+003, 4.024270e+003
1.160364e+003, 4.021930e+003
1.160847e+003, 4.021084e+003
1.161329e+003, 4.022113e+003
1.161811e+003, 4.024735e+003
1.162293e+003, 4.029213e+003
1.162775e+003, 4.033449e+003
1.163257e+003, 4.036503e+003
1.163739e+003, 4.038523e+003
1.164221e+003, 4.039465e+003
1.164703e+003, 4.039594e+003
1.165186e+003, 4.039370e+003
1.165668e+003, 4.039031e+003
1.166150e+003, 4.037206e+003
1.166632e+003, 4.032817e+003
1.167114e+003, 4.030878e+003
1.167596e+003, 4.037793e+003
1.168078e+003, 4.047823e+003
1.168560e+003, 4.050858e+003
1.169042e+003, 4.049259e+003
1.169525e+003, 4.049305e+003
1.170007e+003, 4.055832e+003
1.170489e+003, 4.058405e+003
1.170971e+003, 4.055133e+003
1.171453e+003, 4.051488e+003
1.171935e+003, 4.053974e+003
1.172417e+003, 4.059277e+003
1.172899e+003, 4.060379e+003
1.173382e+003, 4.057956e+003
1.173864e+003, 4.056591e+003
1.174346e+003, 4.057792e+003
1.174828e+003, 4.060375e+003
1.175310e+003, 4.064466e+003
1.175792e+003, 4.069339e+003
1.176274e+003, 4.075462e+003
1.176756e+003, 4.081280e+003
1.177239e+003, 4.082206e+003
1.177721e+003, 4.078271e+003
1.178203e+003, 4.075954e+003
1.178685e+003, 4.078831e+003
1.179167e+003, 4.082364e+003
1.179649e+003, 4.085511e+003
1.180131e+003, 4.088660e+003
1.180613e+003, 4.093470e+003
1.181095e+003, 4.098792e+003
1.181578e+003, 4.100210e+003
1.182060e+003, 4.096819e+003
1.182542e+003, 4.096026e+003
1.183024e+003, 4.103802e+003
1.183506e+003, 4.111792e+003
1.183988e+003, 4.117462e+003
1.184470e+003, 4.121055e+003
1.184952e+003, 4.121992e+003
1.185434e+003, 4.121316e+003
1.185917e+003, 4.123401e+003
1.186399e+003, 4.130180e+003
1.186881e+003, 4.134737e+003
1.187363e+003, 4.131026e+003
1.187845e+003, 4.127153e+003
1.188327e+003, 4.127110e+003
1.188809e+003, 4.129891e+003
1.189291e+003, 4.132312e+003
1.189774e+003, 4.134225e+003
1.190256e+003, 4.135124e+003
1.190738e+003, 4.134815e+003
1.191220e+003, 4.133410e+003
1.191702e+003, 4.128632e+003
1.192184e+003, 4.125088e+003
1.192666e+003, 4.126338e+003
1.193148e+003, 4.131397e+003
1.193630e+003, 4.132856e+003
1.194113e+003, 4.131603e+003
1.194595e+003, 4.133179e+003
1.195077e+003, 4.142849e+003
1.195559e+003, 4.150257e+003
1.196041e+003, 4.148473e+003
1.196523e+003, 4.143657e+003
1.197005e+003, 4.139781e+003
1.197487e+003, 4.136991e+003
1.197969e+003, 4.139272e+003
1.198452e+003, 4.145700e+003
1.198934e+003, 4.149236e+003
1.199416e+003, 4.143003e+003
1.199898e+003, 4.137112e+003
1.200380e+003, 4.135967e+003
1.200862e+003, 4.137926e+003
1.201344e+003, 4.142376e+003
1.201826e+003, 4.149338e+003
1.202309e+003, 4.151938e+003
1.202791e+003, 4.150491e+003
1.203273e+003, 4.148864e+003
1.203755e+003, 4.148363e+003
1.204237e+003, 4.149332e+003
1.204719e+003, 4.154214e+003
1.205201e+003, 4.159168e+003
1.205683e+003, 4.158275e+003
1.206166e+003, 4.151708e+003
1.206648e+003, 4.151569e+003
1.207130e+003, 4.157949e+003
1.207612e+003, 4.164455e+003
1.208094e+003, 4.166523e+003
1.208576e+003, 4.168020e+003
1.209058e+003, 4.170157e+003
1.209540e+003, 4.173469e+003
1.210022e+003, 4.179773e+003
1.210505e+003, 4.188909e+003
1.210987e+003, 4.194201e+003
1.211469e+003, 4.195251e+003
1.211951e+003, 4.193824e+003
1.212433e+003, 4.187231e+003
1.212915e+003, 4.182707e+003
1.213397e+003, 4.186892e+003
1.213879e+003, 4.194525e+003
1.214361e+003, 4.196702e+003
1.214844e+003, 4.193787e+003
1.215326e+003, 4.189971e+003
1.215808e+003, 4.185699e+003
1.216290e+003, 4.185315e+003
1.216772e+003, 4.196250e+003
1.217254e+003, 4.207120e+003
1.217736e+003, 4.211333e+003
1.218218e+003, 4.211374e+003
1.218701e+003, 4.211760e+003
1.219183e+003, 4.212502e+003
1.219665e+003, 4.214086e+003
1.220147e+003, 4.216560e+003
1.220629e+003, 4.219446e+003
1.221111e+003, 4.222758e+003
1.221593e+003, 4.226051e+003
1.222075e+003, 4.229365e+003
1.222557e+003, 4.232356e+003
1.223040e+003, 4.233702e+003
1.223522e+003, 4.233727e+003
1.224004e+003, 4.234641e+003
1.224486e+003, 4.236813e+003
1.224968e+003, 4.240550e+003
1.225450e+003, 4.249462e+003
1.225932e+003, 4.256248e+003
1.226414e+003, 4.257097e+003
1.226896e+003, 4.253509e+003
1.227379e+003, 4.247982e+003
1.227861e+003, 4.241627e+003
1.228343e+003, 4.240901e+003
1.228825e+003, 4.248059e+003
1.229307e+003, 4.255261e+003
1.229789e+003, 4.258923e+003
1.230271e+003, 4.260400e+003
1.230753e+003, 4.259755e+003
1.231236e+003, 4.257943e+003
1.231718e+003, 4.259331e+003
1.232200e+003, 4.262584e+003
1.232682e+003, 4.261154e+003
1.233164e+003, 4.251697e+003
1.233646e+003, 4.245877e+003
1.234128e+003, 4.253313e+003
1.234610e+003, 4.261499e+003
1.235093e+003, 4.264669e+003
1.235575e+003, 4.264303e+003
1.236057e+003, 4.264649e+003
1.236539e+003, 4.265466e+003
1.237021e+003, 4.265714e+003
1.237503e+003, 4.264764e+003
1.237985e+003, 4.264646e+003
1.238467e+003, 4.266063e+003
1.238949e+003, 4.268721e+003
1.239432e+003, 4.273217e+003
1.239914e+003, 4.278391e+003
1.240396e+003, 4.280284e+003
1.240878e+003, 4.279896e+003
1.241360e+003, 4.280157e+003
1.241842e+003, 4.282552e+003
1.242324e+003, 4.283262e+003
1.242806e+003, 4.279281e+003
1.243288e+003, 4.277227e+003
1.243771e+003, 4.281830e+003
1.244253e+003, 4.289413e+003
1.244735e+003, 4.289605e+003
1.245217e+003, 4.285412e+003
1.245699e+003, 4.284010e+003
1.246181e+003, 4.288199e+003
1.246663e+003, 4.293240e+003
1.247145e+003, 4.299078e+003
1.247628e+003, 4.304471e+003
1.248110e+003, 4.308941e+003
1.248592e+003, 4.312355e+003
1.249074e+003, 4.314041e+003
1.249556e+003, 4.314452e+003
1.250038e+003, 4.314341e+003
1.250520e+003, 4.312936e+003
1.251002e+003, 4.313979e+003
1.251484e+003, 4.318610e+003
1.251967e+003, 4.322403e+003
1.252449e+003, 4.322051e+003
1.252931e+003, 4.320100e+003
1.253413e+003, 4.320280e+003
1.253895e+003, 4.321928e+003
1.254377e+003, 4.323999e+003
1.254859e+003, 4.326669e+003
1.255341e+003, 4.328180e+003
1.255823e+003, 4.327989e+003
1.256306e+003, 4.329198e+003
1.256788e+003, 4.335175e+003
1.257270e+003, 4.341648e+003
1.257752e+003, 4.343089e+003
1.258234e+003, 4.341638e+003
1.258716e+003, 4.340162e+003
1.259198e+003, 4.337744e+003
1.259680e+003, 4.342440e+003
1.260163e+003, 4.355536e+003
1.260645e+003, 4.363902e+003
1.261127e+003, 4.356142e+003
1.261609e+003, 4.345581e+003
1.262091e+003, 4.345801e+003
1.262573e+003, 4.349877e+003
1.263055e+003, 4.347418e+003
1.263537e+003, 4.336565e+003
1.264020e+003, 4.331411e+003
1.264502e+003, 4.331858e+003
1.264984e+003, 4.336314e+003
1.265466e+003, 4.348244e+003
1.265948e+003, 4.358220e+003
1.266430e+003, 4.358431e+003
1.266912e+003, 4.354164e+003
1.267394e+003, 4.350977e+003
1.267876e+003, 4.348871e+003
1.268359e+003, 4.350900e+003
1.268841e+003, 4.356430e+003
1.269323e+003, 4.359688e+003
1.269805e+003, 4.354420e+003
1.270287e+003, 4.350422e+003
1.270769e+003, 4.354478e+003
1.271251e+003, 4.359632e+003
1.271733e+003, 4.359542e+003
1.272215e+003, 4.355299e+003
1.272698e+003, 4.357358e+003
1.273180e+003, 4.364024e+003
1.273662e+003, 4.367237e+003
1.274144e+003, 4.358755e+003
1.274626e+003, 4.353143e+003
1.275108e+003, 4.354531e+003
1.275590e+003, 4.357772e+003
1.276072e+003, 4.359070e+003
1.276555e+003, 4.358947e+003
1.277037e+003, 4.358352e+003
1.277519e+003, 4.357819e+003
1.278001e+003, 4.358988e+003
1.278483e+003, 4.362922e+003
1.278965e+003, 4.368130e+003
1.279447e+003, 4.375036e+003
1.279929e+003, 4.381515e+003
1.280411e+003, 4.386269e+003
1.280894e+003, 4.389199e+003
1.281376e+003, 4.388751e+003
1.281858e+003, 4.386612e+003
1.282340e+003, 4.386713e+003
1.282822e+003, 4.391826e+003
1.283304e+003, 4.395211e+003
1.283786e+003, 4.396679e+003
1.284268e+003, 4.397505e+003
1.284750e+003, 4.396999e+003
1.285233e+003, 4.397763e+003
1.285715e+003, 4.404895e+003
1.286197e+003, 4.414633e+003
1.286679e+003, 4.420053e+003
1.287161e+003, 4.419311e+003
1.287643e+003, 4.421013e+003
1.288125e+003, 4.425215e+003
1.288607e+003, 4.429379e+003
1.289090e+003, 4.432855e+003
1.289572e+003, 4.434472e+003
1.290054e+003, 4.430349e+003
1.290536e+003, 4.425829e+003
1.291018e+003, 4.428025e+003
1.291500e+003, 4.437269e+003
1.291982e+003, 4.443025e+003
1.292464e+003, 4.445484e+003
1.292947e+003, 4.446772e+003
1.293429e+003, 4.448517e+003
1.293911e+003, 4.448702e+003
1.294393e+003, 4.444536e+003
1.294875e+003, 4.440456e+003
1.295357e+003, 4.439995e+003
1.295839e+003, 4.442458e+003
1.296321e+003, 4.444588e+003
1.296803e+003, 4.446654e+003
1.297286e+003, 4.449202e+003
1.297768e+003, 4.452873e+003
1.298250e+003, 4.456381e+003
1.298732e+003, 4.459222e+003
1.299214e+003, 4.462786e+003
1.299696e+003, 4.469351e+003
1.300178e+003, 4.476034e+003
1.300660e+003, 4.479246e+003
##END=



