##NAMES=Holtstamite
##RRUFFID=R170001
##IDEAL CHEMISTRY=Ca_3_Al_2_(SiO_4_)_2_(OH)_4_
##LOCALITY=Wessels mine, Kalahari manganese field, South Africa
##OWNER=RRUFF
##SOURCE=Paul Botha
##DESCRIPTION=Yellow to brownish-yellow granular crystals, associate with Mn-rich vesuvianite, calcite, and henritermierite
##STATUS=The identification of this mineral has been confirmed only by single crystal X-ray diffraction.
##URL=rruff.info/R170001
8.758203e+001, 4.893448e+002
8.806415e+001, 4.910447e+002
8.854626e+001, 4.913784e+002
8.902838e+001, 4.898226e+002
8.951050e+001, 4.877710e+002
8.999261e+001, 4.856530e+002
9.047473e+001, 4.835204e+002
9.095685e+001, 4.813787e+002
9.143896e+001, 4.791998e+002
9.192108e+001, 4.769877e+002
9.240320e+001, 4.749521e+002
9.288531e+001, 4.677298e+002
9.336743e+001, 4.525562e+002
9.384955e+001, 4.319173e+002
9.433167e+001, 4.126800e+002
9.481378e+001, 3.938298e+002
9.529590e+001, 3.770769e+002
9.577802e+001, 3.622211e+002
9.626013e+001, 3.493990e+002
9.674225e+001, 3.388407e+002
9.722437e+001, 3.302206e+002
9.770648e+001, 3.222007e+002
9.818860e+001, 3.148526e+002
9.867072e+001, 3.075878e+002
9.915283e+001, 2.997634e+002
9.963495e+001, 2.913787e+002
1.001171e+002, 2.833363e+002
1.005992e+002, 2.769096e+002
1.010813e+002, 2.723707e+002
1.015634e+002, 2.685434e+002
1.020455e+002, 2.651649e+002
1.025277e+002, 2.621448e+002
1.030098e+002, 2.594020e+002
1.034919e+002, 2.568846e+002
1.039740e+002, 2.545997e+002
1.044561e+002, 2.526497e+002
1.049382e+002, 2.522240e+002
1.054204e+002, 2.507289e+002
1.059025e+002, 2.474624e+002
1.063846e+002, 2.429438e+002
1.068667e+002, 2.379646e+002
1.073488e+002, 2.328665e+002
1.078309e+002, 2.277666e+002
1.083131e+002, 2.234831e+002
1.087952e+002, 2.199993e+002
1.092773e+002, 2.171461e+002
1.097594e+002, 2.150484e+002
1.102415e+002, 2.136617e+002
1.107236e+002, 2.124647e+002
1.112058e+002, 2.110463e+002
1.116879e+002, 2.094980e+002
1.121700e+002, 2.081253e+002
1.126521e+002, 2.073651e+002
1.131342e+002, 2.067271e+002
1.136163e+002, 2.052583e+002
1.140985e+002, 2.025188e+002
1.145806e+002, 1.997958e+002
1.150627e+002, 1.980907e+002
1.155448e+002, 1.970802e+002
1.160269e+002, 1.959829e+002
1.165090e+002, 1.941519e+002
1.169912e+002, 1.916111e+002
1.174733e+002, 1.894314e+002
1.179554e+002, 1.876998e+002
1.184375e+002, 1.863304e+002
1.189196e+002, 1.853279e+002
1.194017e+002, 1.846735e+002
1.198839e+002, 1.843173e+002
1.203660e+002, 1.843404e+002
1.208481e+002, 1.852307e+002
1.213302e+002, 1.852042e+002
1.218123e+002, 1.838955e+002
1.222944e+002, 1.821341e+002
1.227766e+002, 1.803443e+002
1.232587e+002, 1.786775e+002
1.237408e+002, 1.771064e+002
1.242229e+002, 1.755883e+002
1.247050e+002, 1.738125e+002
1.251871e+002, 1.725433e+002
1.256693e+002, 1.721091e+002
1.261514e+002, 1.721052e+002
1.266335e+002, 1.720876e+002
1.271156e+002, 1.718973e+002
1.275977e+002, 1.714887e+002
1.280798e+002, 1.706566e+002
1.285620e+002, 1.690713e+002
1.290441e+002, 1.676711e+002
1.295262e+002, 1.670919e+002
1.300083e+002, 1.671144e+002
1.304904e+002, 1.667940e+002
1.309725e+002, 1.655030e+002
1.314547e+002, 1.636076e+002
1.319368e+002, 1.619634e+002
1.324189e+002, 1.606521e+002
1.329010e+002, 1.595530e+002
1.333831e+002, 1.584693e+002
1.338652e+002, 1.573325e+002
1.343474e+002, 1.565966e+002
1.348295e+002, 1.567941e+002
1.353116e+002, 1.574361e+002
1.357937e+002, 1.580702e+002
1.362758e+002, 1.585977e+002
1.367579e+002, 1.589556e+002
1.372401e+002, 1.589751e+002
1.377222e+002, 1.585965e+002
1.382043e+002, 1.579060e+002
1.386864e+002, 1.567674e+002
1.391685e+002, 1.554086e+002
1.396507e+002, 1.541537e+002
1.401328e+002, 1.532297e+002
1.406149e+002, 1.526239e+002
1.410970e+002, 1.520714e+002
1.415791e+002, 1.515148e+002
1.420612e+002, 1.510717e+002
1.425434e+002, 1.507705e+002
1.430255e+002, 1.506135e+002
1.435076e+002, 1.506024e+002
1.439897e+002, 1.507572e+002
1.444718e+002, 1.511256e+002
1.449539e+002, 1.513888e+002
1.454361e+002, 1.515003e+002
1.459182e+002, 1.515709e+002
1.464003e+002, 1.516181e+002
1.468824e+002, 1.516626e+002
1.473645e+002, 1.517777e+002
1.478466e+002, 1.520662e+002
1.483288e+002, 1.526088e+002
1.488109e+002, 1.530451e+002
1.492930e+002, 1.530782e+002
1.497751e+002, 1.531330e+002
1.502572e+002, 1.537238e+002
1.507393e+002, 1.550061e+002
1.512215e+002, 1.565640e+002
1.517036e+002, 1.578786e+002
1.521857e+002, 1.589780e+002
1.526678e+002, 1.599183e+002
1.531499e+002, 1.610134e+002
1.536320e+002, 1.619743e+002
1.541142e+002, 1.620406e+002
1.545963e+002, 1.608891e+002
1.550784e+002, 1.588985e+002
1.555605e+002, 1.564172e+002
1.560426e+002, 1.534590e+002
1.565247e+002, 1.505627e+002
1.570069e+002, 1.482384e+002
1.574890e+002, 1.464719e+002
1.579711e+002, 1.444769e+002
1.584532e+002, 1.417126e+002
1.589353e+002, 1.389461e+002
1.594174e+002, 1.366728e+002
1.598996e+002, 1.349550e+002
1.603817e+002, 1.335831e+002
1.608638e+002, 1.323137e+002
1.613459e+002, 1.311346e+002
1.618280e+002, 1.301152e+002
1.623102e+002, 1.294735e+002
1.627923e+002, 1.288556e+002
1.632744e+002, 1.279888e+002
1.637565e+002, 1.267996e+002
1.642386e+002, 1.254855e+002
1.647207e+002, 1.243922e+002
1.652029e+002, 1.236011e+002
1.656850e+002, 1.229512e+002
1.661671e+002, 1.223873e+002
1.666492e+002, 1.219600e+002
1.671313e+002, 1.217781e+002
1.676134e+002, 1.218873e+002
1.680956e+002, 1.221430e+002
1.685777e+002, 1.221216e+002
1.690598e+002, 1.217316e+002
1.695419e+002, 1.211406e+002
1.700240e+002, 1.201625e+002
1.705061e+002, 1.190272e+002
1.709883e+002, 1.180420e+002
1.714704e+002, 1.173615e+002
1.719525e+002, 1.169392e+002
1.724346e+002, 1.166000e+002
1.729167e+002, 1.164306e+002
1.733988e+002, 1.162274e+002
1.738810e+002, 1.157789e+002
1.743631e+002, 1.152266e+002
1.748452e+002, 1.149862e+002
1.753273e+002, 1.153805e+002
1.758094e+002, 1.162016e+002
1.762915e+002, 1.166618e+002
1.767737e+002, 1.166424e+002
1.772558e+002, 1.164350e+002
1.777379e+002, 1.161050e+002
1.782200e+002, 1.156749e+002
1.787021e+002, 1.154028e+002
1.791842e+002, 1.156017e+002
1.796664e+002, 1.159947e+002
1.801485e+002, 1.160561e+002
1.806306e+002, 1.156722e+002
1.811127e+002, 1.150005e+002
1.815948e+002, 1.141777e+002
1.820769e+002, 1.131920e+002
1.825591e+002, 1.121173e+002
1.830412e+002, 1.108765e+002
1.835233e+002, 1.096011e+002
1.840054e+002, 1.084297e+002
1.844875e+002, 1.074370e+002
1.849696e+002, 1.065524e+002
1.854518e+002, 1.056202e+002
1.859339e+002, 1.045388e+002
1.864160e+002, 1.036559e+002
1.868981e+002, 1.032354e+002
1.873802e+002, 1.030122e+002
1.878623e+002, 1.026666e+002
1.883445e+002, 1.020121e+002
1.888266e+002, 1.011717e+002
1.893087e+002, 1.005779e+002
1.897908e+002, 1.003786e+002
1.902729e+002, 1.002371e+002
1.907550e+002, 1.000453e+002
1.912372e+002, 9.985820e+001
1.917193e+002, 9.977659e+001
1.922014e+002, 9.987908e+001
1.926835e+002, 1.001189e+002
1.931656e+002, 1.001736e+002
1.936477e+002, 9.976168e+001
1.941299e+002, 9.943908e+001
1.946120e+002, 9.930453e+001
1.950941e+002, 9.932277e+001
1.955762e+002, 9.944822e+001
1.960583e+002, 9.966691e+001
1.965404e+002, 9.996448e+001
1.970226e+002, 1.000730e+002
1.975047e+002, 9.988622e+001
1.979868e+002, 9.963795e+001
1.984689e+002, 9.930000e+001
1.989510e+002, 9.894198e+001
1.994331e+002, 9.871130e+001
1.999153e+002, 9.872655e+001
2.003974e+002, 9.897951e+001
2.008795e+002, 9.913524e+001
2.013616e+002, 9.899598e+001
2.018437e+002, 9.896705e+001
2.023258e+002, 9.935181e+001
2.028080e+002, 1.000435e+002
2.032901e+002, 1.006302e+002
2.037722e+002, 1.008050e+002
2.042543e+002, 1.005824e+002
2.047364e+002, 1.004292e+002
2.052185e+002, 1.004391e+002
2.057007e+002, 1.004355e+002
2.061828e+002, 1.002622e+002
2.066649e+002, 9.993801e+001
2.071470e+002, 9.966996e+001
2.076291e+002, 9.963673e+001
2.081112e+002, 9.979025e+001
2.085934e+002, 9.985326e+001
2.090755e+002, 9.978960e+001
2.095576e+002, 9.964853e+001
2.100397e+002, 9.942815e+001
2.105218e+002, 9.912326e+001
2.110039e+002, 9.888452e+001
2.114861e+002, 9.890714e+001
2.119682e+002, 9.905354e+001
2.124503e+002, 9.903288e+001
2.129324e+002, 9.866362e+001
2.134145e+002, 9.819260e+001
2.138967e+002, 9.796941e+001
2.143788e+002, 9.806094e+001
2.148609e+002, 9.807948e+001
2.153430e+002, 9.762710e+001
2.158251e+002, 9.700054e+001
2.163072e+002, 9.657810e+001
2.167894e+002, 9.654298e+001
2.172715e+002, 9.670566e+001
2.177536e+002, 9.677624e+001
2.182357e+002, 9.678548e+001
2.187178e+002, 9.660296e+001
2.191999e+002, 9.595411e+001
2.196821e+002, 9.516365e+001
2.201642e+002, 9.462692e+001
2.206463e+002, 9.455910e+001
2.211284e+002, 9.476035e+001
2.216105e+002, 9.476588e+001
2.220926e+002, 9.445351e+001
2.225748e+002, 9.419094e+001
2.230569e+002, 9.409557e+001
2.235390e+002, 9.410207e+001
2.240211e+002, 9.414837e+001
2.245032e+002, 9.421257e+001
2.249853e+002, 9.428508e+001
2.254675e+002, 9.432617e+001
2.259496e+002, 9.424374e+001
2.264317e+002, 9.429109e+001
2.269138e+002, 9.460464e+001
2.273959e+002, 9.502504e+001
2.278780e+002, 9.538380e+001
2.283602e+002, 9.559933e+001
2.288423e+002, 9.570227e+001
2.293244e+002, 9.578636e+001
2.298065e+002, 9.576883e+001
2.302886e+002, 9.585174e+001
2.307707e+002, 9.608665e+001
2.312529e+002, 9.641702e+001
2.317350e+002, 9.677834e+001
2.322171e+002, 9.713905e+001
2.326992e+002, 9.751511e+001
2.331813e+002, 9.795888e+001
2.336634e+002, 9.851540e+001
2.341456e+002, 9.909712e+001
2.346277e+002, 9.972561e+001
2.351098e+002, 1.003663e+002
2.355919e+002, 1.009596e+002
2.360740e+002, 1.014775e+002
2.365561e+002, 1.019750e+002
2.370383e+002, 1.026168e+002
2.375204e+002, 1.036795e+002
2.380025e+002, 1.045631e+002
2.384846e+002, 1.051524e+002
2.389667e+002, 1.055743e+002
2.394488e+002, 1.059462e+002
2.399310e+002, 1.063168e+002
2.404131e+002, 1.067247e+002
2.408952e+002, 1.072739e+002
2.413773e+002, 1.081124e+002
2.418594e+002, 1.088953e+002
2.423415e+002, 1.096119e+002
2.428237e+002, 1.102477e+002
2.433058e+002, 1.107850e+002
2.437879e+002, 1.112196e+002
2.442700e+002, 1.115496e+002
2.447521e+002, 1.117546e+002
2.452342e+002, 1.117523e+002
2.457164e+002, 1.117954e+002
2.461985e+002, 1.119431e+002
2.466806e+002, 1.121499e+002
2.471627e+002, 1.123396e+002
2.476448e+002, 1.124814e+002
2.481269e+002, 1.126388e+002
2.486091e+002, 1.129458e+002
2.490912e+002, 1.134389e+002
2.495733e+002, 1.139212e+002
2.500554e+002, 1.143771e+002
2.505375e+002, 1.147971e+002
2.510196e+002, 1.151616e+002
2.515018e+002, 1.154621e+002
2.519839e+002, 1.157229e+002
2.524660e+002, 1.159471e+002
2.529481e+002, 1.161230e+002
2.534302e+002, 1.163913e+002
2.539123e+002, 1.168515e+002
2.543945e+002, 1.174082e+002
2.548766e+002, 1.179263e+002
2.553587e+002, 1.183813e+002
2.558408e+002, 1.187894e+002
2.563229e+002, 1.191429e+002
2.568051e+002, 1.194503e+002
2.572872e+002, 1.197834e+002
2.577693e+002, 1.201805e+002
2.582514e+002, 1.206109e+002
2.587335e+002, 1.210652e+002
2.592156e+002, 1.215752e+002
2.596978e+002, 1.219769e+002
2.601799e+002, 1.219398e+002
2.606620e+002, 1.216079e+002
2.611441e+002, 1.214885e+002
2.616262e+002, 1.220981e+002
2.621083e+002, 1.229013e+002
2.625905e+002, 1.229837e+002
2.630726e+002, 1.221719e+002
2.635547e+002, 1.210638e+002
2.640368e+002, 1.198891e+002
2.645189e+002, 1.187531e+002
2.650010e+002, 1.179472e+002
2.654832e+002, 1.178232e+002
2.659653e+002, 1.179836e+002
2.664474e+002, 1.177958e+002
2.669295e+002, 1.172001e+002
2.674116e+002, 1.164804e+002
2.678937e+002, 1.157265e+002
2.683759e+002, 1.149776e+002
2.688580e+002, 1.142952e+002
2.693401e+002, 1.137411e+002
2.698222e+002, 1.132286e+002
2.703043e+002, 1.125829e+002
2.707864e+002, 1.117420e+002
2.712686e+002, 1.110381e+002
2.717507e+002, 1.109049e+002
2.722328e+002, 1.109000e+002
2.727149e+002, 1.105047e+002
2.731970e+002, 1.094670e+002
2.736791e+002, 1.082274e+002
2.741613e+002, 1.074107e+002
2.746434e+002, 1.070946e+002
2.751255e+002, 1.067631e+002
2.756076e+002, 1.062537e+002
2.760897e+002, 1.056249e+002
2.765718e+002, 1.048317e+002
2.770540e+002, 1.038243e+002
2.775361e+002, 1.028999e+002
2.780182e+002, 1.025358e+002
2.785003e+002, 1.028566e+002
2.789824e+002, 1.028783e+002
2.794645e+002, 1.022299e+002
2.799467e+002, 1.012467e+002
2.804288e+002, 1.000463e+002
2.809109e+002, 9.865539e+001
2.813930e+002, 9.725410e+001
2.818751e+002, 9.597211e+001
2.823572e+002, 9.480010e+001
2.828394e+002, 9.389310e+001
2.833215e+002, 9.365822e+001
2.838036e+002, 9.339584e+001
2.842857e+002, 9.263470e+001
2.847678e+002, 9.140581e+001
2.852499e+002, 9.011857e+001
2.857321e+002, 8.914534e+001
2.862142e+002, 8.849667e+001
2.866963e+002, 8.784376e+001
2.871784e+002, 8.705833e+001
2.876605e+002, 8.639463e+001
2.881426e+002, 8.600882e+001
2.886248e+002, 8.585275e+001
2.891069e+002, 8.577133e+001
2.895890e+002, 8.572778e+001
2.900711e+002, 8.569802e+001
2.905532e+002, 8.535403e+001
2.910353e+002, 8.435770e+001
2.915175e+002, 8.345273e+001
2.919996e+002, 8.294067e+001
2.924817e+002, 8.272013e+001
2.929638e+002, 8.259609e+001
2.934459e+002, 8.246069e+001
2.939280e+002, 8.232446e+001
2.944102e+002, 8.225489e+001
2.948923e+002, 8.237157e+001
2.953744e+002, 8.235976e+001
2.958565e+002, 8.203716e+001
2.963386e+002, 8.157761e+001
2.968207e+002, 8.119675e+001
2.973029e+002, 8.099690e+001
2.977850e+002, 8.094073e+001
2.982671e+002, 8.094711e+001
2.987492e+002, 8.104501e+001
2.992313e+002, 8.115324e+001
2.997134e+002, 8.125534e+001
3.001956e+002, 8.135709e+001
3.006777e+002, 8.150502e+001
3.011598e+002, 8.171825e+001
3.016419e+002, 8.186802e+001
3.021240e+002, 8.166017e+001
3.026061e+002, 8.086611e+001
3.030883e+002, 8.036700e+001
3.035704e+002, 8.047984e+001
3.040525e+002, 8.077895e+001
3.045346e+002, 8.101855e+001
3.050167e+002, 8.114152e+001
3.054988e+002, 8.120232e+001
3.059810e+002, 8.126099e+001
3.064631e+002, 8.131774e+001
3.069452e+002, 8.136705e+001
3.074273e+002, 8.146545e+001
3.079094e+002, 8.150674e+001
3.083915e+002, 8.135308e+001
3.088737e+002, 8.105914e+001
3.093558e+002, 8.085494e+001
3.098379e+002, 8.105464e+001
3.103200e+002, 8.169714e+001
3.108021e+002, 8.193840e+001
3.112842e+002, 8.137218e+001
3.117664e+002, 8.078785e+001
3.122485e+002, 8.048828e+001
3.127306e+002, 8.039108e+001
3.132127e+002, 8.026758e+001
3.136948e+002, 7.993891e+001
3.141769e+002, 7.945717e+001
3.146591e+002, 7.914980e+001
3.151412e+002, 7.917471e+001
3.156233e+002, 7.916226e+001
3.161054e+002, 7.898286e+001
3.165875e+002, 7.871374e+001
3.170696e+002, 7.846886e+001
3.175518e+002, 7.831179e+001
3.180339e+002, 7.818400e+001
3.185160e+002, 7.791245e+001
3.189981e+002, 7.735967e+001
3.194802e+002, 7.695314e+001
3.199623e+002, 7.691557e+001
3.204445e+002, 7.697151e+001
3.209266e+002, 7.688147e+001
3.214087e+002, 7.657202e+001
3.218908e+002, 7.613926e+001
3.223729e+002, 7.569414e+001
3.228550e+002, 7.519231e+001
3.233372e+002, 7.483461e+001
3.238193e+002, 7.476008e+001
3.243014e+002, 7.475212e+001
3.247835e+002, 7.469498e+001
3.252656e+002, 7.457424e+001
3.257477e+002, 7.443801e+001
3.262299e+002, 7.432976e+001
3.267120e+002, 7.424991e+001
3.271941e+002, 7.418993e+001
3.276762e+002, 7.419287e+001
3.281583e+002, 7.417043e+001
3.286404e+002, 7.410670e+001
3.291226e+002, 7.398807e+001
3.296047e+002, 7.377628e+001
3.300868e+002, 7.336328e+001
3.305689e+002, 7.281572e+001
3.310510e+002, 7.262279e+001
3.315331e+002, 7.309841e+001
3.320153e+002, 7.346673e+001
3.324974e+002, 7.336668e+001
3.329795e+002, 7.301451e+001
3.334616e+002, 7.271604e+001
3.339437e+002, 7.261031e+001
3.344258e+002, 7.264953e+001
3.349080e+002, 7.273961e+001
3.353901e+002, 7.290392e+001
3.358722e+002, 7.306394e+001
3.363543e+002, 7.322274e+001
3.368365e+002, 7.335667e+001
3.373186e+002, 7.344595e+001
3.378007e+002, 7.348544e+001
3.382828e+002, 7.347558e+001
3.387649e+002, 7.334629e+001
3.392470e+002, 7.304991e+001
3.397292e+002, 7.299995e+001
3.402113e+002, 7.350350e+001
3.406934e+002, 7.411283e+001
3.411755e+002, 7.458144e+001
3.416576e+002, 7.488718e+001
3.421397e+002, 7.508964e+001
3.426219e+002, 7.518340e+001
3.431040e+002, 7.518354e+001
3.435861e+002, 7.525986e+001
3.440682e+002, 7.543115e+001
3.445503e+002, 7.567479e+001
3.450324e+002, 7.603829e+001
3.455146e+002, 7.645708e+001
3.459967e+002, 7.676690e+001
3.464788e+002, 7.681566e+001
3.469609e+002, 7.671693e+001
3.474430e+002, 7.676841e+001
3.479251e+002, 7.703863e+001
3.484073e+002, 7.726921e+001
3.488894e+002, 7.730222e+001
3.493715e+002, 7.723314e+001
3.498536e+002, 7.715550e+001
3.503357e+002, 7.707171e+001
3.508178e+002, 7.703748e+001
3.513000e+002, 7.715508e+001
3.517821e+002, 7.743491e+001
3.522642e+002, 7.767259e+001
3.527463e+002, 7.781847e+001
3.532284e+002, 7.787280e+001
3.537105e+002, 7.782109e+001
3.541927e+002, 7.765307e+001
3.546748e+002, 7.748237e+001
3.551569e+002, 7.735859e+001
3.556390e+002, 7.728982e+001
3.561211e+002, 7.733361e+001
3.566032e+002, 7.756860e+001
3.570854e+002, 7.780059e+001
3.575675e+002, 7.780337e+001
3.580496e+002, 7.762719e+001
3.585317e+002, 7.751949e+001
3.590138e+002, 7.765437e+001
3.594959e+002, 7.788766e+001
3.599781e+002, 7.795440e+001
3.604602e+002, 7.780978e+001
3.609423e+002, 7.770136e+001
3.614244e+002, 7.782470e+001
3.619065e+002, 7.811472e+001
3.623886e+002, 7.841293e+001
3.628708e+002, 7.875644e+001
3.633529e+002, 7.904238e+001
3.638350e+002, 7.913462e+001
3.643171e+002, 7.906380e+001
3.647992e+002, 7.906172e+001
3.652813e+002, 7.929415e+001
3.657635e+002, 7.958540e+001
3.662456e+002, 7.954073e+001
3.667277e+002, 7.899550e+001
3.672098e+002, 7.863856e+001
3.676919e+002, 7.899412e+001
3.681740e+002, 7.968688e+001
3.686562e+002, 7.996907e+001
3.691383e+002, 7.961868e+001
3.696204e+002, 7.902231e+001
3.701025e+002, 7.861199e+001
3.705846e+002, 7.839283e+001
3.710667e+002, 7.827171e+001
3.715489e+002, 7.834901e+001
3.720310e+002, 7.844823e+001
3.725131e+002, 7.836084e+001
3.729952e+002, 7.809615e+001
3.734773e+002, 7.790359e+001
3.739594e+002, 7.801407e+001
3.744416e+002, 7.837697e+001
3.749237e+002, 7.844724e+001
3.754058e+002, 7.798628e+001
3.758879e+002, 7.752344e+001
3.763700e+002, 7.728407e+001
3.768521e+002, 7.719606e+001
3.773343e+002, 7.709829e+001
3.778164e+002, 7.691487e+001
3.782985e+002, 7.669878e+001
3.787806e+002, 7.657636e+001
3.792627e+002, 7.660446e+001
3.797448e+002, 7.663154e+001
3.802270e+002, 7.670892e+001
3.807091e+002, 7.674658e+001
3.811912e+002, 7.662395e+001
3.816733e+002, 7.633272e+001
3.821554e+002, 7.600667e+001
3.826375e+002, 7.579119e+001
3.831197e+002, 7.570533e+001
3.836018e+002, 7.564703e+001
3.840839e+002, 7.566750e+001
3.845660e+002, 7.566145e+001
3.850481e+002, 7.557696e+001
3.855302e+002, 7.542573e+001
3.860124e+002, 7.524450e+001
3.864945e+002, 7.505599e+001
3.869766e+002, 7.485976e+001
3.874587e+002, 7.464977e+001
3.879408e+002, 7.437652e+001
3.884229e+002, 7.415180e+001
3.889051e+002, 7.403418e+001
3.893872e+002, 7.394819e+001
3.898693e+002, 7.384280e+001
3.903514e+002, 7.369414e+001
3.908335e+002, 7.345860e+001
3.913156e+002, 7.305359e+001
3.917978e+002, 7.241439e+001
3.922799e+002, 7.177774e+001
3.927620e+002, 7.115586e+001
3.932441e+002, 7.052569e+001
3.937262e+002, 6.983645e+001
3.942083e+002, 6.911491e+001
3.946905e+002, 6.846175e+001
3.951726e+002, 6.798801e+001
3.956547e+002, 6.766422e+001
3.961368e+002, 6.717153e+001
3.966189e+002, 6.636776e+001
3.971010e+002, 6.559858e+001
3.975832e+002, 6.493685e+001
3.980653e+002, 6.437674e+001
3.985474e+002, 6.393688e+001
3.990295e+002, 6.363876e+001
3.995116e+002, 6.338295e+001
3.999937e+002, 6.298357e+001
4.004759e+002, 6.240089e+001
4.009580e+002, 6.188374e+001
4.014401e+002, 6.149184e+001
4.019222e+002, 6.119416e+001
4.024043e+002, 6.101757e+001
4.028864e+002, 6.094957e+001
4.033686e+002, 6.085201e+001
4.038507e+002, 6.059764e+001
4.043328e+002, 6.022282e+001
4.048149e+002, 5.987226e+001
4.052970e+002, 5.952860e+001
4.057791e+002, 5.927432e+001
4.062613e+002, 5.923972e+001
4.067434e+002, 5.932830e+001
4.072255e+002, 5.934524e+001
4.077076e+002, 5.921786e+001
4.081897e+002, 5.900756e+001
4.086718e+002, 5.873677e+001
4.091540e+002, 5.841005e+001
4.096361e+002, 5.818901e+001
4.101182e+002, 5.821438e+001
4.106003e+002, 5.832449e+001
4.110824e+002, 5.825447e+001
4.115645e+002, 5.799684e+001
4.120467e+002, 5.761013e+001
4.125288e+002, 5.692179e+001
4.130109e+002, 5.616781e+001
4.134930e+002, 5.584394e+001
4.139751e+002, 5.608270e+001
4.144572e+002, 5.643040e+001
4.149394e+002, 5.642849e+001
4.154215e+002, 5.605490e+001
4.159036e+002, 5.568359e+001
4.163857e+002, 5.519604e+001
4.168678e+002, 5.482963e+001
4.173499e+002, 5.486832e+001
4.178321e+002, 5.519395e+001
4.183142e+002, 5.536515e+001
4.187963e+002, 5.510522e+001
4.192784e+002, 5.457390e+001
4.197605e+002, 5.432344e+001
4.202426e+002, 5.455533e+001
4.207248e+002, 5.477793e+001
4.212069e+002, 5.501112e+001
4.216890e+002, 5.517375e+001
4.221711e+002, 5.513945e+001
4.226532e+002, 5.489729e+001
4.231353e+002, 5.459701e+001
4.236175e+002, 5.441392e+001
4.240996e+002, 5.436557e+001
4.245817e+002, 5.435131e+001
4.250638e+002, 5.435974e+001
4.255459e+002, 5.440830e+001
4.260280e+002, 5.451042e+001
4.265102e+002, 5.465768e+001
4.269923e+002, 5.483315e+001
4.274744e+002, 5.502641e+001
4.279565e+002, 5.524205e+001
4.284386e+002, 5.550969e+001
4.289207e+002, 5.596354e+001
4.294029e+002, 5.621583e+001
4.298850e+002, 5.601138e+001
4.303671e+002, 5.575259e+001
4.308492e+002, 5.578310e+001
4.313313e+002, 5.614797e+001
4.318134e+002, 5.661428e+001
4.322956e+002, 5.691950e+001
4.327777e+002, 5.705745e+001
4.332598e+002, 5.732125e+001
4.337419e+002, 5.781367e+001
4.342241e+002, 5.830621e+001
4.347062e+002, 5.866226e+001
4.351883e+002, 5.894617e+001
4.356704e+002, 5.928765e+001
4.361525e+002, 5.977351e+001
4.366346e+002, 6.030276e+001
4.371168e+002, 6.068437e+001
4.375989e+002, 6.089620e+001
4.380810e+002, 6.119102e+001
4.385631e+002, 6.170655e+001
4.390452e+002, 6.230969e+001
4.395273e+002, 6.285177e+001
4.400095e+002, 6.332481e+001
4.404916e+002, 6.377809e+001
4.409737e+002, 6.421185e+001
4.414558e+002, 6.464986e+001
4.419379e+002, 6.516621e+001
4.424200e+002, 6.579092e+001
4.429022e+002, 6.636957e+001
4.433843e+002, 6.675149e+001
4.438664e+002, 6.696815e+001
4.443485e+002, 6.724557e+001
4.448306e+002, 6.774248e+001
4.453127e+002, 6.816239e+001
4.457949e+002, 6.825760e+001
4.462770e+002, 6.813859e+001
4.467591e+002, 6.813671e+001
4.472412e+002, 6.841450e+001
4.477233e+002, 6.875793e+001
4.482054e+002, 6.873771e+001
4.486876e+002, 6.808971e+001
4.491697e+002, 6.767867e+001
4.496518e+002, 6.783858e+001
4.501339e+002, 6.803072e+001
4.506160e+002, 6.776492e+001
4.510981e+002, 6.708600e+001
4.515803e+002, 6.641710e+001
4.520624e+002, 6.611337e+001
4.525445e+002, 6.614268e+001
4.530266e+002, 6.609002e+001
4.535087e+002, 6.572531e+001
4.539908e+002, 6.554731e+001
4.544730e+002, 6.589512e+001
4.549551e+002, 6.634518e+001
4.554372e+002, 6.635056e+001
4.559193e+002, 6.576663e+001
4.564014e+002, 6.500623e+001
4.568835e+002, 6.466400e+001
4.573657e+002, 6.483388e+001
4.578478e+002, 6.500030e+001
4.583299e+002, 6.520140e+001
4.588120e+002, 6.534450e+001
4.592941e+002, 6.533810e+001
4.597762e+002, 6.524180e+001
4.602584e+002, 6.520618e+001
4.607405e+002, 6.535338e+001
4.612226e+002, 6.556577e+001
4.617047e+002, 6.554909e+001
4.621868e+002, 6.523228e+001
4.626689e+002, 6.503725e+001
4.631511e+002, 6.529012e+001
4.636332e+002, 6.561140e+001
4.641153e+002, 6.557971e+001
4.645974e+002, 6.514321e+001
4.650795e+002, 6.473693e+001
4.655616e+002, 6.465297e+001
4.660438e+002, 6.478221e+001
4.665259e+002, 6.490661e+001
4.670080e+002, 6.501357e+001
4.674901e+002, 6.503323e+001
4.679722e+002, 6.484882e+001
4.684543e+002, 6.451873e+001
4.689365e+002, 6.433421e+001
4.694186e+002, 6.441842e+001
4.699007e+002, 6.453725e+001
4.703828e+002, 6.459785e+001
4.708649e+002, 6.460189e+001
4.713470e+002, 6.452935e+001
4.718292e+002, 6.436513e+001
4.723113e+002, 6.419322e+001
4.727934e+002, 6.414538e+001
4.732755e+002, 6.427341e+001
4.737576e+002, 6.438717e+001
4.742397e+002, 6.436445e+001
4.747219e+002, 6.443374e+001
4.752040e+002, 6.482161e+001
4.756861e+002, 6.542927e+001
4.761682e+002, 6.595409e+001
4.766503e+002, 6.618800e+001
4.771324e+002, 6.623001e+001
4.776146e+002, 6.645763e+001
4.780967e+002, 6.692746e+001
4.785788e+002, 6.751453e+001
4.790609e+002, 6.830309e+001
4.795430e+002, 6.912376e+001
4.800251e+002, 6.985402e+001
4.805073e+002, 7.047449e+001
4.809894e+002, 7.104530e+001
4.814715e+002, 7.160085e+001
4.819536e+002, 7.214568e+001
4.824357e+002, 7.269641e+001
4.829178e+002, 7.306685e+001
4.834000e+002, 7.379107e+001
4.838821e+002, 7.559675e+001
4.843642e+002, 7.769243e+001
4.848463e+002, 7.893111e+001
4.853284e+002, 7.883790e+001
4.858105e+002, 7.843921e+001
4.862927e+002, 7.868762e+001
4.867748e+002, 7.951084e+001
4.872569e+002, 8.050252e+001
4.877390e+002, 8.167392e+001
4.882211e+002, 8.279893e+001
4.887032e+002, 8.352382e+001
4.891854e+002, 8.393199e+001
4.896675e+002, 8.447996e+001
4.901496e+002, 8.526012e+001
4.906317e+002, 8.620850e+001
4.911138e+002, 8.730018e+001
4.915959e+002, 8.851479e+001
4.920781e+002, 8.980147e+001
4.925602e+002, 9.113384e+001
4.930423e+002, 9.251401e+001
4.935244e+002, 9.395351e+001
4.940065e+002, 9.541381e+001
4.944886e+002, 9.701610e+001
4.949708e+002, 9.874233e+001
4.954529e+002, 1.006247e+002
4.959350e+002, 1.027673e+002
4.964171e+002, 1.051142e+002
4.968992e+002, 1.074775e+002
4.973813e+002, 1.097187e+002
4.978635e+002, 1.118482e+002
4.983456e+002, 1.139731e+002
4.988277e+002, 1.159057e+002
4.993098e+002, 1.181522e+002
4.997919e+002, 1.209901e+002
5.002740e+002, 1.240160e+002
5.007562e+002, 1.268657e+002
5.012383e+002, 1.294869e+002
5.017204e+002, 1.321346e+002
5.022025e+002, 1.350031e+002
5.026846e+002, 1.380894e+002
5.031667e+002, 1.415215e+002
5.036489e+002, 1.455959e+002
5.041310e+002, 1.494216e+002
5.046131e+002, 1.521351e+002
5.050952e+002, 1.544105e+002
5.055773e+002, 1.572811e+002
5.060594e+002, 1.611521e+002
5.065416e+002, 1.652147e+002
5.070237e+002, 1.688739e+002
5.075058e+002, 1.721762e+002
5.079879e+002, 1.753090e+002
5.084700e+002, 1.783474e+002
5.089521e+002, 1.810995e+002
5.094343e+002, 1.833375e+002
5.099164e+002, 1.850371e+002
5.103985e+002, 1.865564e+002
5.108806e+002, 1.883902e+002
5.113627e+002, 1.895787e+002
5.118448e+002, 1.895523e+002
5.123270e+002, 1.884636e+002
5.128091e+002, 1.866316e+002
5.132912e+002, 1.841832e+002
5.137733e+002, 1.812531e+002
5.142554e+002, 1.780795e+002
5.147375e+002, 1.747507e+002
5.152197e+002, 1.709044e+002
5.157018e+002, 1.662733e+002
5.161839e+002, 1.614630e+002
5.166660e+002, 1.567384e+002
5.171481e+002, 1.520743e+002
5.176302e+002, 1.473378e+002
5.181124e+002, 1.424239e+002
5.185945e+002, 1.374323e+002
5.190766e+002, 1.326418e+002
5.195587e+002, 1.280340e+002
5.200408e+002, 1.236577e+002
5.205229e+002, 1.195796e+002
5.210051e+002, 1.157221e+002
5.214872e+002, 1.120291e+002
5.219693e+002, 1.085202e+002
5.224514e+002, 1.053160e+002
5.229335e+002, 1.026544e+002
5.234156e+002, 1.003132e+002
5.238978e+002, 9.789298e+001
5.243799e+002, 9.537614e+001
5.248620e+002, 9.295777e+001
5.253441e+002, 9.068277e+001
5.258262e+002, 8.862594e+001
5.263083e+002, 8.696424e+001
5.267905e+002, 8.579298e+001
5.272726e+002, 8.466629e+001
5.277547e+002, 8.348386e+001
5.282368e+002, 8.227075e+001
5.287189e+002, 8.102543e+001
5.292010e+002, 7.976630e+001
5.296832e+002, 7.859030e+001
5.301653e+002, 7.756933e+001
5.306474e+002, 7.668838e+001
5.311295e+002, 7.580730e+001
5.316116e+002, 7.491940e+001
5.320938e+002, 7.403694e+001
5.325759e+002, 7.300028e+001
5.330580e+002, 7.206472e+001
5.335401e+002, 7.153018e+001
5.340222e+002, 7.138937e+001
5.345043e+002, 7.130240e+001
5.349865e+002, 7.091904e+001
5.354686e+002, 7.027728e+001
5.359507e+002, 6.985075e+001
5.364328e+002, 6.976951e+001
5.369149e+002, 6.965756e+001
5.373970e+002, 6.936295e+001
5.378792e+002, 6.897736e+001
5.383613e+002, 6.856263e+001
5.388434e+002, 6.812099e+001
5.393255e+002, 6.777095e+001
5.398076e+002, 6.767217e+001
5.402897e+002, 6.772994e+001
5.407719e+002, 6.764358e+001
5.412540e+002, 6.734386e+001
5.417361e+002, 6.715200e+001
5.422182e+002, 6.739753e+001
5.427003e+002, 6.794839e+001
5.431824e+002, 6.815351e+001
5.436646e+002, 6.770627e+001
5.441467e+002, 6.732038e+001
5.446288e+002, 6.732198e+001
5.451109e+002, 6.749004e+001
5.455930e+002, 6.749722e+001
5.460751e+002, 6.728819e+001
5.465573e+002, 6.709586e+001
5.470394e+002, 6.717464e+001
5.475215e+002, 6.753378e+001
5.480036e+002, 6.777975e+001
5.484857e+002, 6.773998e+001
5.489678e+002, 6.778401e+001
5.494500e+002, 6.810795e+001
5.499321e+002, 6.848329e+001
5.504142e+002, 6.864118e+001
5.508963e+002, 6.851878e+001
5.513784e+002, 6.829729e+001
5.518605e+002, 6.810351e+001
5.523427e+002, 6.795035e+001
5.528248e+002, 6.808913e+001
5.533069e+002, 6.872049e+001
5.537890e+002, 6.924716e+001
5.542711e+002, 6.909018e+001
5.547532e+002, 6.868125e+001
5.552354e+002, 6.869484e+001
5.557175e+002, 6.939883e+001
5.561996e+002, 7.010629e+001
5.566817e+002, 7.023214e+001
5.571638e+002, 7.008013e+001
5.576459e+002, 7.032923e+001
5.581281e+002, 7.110814e+001
5.586102e+002, 7.196201e+001
5.590923e+002, 7.248527e+001
5.595744e+002, 7.269978e+001
5.600565e+002, 7.306281e+001
5.605386e+002, 7.358614e+001
5.610208e+002, 7.421362e+001
5.615029e+002, 7.493349e+001
5.619850e+002, 7.575512e+001
5.624671e+002, 7.670127e+001
5.629492e+002, 7.777147e+001
5.634313e+002, 7.893327e+001
5.639135e+002, 8.015386e+001
5.643956e+002, 8.143774e+001
5.648777e+002, 8.278738e+001
5.653598e+002, 8.426781e+001
5.658419e+002, 8.571166e+001
5.663240e+002, 8.688950e+001
5.668062e+002, 8.810826e+001
5.672883e+002, 8.977432e+001
5.677704e+002, 9.197507e+001
5.682525e+002, 9.418841e+001
5.687346e+002, 9.596461e+001
5.692167e+002, 9.744392e+001
5.696989e+002, 9.893150e+001
5.701810e+002, 1.004308e+002
5.706631e+002, 1.022078e+002
5.711452e+002, 1.046222e+002
5.716273e+002, 1.073920e+002
5.721094e+002, 1.095030e+002
5.725916e+002, 1.106962e+002
5.730737e+002, 1.117533e+002
5.735558e+002, 1.128552e+002
5.740379e+002, 1.139442e+002
5.745200e+002, 1.150022e+002
5.750021e+002, 1.159927e+002
5.754843e+002, 1.168001e+002
5.759664e+002, 1.173381e+002
5.764485e+002, 1.176020e+002
5.769306e+002, 1.175563e+002
5.774127e+002, 1.171713e+002
5.778948e+002, 1.164884e+002
5.783770e+002, 1.156715e+002
5.788591e+002, 1.144880e+002
5.793412e+002, 1.126303e+002
5.798233e+002, 1.101662e+002
5.803054e+002, 1.075365e+002
5.807875e+002, 1.050678e+002
5.812697e+002, 1.026653e+002
5.817518e+002, 1.001061e+002
5.822339e+002, 9.736865e+001
5.827161e+002, 9.461362e+001
5.831982e+002, 9.186327e+001
5.836803e+002, 8.918284e+001
5.841624e+002, 8.669231e+001
5.846445e+002, 8.438956e+001
5.851266e+002, 8.208916e+001
5.856088e+002, 7.962698e+001
5.860909e+002, 7.723478e+001
5.865730e+002, 7.508158e+001
5.870551e+002, 7.318221e+001
5.875372e+002, 7.155322e+001
5.880193e+002, 7.023814e+001
5.885015e+002, 6.907777e+001
5.889836e+002, 6.770351e+001
5.894657e+002, 6.588316e+001
5.899478e+002, 6.436333e+001
5.904299e+002, 6.314829e+001
5.909120e+002, 6.218837e+001
5.913942e+002, 6.162594e+001
5.918763e+002, 6.128394e+001
5.923584e+002, 6.083249e+001
5.928405e+002, 6.010972e+001
5.933226e+002, 5.922281e+001
5.938047e+002, 5.825212e+001
5.942869e+002, 5.719890e+001
5.947690e+002, 5.637600e+001
5.952511e+002, 5.586469e+001
5.957332e+002, 5.554119e+001
5.962153e+002, 5.543740e+001
5.966974e+002, 5.545824e+001
5.971796e+002, 5.525628e+001
5.976617e+002, 5.460046e+001
5.981438e+002, 5.390261e+001
5.986259e+002, 5.335950e+001
5.991080e+002, 5.293216e+001
5.995901e+002, 5.254932e+001
6.000723e+002, 5.219452e+001
6.005544e+002, 5.190709e+001
6.010365e+002, 5.173123e+001
6.015186e+002, 5.166860e+001
6.020007e+002, 5.166116e+001
6.024828e+002, 5.192034e+001
6.029650e+002, 5.197073e+001
6.034471e+002, 5.151101e+001
6.039292e+002, 5.093731e+001
6.044113e+002, 5.066026e+001
6.048934e+002, 5.074218e+001
6.053755e+002, 5.091759e+001
6.058577e+002, 5.097154e+001
6.063398e+002, 5.093281e+001
6.068219e+002, 5.090998e+001
6.073040e+002, 5.090878e+001
6.077861e+002, 5.088803e+001
6.082682e+002, 5.080759e+001
6.087504e+002, 5.071202e+001
6.092325e+002, 5.068573e+001
6.097146e+002, 5.074471e+001
6.101967e+002, 5.077945e+001
6.106788e+002, 5.073169e+001
6.111609e+002, 5.066953e+001
6.116431e+002, 5.065984e+001
6.121252e+002, 5.069209e+001
6.126073e+002, 5.071926e+001
6.130894e+002, 5.071746e+001
6.135715e+002, 5.069102e+001
6.140536e+002, 5.064437e+001
6.145358e+002, 5.055680e+001
6.150179e+002, 5.050212e+001
6.155000e+002, 5.041130e+001
6.159821e+002, 5.042439e+001
6.164642e+002, 5.070284e+001
6.169464e+002, 5.111156e+001
6.174285e+002, 5.139089e+001
6.179106e+002, 5.142630e+001
6.183927e+002, 5.136217e+001
6.188748e+002, 5.132012e+001
6.193569e+002, 5.131144e+001
6.198391e+002, 5.141137e+001
6.203212e+002, 5.165149e+001
6.208033e+002, 5.191887e+001
6.212854e+002, 5.212276e+001
6.217675e+002, 5.227435e+001
6.222496e+002, 5.244669e+001
6.227318e+002, 5.268563e+001
6.232139e+002, 5.288437e+001
6.236960e+002, 5.296206e+001
6.241781e+002, 5.301353e+001
6.246602e+002, 5.315061e+001
6.251423e+002, 5.337600e+001
6.256245e+002, 5.360770e+001
6.261066e+002, 5.377943e+001
6.265887e+002, 5.390480e+001
6.270708e+002, 5.405637e+001
6.275529e+002, 5.426593e+001
6.280350e+002, 5.442257e+001
6.285172e+002, 5.445317e+001
6.289993e+002, 5.446305e+001
6.294814e+002, 5.451318e+001
6.299635e+002, 5.460420e+001
6.304456e+002, 5.471545e+001
6.309277e+002, 5.486353e+001
6.314099e+002, 5.500678e+001
6.318920e+002, 5.511058e+001
6.323741e+002, 5.517232e+001
6.328562e+002, 5.518431e+001
6.333383e+002, 5.514671e+001
6.338204e+002, 5.503506e+001
6.343026e+002, 5.477830e+001
6.347847e+002, 5.433125e+001
6.352668e+002, 5.418111e+001
6.357489e+002, 5.467818e+001
6.362310e+002, 5.500898e+001
6.367131e+002, 5.485566e+001
6.371953e+002, 5.445029e+001
6.376774e+002, 5.402356e+001
6.381595e+002, 5.364910e+001
6.386416e+002, 5.334842e+001
6.391237e+002, 5.319995e+001
6.396058e+002, 5.314856e+001
6.400880e+002, 5.285676e+001
6.405701e+002, 5.223578e+001
6.410522e+002, 5.174266e+001
6.415343e+002, 5.167048e+001
6.420164e+002, 5.172475e+001
6.424985e+002, 5.146828e+001
6.429807e+002, 5.087314e+001
6.434628e+002, 5.039408e+001
6.439449e+002, 5.025205e+001
6.444270e+002, 5.019402e+001
6.449091e+002, 4.997591e+001
6.453912e+002, 4.966871e+001
6.458734e+002, 4.951457e+001
6.463555e+002, 4.961266e+001
6.468376e+002, 4.978145e+001
6.473197e+002, 4.974435e+001
6.478018e+002, 4.947715e+001
6.482839e+002, 4.913417e+001
6.487661e+002, 4.857718e+001
6.492482e+002, 4.811423e+001
6.497303e+002, 4.783625e+001
6.502124e+002, 4.770113e+001
6.506945e+002, 4.770219e+001
6.511766e+002, 4.784060e+001
6.516588e+002, 4.791930e+001
6.521409e+002, 4.770598e+001
6.526230e+002, 4.735244e+001
6.531051e+002, 4.721768e+001
6.535872e+002, 4.731356e+001
6.540693e+002, 4.731248e+001
6.545515e+002, 4.701737e+001
6.550336e+002, 4.656785e+001
6.555157e+002, 4.625000e+001
6.559978e+002, 4.610882e+001
6.564799e+002, 4.600872e+001
6.569620e+002, 4.606136e+001
6.574442e+002, 4.604604e+001
6.579263e+002, 4.574718e+001
6.584084e+002, 4.531980e+001
6.588905e+002, 4.505189e+001
6.593726e+002, 4.506102e+001
6.598547e+002, 4.518790e+001
6.603369e+002, 4.529060e+001
6.608190e+002, 4.535662e+001
6.613011e+002, 4.514322e+001
6.617832e+002, 4.450825e+001
6.622653e+002, 4.395544e+001
6.627474e+002, 4.376979e+001
6.632296e+002, 4.385088e+001
6.637117e+002, 4.401264e+001
6.641938e+002, 4.431087e+001
6.646759e+002, 4.449383e+001
6.651580e+002, 4.443079e+001
6.656401e+002, 4.425896e+001
6.661223e+002, 4.404702e+001
6.666044e+002, 4.383710e+001
6.670865e+002, 4.371985e+001
6.675686e+002, 4.374366e+001
6.680507e+002, 4.385484e+001
6.685328e+002, 4.397650e+001
6.690150e+002, 4.414471e+001
6.694971e+002, 4.415786e+001
6.699792e+002, 4.384761e+001
6.704613e+002, 4.359262e+001
6.709434e+002, 4.365925e+001
6.714255e+002, 4.384341e+001
6.719077e+002, 4.380635e+001
6.723898e+002, 4.343364e+001
6.728719e+002, 4.307096e+001
6.733540e+002, 4.299738e+001
6.738361e+002, 4.304498e+001
6.743182e+002, 4.292969e+001
6.748004e+002, 4.265097e+001
6.752825e+002, 4.241039e+001
6.757646e+002, 4.232788e+001
6.762467e+002, 4.233740e+001
6.767288e+002, 4.228071e+001
6.772109e+002, 4.208893e+001
6.776931e+002, 4.199301e+001
6.781752e+002, 4.207592e+001
6.786573e+002, 4.215856e+001
6.791394e+002, 4.216577e+001
6.796215e+002, 4.212024e+001
6.801036e+002, 4.206527e+001
6.805858e+002, 4.201539e+001
6.810679e+002, 4.195435e+001
6.815500e+002, 4.180631e+001
6.820321e+002, 4.163957e+001
6.825142e+002, 4.170525e+001
6.829963e+002, 4.203650e+001
6.834785e+002, 4.230596e+001
6.839606e+002, 4.232898e+001
6.844427e+002, 4.218014e+001
6.849248e+002, 4.202249e+001
6.854069e+002, 4.182487e+001
6.858890e+002, 4.169663e+001
6.863712e+002, 4.172885e+001
6.868533e+002, 4.174370e+001
6.873354e+002, 4.156984e+001
6.878175e+002, 4.133002e+001
6.882996e+002, 4.128666e+001
6.887817e+002, 4.153538e+001
6.892639e+002, 4.181791e+001
6.897460e+002, 4.181520e+001
6.902281e+002, 4.156240e+001
6.907102e+002, 4.124396e+001
6.911923e+002, 4.081364e+001
6.916744e+002, 4.059170e+001
6.921566e+002, 4.087752e+001
6.926387e+002, 4.137238e+001
6.931208e+002, 4.144106e+001
6.936029e+002, 4.096504e+001
6.940850e+002, 4.065353e+001
6.945671e+002, 4.073524e+001
6.950493e+002, 4.090592e+001
6.955314e+002, 4.107124e+001
6.960135e+002, 4.115494e+001
6.964956e+002, 4.095887e+001
6.969777e+002, 4.043555e+001
6.974598e+002, 3.995152e+001
6.979420e+002, 4.010400e+001
6.984241e+002, 4.085213e+001
6.989062e+002, 4.106847e+001
6.993883e+002, 4.053288e+001
6.998704e+002, 4.008493e+001
7.003525e+002, 4.016402e+001
7.008347e+002, 4.046058e+001
7.013168e+002, 4.052805e+001
7.017989e+002, 4.033740e+001
7.022810e+002, 4.024522e+001
7.027631e+002, 4.049293e+001
7.032452e+002, 4.073439e+001
7.037274e+002, 4.068157e+001
7.042095e+002, 4.044422e+001
7.046916e+002, 4.023375e+001
7.051737e+002, 4.012553e+001
7.056558e+002, 4.010799e+001
7.061379e+002, 4.016594e+001
7.066201e+002, 4.030083e+001
7.071022e+002, 4.057534e+001
7.075843e+002, 4.111876e+001
7.080664e+002, 4.149775e+001
7.085485e+002, 4.150742e+001
7.090306e+002, 4.133761e+001
7.095128e+002, 4.109200e+001
7.099949e+002, 4.079040e+001
7.104770e+002, 4.063010e+001
7.109591e+002, 4.077937e+001
7.114412e+002, 4.098963e+001
7.119233e+002, 4.113056e+001
7.124055e+002, 4.118908e+001
7.128876e+002, 4.106208e+001
7.133697e+002, 4.075905e+001
7.138518e+002, 4.060658e+001
7.143339e+002, 4.099395e+001
7.148160e+002, 4.179132e+001
7.152982e+002, 4.198507e+001
7.157803e+002, 4.127264e+001
7.162624e+002, 4.066308e+001
7.167445e+002, 4.042428e+001
7.172266e+002, 4.030219e+001
7.177087e+002, 4.008955e+001
7.181909e+002, 3.983123e+001
7.186730e+002, 3.973996e+001
7.191551e+002, 4.000859e+001
7.196372e+002, 4.029110e+001
7.201193e+002, 4.030361e+001
7.206014e+002, 4.018893e+001
7.210836e+002, 4.018593e+001
7.215657e+002, 4.033114e+001
7.220478e+002, 4.055721e+001
7.225299e+002, 4.083577e+001
7.230120e+002, 4.110583e+001
7.234941e+002, 4.111297e+001
7.239763e+002, 4.071876e+001
7.244584e+002, 4.044801e+001
7.249405e+002, 4.042484e+001
7.254226e+002, 4.046006e+001
7.259047e+002, 4.048323e+001
7.263868e+002, 4.048466e+001
7.268690e+002, 4.043514e+001
7.273511e+002, 4.029280e+001
7.278332e+002, 4.020272e+001
7.283153e+002, 4.031865e+001
7.287974e+002, 4.050147e+001
7.292795e+002, 4.054025e+001
7.297617e+002, 4.044646e+001
7.302438e+002, 4.038567e+001
7.307259e+002, 4.045002e+001
7.312080e+002, 4.058286e+001
7.316901e+002, 4.067131e+001
7.321722e+002, 4.070527e+001
7.326544e+002, 4.073597e+001
7.331365e+002, 4.077582e+001
7.336186e+002, 4.079427e+001
7.341007e+002, 4.072242e+001
7.345828e+002, 4.065074e+001
7.350649e+002, 4.072231e+001
7.355471e+002, 4.096998e+001
7.360292e+002, 4.117448e+001
7.365113e+002, 4.118906e+001
7.369934e+002, 4.114788e+001
7.374755e+002, 4.120962e+001
7.379576e+002, 4.132961e+001
7.384398e+002, 4.133921e+001
7.389219e+002, 4.118259e+001
7.394040e+002, 4.102080e+001
7.398861e+002, 4.108173e+001
7.403682e+002, 4.135858e+001
7.408503e+002, 4.139648e+001
7.413325e+002, 4.100666e+001
7.418146e+002, 4.077541e+001
7.422967e+002, 4.102747e+001
7.427788e+002, 4.138465e+001
7.432609e+002, 4.153817e+001
7.437430e+002, 4.149757e+001
7.442252e+002, 4.143440e+001
7.447073e+002, 4.136830e+001
7.451894e+002, 4.132929e+001
7.456715e+002, 4.135728e+001
7.461536e+002, 4.141754e+001
7.466357e+002, 4.144395e+001
7.471179e+002, 4.143354e+001
7.476000e+002, 4.146013e+001
7.480821e+002, 4.159803e+001
7.485642e+002, 4.178024e+001
7.490463e+002, 4.175399e+001
7.495284e+002, 4.144516e+001
7.500106e+002, 4.126666e+001
7.504927e+002, 4.128796e+001
7.509748e+002, 4.142979e+001
7.514569e+002, 4.172723e+001
7.519390e+002, 4.209212e+001
7.524211e+002, 4.233355e+001
7.529033e+002, 4.242007e+001
7.533854e+002, 4.240973e+001
7.538675e+002, 4.221240e+001
7.543496e+002, 4.201247e+001
7.548317e+002, 4.199564e+001
7.553138e+002, 4.212999e+001
7.557960e+002, 4.229958e+001
7.562781e+002, 4.245134e+001
7.567602e+002, 4.256993e+001
7.572423e+002, 4.262812e+001
7.577244e+002, 4.262689e+001
7.582065e+002, 4.260527e+001
7.586887e+002, 4.254725e+001
7.591708e+002, 4.252254e+001
7.596529e+002, 4.254333e+001
7.601350e+002, 4.262841e+001
7.606171e+002, 4.285978e+001
7.610992e+002, 4.326062e+001
7.615814e+002, 4.348956e+001
7.620635e+002, 4.334667e+001
7.625456e+002, 4.320276e+001
7.630277e+002, 4.328168e+001
7.635098e+002, 4.343164e+001
7.639919e+002, 4.339384e+001
7.644741e+002, 4.316785e+001
7.649562e+002, 4.304990e+001
7.654383e+002, 4.333141e+001
7.659204e+002, 4.379587e+001
7.664025e+002, 4.390182e+001
7.668846e+002, 4.366469e+001
7.673668e+002, 4.356152e+001
7.678489e+002, 4.370279e+001
7.683310e+002, 4.396515e+001
7.688131e+002, 4.429692e+001
7.692952e+002, 4.466409e+001
7.697773e+002, 4.487370e+001
7.702595e+002, 4.480526e+001
7.707416e+002, 4.476343e+001
7.712237e+002, 4.481374e+001
7.717058e+002, 4.484988e+001
7.721879e+002, 4.474559e+001
7.726700e+002, 4.458724e+001
7.731522e+002, 4.456685e+001
7.736343e+002, 4.476318e+001
7.741164e+002, 4.501168e+001
7.745985e+002, 4.515169e+001
7.750806e+002, 4.522989e+001
7.755627e+002, 4.534718e+001
7.760449e+002, 4.550853e+001
7.765270e+002, 4.569880e+001
7.770091e+002, 4.591571e+001
7.774912e+002, 4.614376e+001
7.779733e+002, 4.637207e+001
7.784554e+002, 4.661999e+001
7.789376e+002, 4.671754e+001
7.794197e+002, 4.644957e+001
7.799019e+002, 4.632784e+001
7.803840e+002, 4.650756e+001
7.808661e+002, 4.683471e+001
7.813482e+002, 4.726483e+001
7.818303e+002, 4.774079e+001
7.823124e+002, 4.802348e+001
7.827946e+002, 4.785179e+001
7.832767e+002, 4.765094e+001
7.837588e+002, 4.783309e+001
7.842409e+002, 4.820277e+001
7.847230e+002, 4.840875e+001
7.852051e+002, 4.840718e+001
7.856873e+002, 4.833830e+001
7.861694e+002, 4.828635e+001
7.866515e+002, 4.828242e+001
7.871336e+002, 4.842927e+001
7.876157e+002, 4.876338e+001
7.880978e+002, 4.905217e+001
7.885800e+002, 4.931836e+001
7.890621e+002, 4.947155e+001
7.895442e+002, 4.933984e+001
7.900263e+002, 4.911714e+001
7.905084e+002, 4.912566e+001
7.909905e+002, 4.942057e+001
7.914727e+002, 4.972905e+001
7.919548e+002, 5.003816e+001
7.924369e+002, 5.028510e+001
7.929190e+002, 5.042999e+001
7.934011e+002, 5.048683e+001
7.938832e+002, 5.042683e+001
7.943654e+002, 5.027398e+001
7.948475e+002, 5.021719e+001
7.953296e+002, 5.047843e+001
7.958117e+002, 5.091448e+001
7.962938e+002, 5.112386e+001
7.967759e+002, 5.111016e+001
7.972581e+002, 5.110149e+001
7.977402e+002, 5.113861e+001
7.982223e+002, 5.123875e+001
7.987044e+002, 5.143938e+001
7.991865e+002, 5.171538e+001
7.996686e+002, 5.191693e+001
8.001508e+002, 5.199331e+001
8.006329e+002, 5.206679e+001
8.011150e+002, 5.205483e+001
8.015971e+002, 5.212447e+001
8.020792e+002, 5.244024e+001
8.025613e+002, 5.288618e+001
8.030435e+002, 5.324613e+001
8.035256e+002, 5.345111e+001
8.040077e+002, 5.363176e+001
8.044898e+002, 5.390491e+001
8.049719e+002, 5.419894e+001
8.054540e+002, 5.441117e+001
8.059362e+002, 5.454906e+001
8.064183e+002, 5.465372e+001
8.069004e+002, 5.474020e+001
8.073825e+002, 5.482437e+001
8.078646e+002, 5.490447e+001
8.083467e+002, 5.499470e+001
8.088289e+002, 5.531049e+001
8.093110e+002, 5.598322e+001
8.097931e+002, 5.652037e+001
8.102752e+002, 5.671007e+001
8.107573e+002, 5.684735e+001
8.112394e+002, 5.721859e+001
8.117216e+002, 5.773188e+001
8.122037e+002, 5.806395e+001
8.126858e+002, 5.801106e+001
8.131679e+002, 5.807241e+001
8.136500e+002, 5.847548e+001
8.141321e+002, 5.900989e+001
8.146143e+002, 5.958699e+001
8.150964e+002, 6.012365e+001
8.155785e+002, 6.044402e+001
8.160606e+002, 6.047926e+001
8.165427e+002, 6.049263e+001
8.170248e+002, 6.087405e+001
8.175070e+002, 6.147665e+001
8.179891e+002, 6.171931e+001
8.184712e+002, 6.159545e+001
8.189533e+002, 6.158055e+001
8.194354e+002, 6.184663e+001
8.199175e+002, 6.226354e+001
8.203997e+002, 6.270918e+001
8.208818e+002, 6.318113e+001
8.213639e+002, 6.353714e+001
8.218460e+002, 6.380507e+001
8.223281e+002, 6.390835e+001
8.228102e+002, 6.356350e+001
8.232924e+002, 6.331268e+001
8.237745e+002, 6.356327e+001
8.242566e+002, 6.419041e+001
8.247387e+002, 6.485963e+001
8.252208e+002, 6.552864e+001
8.257029e+002, 6.606190e+001
8.261851e+002, 6.630065e+001
8.266672e+002, 6.641395e+001
8.271493e+002, 6.654957e+001
8.276314e+002, 6.674223e+001
8.281135e+002, 6.705599e+001
8.285956e+002, 6.751121e+001
8.290778e+002, 6.799239e+001
8.295599e+002, 6.834460e+001
8.300420e+002, 6.859496e+001
8.305241e+002, 6.895338e+001
8.310062e+002, 6.944292e+001
8.314883e+002, 6.986572e+001
8.319705e+002, 7.013836e+001
8.324526e+002, 7.037815e+001
8.329347e+002, 7.066087e+001
8.334168e+002, 7.099815e+001
8.338989e+002, 7.149887e+001
8.343810e+002, 7.245544e+001
8.348632e+002, 7.313673e+001
8.353453e+002, 7.325495e+001
8.358274e+002, 7.329684e+001
8.363095e+002, 7.352245e+001
8.367916e+002, 7.391275e+001
8.372737e+002, 7.442717e+001
8.377559e+002, 7.506687e+001
8.382380e+002, 7.561256e+001
8.387201e+002, 7.575031e+001
8.392022e+002, 7.580346e+001
8.396843e+002, 7.627747e+001
8.401664e+002, 7.705530e+001
8.406486e+002, 7.775851e+001
8.411307e+002, 7.826470e+001
8.416128e+002, 7.858537e+001
8.420949e+002, 7.867666e+001
8.425770e+002, 7.864330e+001
8.430591e+002, 7.903275e+001
8.435413e+002, 7.996603e+001
8.440234e+002, 8.070960e+001
8.445055e+002, 8.115271e+001
8.449876e+002, 8.137955e+001
8.454697e+002, 8.136828e+001
8.459518e+002, 8.120068e+001
8.464340e+002, 8.110939e+001
8.469161e+002, 8.109506e+001
8.473982e+002, 8.115170e+001
8.478803e+002, 8.130355e+001
8.483624e+002, 8.150051e+001
8.488445e+002, 8.177647e+001
8.493267e+002, 8.205296e+001
8.498088e+002, 8.219631e+001
8.502909e+002, 8.220422e+001
8.507730e+002, 8.225858e+001
8.512551e+002, 8.253974e+001
8.517372e+002, 8.286457e+001
8.522194e+002, 8.300997e+001
8.527015e+002, 8.302646e+001
8.531836e+002, 8.298750e+001
8.536657e+002, 8.292828e+001
8.541478e+002, 8.302029e+001
8.546299e+002, 8.340246e+001
8.551121e+002, 8.390248e+001
8.555942e+002, 8.411259e+001
8.560763e+002, 8.398827e+001
8.565584e+002, 8.391983e+001
8.570405e+002, 8.389951e+001
8.575226e+002, 8.399733e+001
8.580048e+002, 8.435887e+001
8.584869e+002, 8.475513e+001
8.589690e+002, 8.480977e+001
8.594511e+002, 8.449681e+001
8.599332e+002, 8.431571e+001
8.604153e+002, 8.444331e+001
8.608975e+002, 8.449988e+001
8.613796e+002, 8.423444e+001
8.618617e+002, 8.397193e+001
8.623438e+002, 8.405528e+001
8.628259e+002, 8.439856e+001
8.633080e+002, 8.467361e+001
8.637902e+002, 8.475278e+001
8.642723e+002, 8.471096e+001
8.647544e+002, 8.460995e+001
8.652365e+002, 8.442868e+001
8.657186e+002, 8.412196e+001
8.662007e+002, 8.370245e+001
8.666829e+002, 8.320799e+001
8.671650e+002, 8.265813e+001
8.676471e+002, 8.212209e+001
8.681292e+002, 8.171642e+001
8.686113e+002, 8.139449e+001
8.690934e+002, 8.080851e+001
8.695756e+002, 7.988596e+001
8.700577e+002, 7.926705e+001
8.705398e+002, 7.920398e+001
8.710219e+002, 7.920790e+001
8.715040e+002, 7.891666e+001
8.719861e+002, 7.838544e+001
8.724683e+002, 7.780450e+001
8.729504e+002, 7.712871e+001
8.734325e+002, 7.648872e+001
8.739146e+002, 7.593298e+001
8.743967e+002, 7.536302e+001
8.748788e+002, 7.471910e+001
8.753610e+002, 7.404636e+001
8.758431e+002, 7.340459e+001
8.763252e+002, 7.279986e+001
8.768073e+002, 7.221321e+001
8.772894e+002, 7.162975e+001
8.777715e+002, 7.106236e+001
8.782537e+002, 7.052725e+001
8.787358e+002, 7.001375e+001
8.792179e+002, 6.949800e+001
8.797000e+002, 6.898362e+001
8.801821e+002, 6.849590e+001
8.806642e+002, 6.804475e+001
8.811464e+002, 6.766595e+001
8.816285e+002, 6.748937e+001
8.821106e+002, 6.745213e+001
8.825927e+002, 6.716549e+001
8.830748e+002, 6.660818e+001
8.835569e+002, 6.601207e+001
8.840391e+002, 6.544591e+001
8.845212e+002, 6.494547e+001
8.850033e+002, 6.455805e+001
8.854854e+002, 6.427909e+001
8.859675e+002, 6.397143e+001
8.864496e+002, 6.359354e+001
8.869318e+002, 6.327235e+001
8.874139e+002, 6.303868e+001
8.878960e+002, 6.285159e+001
8.883781e+002, 6.280254e+001
8.888602e+002, 6.275215e+001
8.893423e+002, 6.238579e+001
8.898245e+002, 6.157987e+001
8.903066e+002, 6.086120e+001
8.907887e+002, 6.039087e+001
8.912708e+002, 6.003105e+001
8.917529e+002, 5.964613e+001
8.922350e+002, 5.935061e+001
8.927172e+002, 5.941149e+001
8.931993e+002, 5.977736e+001
8.936814e+002, 5.999960e+001
8.941635e+002, 5.976914e+001
8.946456e+002, 5.935402e+001
8.951277e+002, 5.903727e+001
8.956099e+002, 5.879298e+001
8.960920e+002, 5.860767e+001
8.965741e+002, 5.845315e+001
8.970562e+002, 5.815229e+001
8.975383e+002, 5.761021e+001
8.980204e+002, 5.709434e+001
8.985026e+002, 5.704388e+001
8.989847e+002, 5.740984e+001
8.994668e+002, 5.757951e+001
8.999489e+002, 5.755604e+001
9.004310e+002, 5.727399e+001
9.009131e+002, 5.657867e+001
9.013953e+002, 5.594155e+001
9.018774e+002, 5.582572e+001
9.023595e+002, 5.609523e+001
9.028416e+002, 5.613169e+001
9.033237e+002, 5.581034e+001
9.038058e+002, 5.548228e+001
9.042880e+002, 5.500342e+001
9.047701e+002, 5.468579e+001
9.052522e+002, 5.485238e+001
9.057343e+002, 5.513652e+001
9.062164e+002, 5.504554e+001
9.066985e+002, 5.455176e+001
9.071807e+002, 5.409636e+001
9.076628e+002, 5.374377e+001
9.081449e+002, 5.357719e+001
9.086270e+002, 5.386743e+001
9.091091e+002, 5.421067e+001
9.095912e+002, 5.408309e+001
9.100734e+002, 5.357683e+001
9.105555e+002, 5.308987e+001
9.110376e+002, 5.279002e+001
9.115197e+002, 5.273962e+001
9.120018e+002, 5.318538e+001
9.124839e+002, 5.385375e+001
9.129661e+002, 5.418464e+001
9.134482e+002, 5.420177e+001
9.139303e+002, 5.407190e+001
9.144124e+002, 5.384594e+001
9.148945e+002, 5.358886e+001
9.153766e+002, 5.334768e+001
9.158588e+002, 5.314032e+001
9.163409e+002, 5.302194e+001
9.168230e+002, 5.299636e+001
9.173051e+002, 5.300502e+001
9.177872e+002, 5.299800e+001
9.182693e+002, 5.320832e+001
9.187515e+002, 5.390416e+001
9.192336e+002, 5.467179e+001
9.197157e+002, 5.478032e+001
9.201978e+002, 5.411335e+001
9.206799e+002, 5.394912e+001
9.211620e+002, 5.480384e+001
9.216442e+002, 5.544782e+001
9.221263e+002, 5.565845e+001
9.226084e+002, 5.566372e+001
9.230905e+002, 5.544727e+001
9.235726e+002, 5.517589e+001
9.240547e+002, 5.523833e+001
9.245369e+002, 5.579033e+001
9.250190e+002, 5.632012e+001
9.255011e+002, 5.678799e+001
9.259832e+002, 5.702698e+001
9.264653e+002, 5.680121e+001
9.269474e+002, 5.634521e+001
9.274296e+002, 5.597829e+001
9.279117e+002, 5.574654e+001
9.283938e+002, 5.551024e+001
9.288759e+002, 5.516356e+001
9.293580e+002, 5.483943e+001
9.298401e+002, 5.473649e+001
9.303223e+002, 5.473958e+001
9.308044e+002, 5.466005e+001
9.312865e+002, 5.447443e+001
9.317686e+002, 5.415081e+001
9.322507e+002, 5.368182e+001
9.327328e+002, 5.320031e+001
9.332150e+002, 5.284797e+001
9.336971e+002, 5.261430e+001
9.341792e+002, 5.251300e+001
9.346613e+002, 5.254335e+001
9.351434e+002, 5.238091e+001
9.356255e+002, 5.194654e+001
9.361077e+002, 5.144986e+001
9.365898e+002, 5.100964e+001
9.370719e+002, 5.062806e+001
9.375540e+002, 5.032573e+001
9.380361e+002, 5.015250e+001
9.385182e+002, 4.975476e+001
9.390004e+002, 4.883149e+001
9.394825e+002, 4.828564e+001
9.399646e+002, 4.868783e+001
9.404467e+002, 4.924555e+001
9.409288e+002, 4.909910e+001
9.414109e+002, 4.845630e+001
9.418931e+002, 4.826347e+001
9.423752e+002, 4.899258e+001
9.428573e+002, 4.935787e+001
9.433394e+002, 4.901150e+001
9.438215e+002, 4.848623e+001
9.443036e+002, 4.790487e+001
9.447858e+002, 4.738883e+001
9.452679e+002, 4.711064e+001
9.457500e+002, 4.706690e+001
9.462321e+002, 4.701129e+001
9.467142e+002, 4.683711e+001
9.471964e+002, 4.662629e+001
9.476785e+002, 4.638251e+001
9.481606e+002, 4.616111e+001
9.486427e+002, 4.609138e+001
9.491248e+002, 4.609087e+001
9.496069e+002, 4.589997e+001
9.500891e+002, 4.543378e+001
9.505712e+002, 4.498309e+001
9.510533e+002, 4.486213e+001
9.515354e+002, 4.489584e+001
9.520175e+002, 4.480426e+001
9.524996e+002, 4.462336e+001
9.529818e+002, 4.442150e+001
9.534639e+002, 4.422961e+001
9.539460e+002, 4.419054e+001
9.544281e+002, 4.441358e+001
9.549102e+002, 4.466618e+001
9.553923e+002, 4.445225e+001
9.558745e+002, 4.384698e+001
9.563566e+002, 4.362191e+001
9.568387e+002, 4.380603e+001
9.573208e+002, 4.396488e+001
9.578029e+002, 4.398122e+001
9.582850e+002, 4.384638e+001
9.587672e+002, 4.350018e+001
9.592493e+002, 4.304664e+001
9.597314e+002, 4.289793e+001
9.602135e+002, 4.307148e+001
9.606956e+002, 4.356364e+001
9.611777e+002, 4.480421e+001
9.616599e+002, 4.543538e+001
9.621420e+002, 4.449632e+001
9.626241e+002, 4.306231e+001
9.631062e+002, 4.247832e+001
9.635883e+002, 4.274280e+001
9.640704e+002, 4.289354e+001
9.645526e+002, 4.287609e+001
9.650347e+002, 4.283009e+001
9.655168e+002, 4.272626e+001
9.659989e+002, 4.263998e+001
9.664810e+002, 4.260771e+001
9.669631e+002, 4.262132e+001
9.674453e+002, 4.269131e+001
9.679274e+002, 4.282284e+001
9.684095e+002, 4.287129e+001
9.688916e+002, 4.278741e+001
9.693737e+002, 4.262394e+001
9.698558e+002, 4.233750e+001
9.703380e+002, 4.203593e+001
9.708201e+002, 4.177006e+001
9.713022e+002, 4.158732e+001
9.717843e+002, 4.158547e+001
9.722664e+002, 4.180526e+001
9.727485e+002, 4.206972e+001
9.732307e+002, 4.231592e+001
9.737128e+002, 4.249957e+001
9.741949e+002, 4.259496e+001
9.746770e+002, 4.258870e+001
9.751591e+002, 4.239112e+001
9.756412e+002, 4.205235e+001
9.761234e+002, 4.181017e+001
9.766055e+002, 4.179631e+001
9.770876e+002, 4.190834e+001
9.775698e+002, 4.210650e+001
9.780519e+002, 4.230510e+001
9.785340e+002, 4.223914e+001
9.790161e+002, 4.198800e+001
9.794982e+002, 4.196250e+001
9.799803e+002, 4.224633e+001
9.804625e+002, 4.247150e+001
9.809446e+002, 4.233307e+001
9.814267e+002, 4.198345e+001
9.819088e+002, 4.171933e+001
9.823909e+002, 4.154299e+001
9.828730e+002, 4.149616e+001
9.833552e+002, 4.158452e+001
9.838373e+002, 4.168092e+001
9.843194e+002, 4.173974e+001
9.848015e+002, 4.179307e+001
9.852836e+002, 4.189009e+001
9.857657e+002, 4.199858e+001
9.862479e+002, 4.195778e+001
9.867300e+002, 4.175928e+001
9.872121e+002, 4.140384e+001
9.876942e+002, 4.074092e+001
9.881763e+002, 4.039407e+001
9.886584e+002, 4.081969e+001
9.891406e+002, 4.144498e+001
9.896227e+002, 4.145438e+001
9.901048e+002, 4.085542e+001
9.905869e+002, 4.053096e+001
9.910690e+002, 4.063726e+001
9.915511e+002, 4.071475e+001
9.920333e+002, 4.073623e+001
9.925154e+002, 4.069938e+001
9.929975e+002, 4.059025e+001
9.934796e+002, 4.042739e+001
9.939617e+002, 4.021576e+001
9.944438e+002, 3.994185e+001
9.949260e+002, 3.976507e+001
9.954081e+002, 3.971466e+001
9.958902e+002, 3.973511e+001
9.963723e+002, 3.995707e+001
9.968544e+002, 4.010835e+001
9.973365e+002, 3.993178e+001
9.978187e+002, 3.957434e+001
9.983008e+002, 3.932565e+001
9.987829e+002, 3.923417e+001
9.992650e+002, 3.919456e+001
9.997471e+002, 3.916769e+001
1.000229e+003, 3.919514e+001
1.000711e+003, 3.936587e+001
1.001193e+003, 3.954354e+001
1.001676e+003, 3.960376e+001
1.002158e+003, 3.955714e+001
1.002640e+003, 3.944719e+001
1.003122e+003, 3.927757e+001
1.003604e+003, 3.915444e+001
1.004086e+003, 3.920646e+001
1.004568e+003, 3.925687e+001
1.005050e+003, 3.917949e+001
1.005533e+003, 3.900177e+001
1.006015e+003, 3.868838e+001
1.006497e+003, 3.831565e+001
1.006979e+003, 3.811257e+001
1.007461e+003, 3.818855e+001
1.007943e+003, 3.836914e+001
1.008425e+003, 3.858155e+001
1.008907e+003, 3.874841e+001
1.009389e+003, 3.874766e+001
1.009872e+003, 3.862654e+001
1.010354e+003, 3.847441e+001
1.010836e+003, 3.831500e+001
1.011318e+003, 3.813890e+001
1.011800e+003, 3.793302e+001
1.012282e+003, 3.777905e+001
1.012764e+003, 3.781094e+001
1.013246e+003, 3.795477e+001
1.013729e+003, 3.806041e+001
1.014211e+003, 3.813015e+001
1.014693e+003, 3.821915e+001
1.015175e+003, 3.832622e+001
1.015657e+003, 3.831828e+001
1.016139e+003, 3.808870e+001
1.016621e+003, 3.777782e+001
1.017103e+003, 3.763025e+001
1.017585e+003, 3.761224e+001
1.018068e+003, 3.757273e+001
1.018550e+003, 3.751102e+001
1.019032e+003, 3.745337e+001
1.019514e+003, 3.740800e+001
1.019996e+003, 3.746611e+001
1.020478e+003, 3.772417e+001
1.020960e+003, 3.805369e+001
1.021442e+003, 3.812620e+001
1.021924e+003, 3.795359e+001
1.022407e+003, 3.786866e+001
1.022889e+003, 3.788919e+001
1.023371e+003, 3.787051e+001
1.023853e+003, 3.776446e+001
1.024335e+003, 3.762940e+001
1.024817e+003, 3.752577e+001
1.025299e+003, 3.741791e+001
1.025781e+003, 3.713538e+001
1.026264e+003, 3.661383e+001
1.026746e+003, 3.650066e+001
1.027228e+003, 3.691489e+001
1.027710e+003, 3.727342e+001
1.028192e+003, 3.737752e+001
1.028674e+003, 3.736983e+001
1.029156e+003, 3.737695e+001
1.029638e+003, 3.739187e+001
1.030120e+003, 3.739290e+001
1.030603e+003, 3.739974e+001
1.031085e+003, 3.729470e+001
1.031567e+003, 3.696176e+001
1.032049e+003, 3.682058e+001
1.032531e+003, 3.711913e+001
1.033013e+003, 3.749489e+001
1.033495e+003, 3.757393e+001
1.033977e+003, 3.742034e+001
1.034459e+003, 3.736173e+001
1.034942e+003, 3.746698e+001
1.035424e+003, 3.750295e+001
1.035906e+003, 3.744954e+001
1.036388e+003, 3.735595e+001
1.036870e+003, 3.717754e+001
1.037352e+003, 3.703183e+001
1.037834e+003, 3.709108e+001
1.038316e+003, 3.729826e+001
1.038799e+003, 3.730704e+001
1.039281e+003, 3.693563e+001
1.039763e+003, 3.671983e+001
1.040245e+003, 3.670183e+001
1.040727e+003, 3.678398e+001
1.041209e+003, 3.702034e+001
1.041691e+003, 3.727594e+001
1.042173e+003, 3.746446e+001
1.042656e+003, 3.757022e+001
1.043138e+003, 3.749873e+001
1.043620e+003, 3.710369e+001
1.044102e+003, 3.681877e+001
1.044584e+003, 3.670298e+001
1.045066e+003, 3.665886e+001
1.045548e+003, 3.670801e+001
1.046030e+003, 3.676951e+001
1.046512e+003, 3.675847e+001
1.046995e+003, 3.668881e+001
1.047477e+003, 3.663566e+001
1.047959e+003, 3.660774e+001
1.048441e+003, 3.659608e+001
1.048923e+003, 3.662651e+001
1.049405e+003, 3.664082e+001
1.049887e+003, 3.658340e+001
1.050369e+003, 3.652331e+001
1.050851e+003, 3.654741e+001
1.051334e+003, 3.663381e+001
1.051816e+003, 3.666788e+001
1.052298e+003, 3.657264e+001
1.052780e+003, 3.658601e+001
1.053262e+003, 3.694890e+001
1.053744e+003, 3.720607e+001
1.054226e+003, 3.711414e+001
1.054708e+003, 3.684007e+001
1.055191e+003, 3.642760e+001
1.055673e+003, 3.599183e+001
1.056155e+003, 3.587465e+001
1.056637e+003, 3.625295e+001
1.057119e+003, 3.658644e+001
1.057601e+003, 3.673353e+001
1.058083e+003, 3.677319e+001
1.058565e+003, 3.666264e+001
1.059047e+003, 3.652807e+001
1.059530e+003, 3.654093e+001
1.060012e+003, 3.663678e+001
1.060494e+003, 3.657057e+001
1.060976e+003, 3.623746e+001
1.061458e+003, 3.596540e+001
1.061940e+003, 3.584423e+001
1.062422e+003, 3.584185e+001
1.062904e+003, 3.603699e+001
1.063386e+003, 3.626499e+001
1.063869e+003, 3.639091e+001
1.064351e+003, 3.640602e+001
1.064833e+003, 3.630974e+001
1.065315e+003, 3.607952e+001
1.065797e+003, 3.591584e+001
1.066279e+003, 3.594027e+001
1.066761e+003, 3.600402e+001
1.067243e+003, 3.605746e+001
1.067726e+003, 3.608878e+001
1.068208e+003, 3.610352e+001
1.068690e+003, 3.608594e+001
1.069172e+003, 3.596456e+001
1.069654e+003, 3.570992e+001
1.070136e+003, 3.558863e+001
1.070618e+003, 3.590028e+001
1.071100e+003, 3.614626e+001
1.071583e+003, 3.601186e+001
1.072065e+003, 3.573287e+001
1.072547e+003, 3.540747e+001
1.073029e+003, 3.516004e+001
1.073511e+003, 3.524574e+001
1.073993e+003, 3.571605e+001
1.074475e+003, 3.610101e+001
1.074957e+003, 3.620323e+001
1.075439e+003, 3.615751e+001
1.075922e+003, 3.589186e+001
1.076404e+003, 3.563447e+001
1.076886e+003, 3.560520e+001
1.077368e+003, 3.572859e+001
1.077850e+003, 3.585565e+001
1.078332e+003, 3.595360e+001
1.078814e+003, 3.602340e+001
1.079296e+003, 3.602709e+001
1.079779e+003, 3.605658e+001
1.080261e+003, 3.611964e+001
1.080743e+003, 3.626126e+001
1.081225e+003, 3.654567e+001
1.081707e+003, 3.691951e+001
1.082189e+003, 3.725055e+001
1.082671e+003, 3.755238e+001
1.083153e+003, 3.809435e+001
1.083635e+003, 3.919012e+001
1.084118e+003, 4.014445e+001
1.084600e+003, 4.068649e+001
1.085082e+003, 4.092854e+001
1.085564e+003, 4.095837e+001
1.086046e+003, 4.073229e+001
1.086528e+003, 4.008770e+001
1.087010e+003, 3.909513e+001
1.087492e+003, 3.811896e+001
1.087974e+003, 3.717816e+001
1.088457e+003, 3.651688e+001
1.088939e+003, 3.647435e+001
1.089421e+003, 3.647008e+001
1.089903e+003, 3.605187e+001
1.090385e+003, 3.553089e+001
1.090867e+003, 3.528921e+001
1.091349e+003, 3.530428e+001
1.091831e+003, 3.533366e+001
1.092314e+003, 3.530973e+001
1.092796e+003, 3.531253e+001
1.093278e+003, 3.544554e+001
1.093760e+003, 3.552164e+001
1.094242e+003, 3.534397e+001
1.094724e+003, 3.514664e+001
1.095206e+003, 3.519445e+001
1.095688e+003, 3.540780e+001
1.096171e+003, 3.555442e+001
1.096653e+003, 3.559289e+001
1.097135e+003, 3.552321e+001
1.097617e+003, 3.524526e+001
1.098099e+003, 3.499012e+001
1.098581e+003, 3.481087e+001
1.099063e+003, 3.472421e+001
1.099545e+003, 3.476500e+001
1.100027e+003, 3.489817e+001
1.100510e+003, 3.510366e+001
1.100992e+003, 3.538272e+001
1.101474e+003, 3.550055e+001
1.101956e+003, 3.519761e+001
1.102438e+003, 3.502362e+001
1.102920e+003, 3.522626e+001
1.103402e+003, 3.548986e+001
1.103884e+003, 3.571378e+001
1.104366e+003, 3.582267e+001
1.104849e+003, 3.568470e+001
1.105331e+003, 3.531136e+001
1.105813e+003, 3.496816e+001
1.106295e+003, 3.458068e+001
1.106777e+003, 3.440438e+001
1.107259e+003, 3.468438e+001
1.107741e+003, 3.492978e+001
1.108223e+003, 3.480646e+001
1.108706e+003, 3.462229e+001
1.109188e+003, 3.479927e+001
1.109670e+003, 3.524086e+001
1.110152e+003, 3.537679e+001
1.110634e+003, 3.497700e+001
1.111116e+003, 3.471704e+001
1.111598e+003, 3.464237e+001
1.112080e+003, 3.469395e+001
1.112563e+003, 3.506157e+001
1.113045e+003, 3.536052e+001
1.113527e+003, 3.516089e+001
1.114009e+003, 3.468822e+001
1.114491e+003, 3.458040e+001
1.114973e+003, 3.497834e+001
1.115455e+003, 3.512890e+001
1.115937e+003, 3.479512e+001
1.116419e+003, 3.463858e+001
1.116901e+003, 3.497160e+001
1.117384e+003, 3.522086e+001
1.117866e+003, 3.491654e+001
1.118348e+003, 3.442588e+001
1.118830e+003, 3.441114e+001
1.119312e+003, 3.489112e+001
1.119794e+003, 3.510602e+001
1.120276e+003, 3.489972e+001
1.120758e+003, 3.484660e+001
1.121241e+003, 3.510896e+001
1.121723e+003, 3.528882e+001
1.122205e+003, 3.518716e+001
1.122687e+003, 3.494862e+001
1.123169e+003, 3.471213e+001
1.123651e+003, 3.450049e+001
1.124133e+003, 3.447133e+001
1.124615e+003, 3.468113e+001
1.125098e+003, 3.480934e+001
1.125580e+003, 3.484639e+001
1.126062e+003, 3.476793e+001
1.126544e+003, 3.450938e+001
1.127026e+003, 3.436259e+001
1.127508e+003, 3.462630e+001
1.127990e+003, 3.506834e+001
1.128472e+003, 3.504467e+001
1.128954e+003, 3.453428e+001
1.129437e+003, 3.442945e+001
1.129919e+003, 3.476209e+001
1.130401e+003, 3.499483e+001
1.130883e+003, 3.501490e+001
1.131365e+003, 3.493222e+001
1.131847e+003, 3.479850e+001
1.132329e+003, 3.468974e+001
1.132811e+003, 3.474034e+001
1.133293e+003, 3.490497e+001
1.133776e+003, 3.499527e+001
1.134258e+003, 3.500584e+001
1.134740e+003, 3.482499e+001
1.135222e+003, 3.446724e+001
1.135704e+003, 3.428973e+001
1.136186e+003, 3.443663e+001
1.136668e+003, 3.467360e+001
1.137150e+003, 3.477465e+001
1.137633e+003, 3.480854e+001
1.138115e+003, 3.494947e+001
1.138597e+003, 3.513065e+001
1.139079e+003, 3.507428e+001
1.139561e+003, 3.485603e+001
1.140043e+003, 3.489022e+001
1.140525e+003, 3.523293e+001
1.141007e+003, 3.549572e+001
1.141490e+003, 3.542854e+001
1.141972e+003, 3.519670e+001
1.142454e+003, 3.483906e+001
1.142936e+003, 3.455878e+001
1.143418e+003, 3.484628e+001
1.143900e+003, 3.540504e+001
1.144382e+003, 3.559646e+001
1.144864e+003, 3.542089e+001
1.145346e+003, 3.524799e+001
1.145828e+003, 3.522359e+001
1.146311e+003, 3.522029e+001
1.146793e+003, 3.513893e+001
1.147275e+003, 3.503666e+001
1.147757e+003, 3.489235e+001
1.148239e+003, 3.481629e+001
1.148721e+003, 3.505170e+001
1.149203e+003, 3.541628e+001
1.149685e+003, 3.555152e+001
1.150168e+003, 3.539547e+001
1.150650e+003, 3.510581e+001
1.151132e+003, 3.458721e+001
1.151614e+003, 3.433219e+001
1.152096e+003, 3.485894e+001
1.152578e+003, 3.544068e+001
1.153060e+003, 3.553692e+001
1.153542e+003, 3.543967e+001
1.154025e+003, 3.558765e+001
1.154507e+003, 3.587881e+001
1.154989e+003, 3.578979e+001
1.155471e+003, 3.507666e+001
1.155953e+003, 3.469988e+001
1.156435e+003, 3.521312e+001
1.156917e+003, 3.564119e+001
1.157399e+003, 3.566433e+001
1.157881e+003, 3.550879e+001
1.158364e+003, 3.514004e+001
1.158846e+003, 3.479381e+001
1.159328e+003, 3.497950e+001
1.159810e+003, 3.572966e+001
1.160292e+003, 3.597451e+001
1.160774e+003, 3.524623e+001
1.161256e+003, 3.485355e+001
1.161738e+003, 3.501455e+001
1.162220e+003, 3.525957e+001
1.162703e+003, 3.551555e+001
1.163185e+003, 3.564231e+001
1.163667e+003, 3.542728e+001
1.164149e+003, 3.502375e+001
1.164631e+003, 3.497847e+001
1.165113e+003, 3.539156e+001
1.165595e+003, 3.551548e+001
1.166077e+003, 3.525948e+001
1.166560e+003, 3.511967e+001
1.167042e+003, 3.521309e+001
1.167524e+003, 3.537736e+001
1.168006e+003, 3.552941e+001
1.168488e+003, 3.564574e+001
1.168970e+003, 3.568156e+001
1.169452e+003, 3.565431e+001
1.169934e+003, 3.563862e+001
1.170417e+003, 3.563788e+001
1.170899e+003, 3.573581e+001
1.171381e+003, 3.592929e+001
1.171863e+003, 3.606610e+001
1.172345e+003, 3.609258e+001
1.172827e+003, 3.598605e+001
1.173309e+003, 3.570448e+001
1.173791e+003, 3.538564e+001
1.174273e+003, 3.526696e+001
1.174755e+003, 3.528233e+001
1.175238e+003, 3.529222e+001
1.175720e+003, 3.529341e+001
1.176202e+003, 3.527148e+001
1.176684e+003, 3.524445e+001
1.177166e+003, 3.531488e+001
1.177648e+003, 3.552495e+001
1.178130e+003, 3.568563e+001
1.178612e+003, 3.560854e+001
1.179095e+003, 3.544065e+001
1.179577e+003, 3.527074e+001
1.180059e+003, 3.514169e+001
1.180541e+003, 3.511145e+001
1.181023e+003, 3.516170e+001
1.181505e+003, 3.527315e+001
1.181987e+003, 3.542377e+001
1.182469e+003, 3.553981e+001
1.182952e+003, 3.559317e+001
1.183434e+003, 3.560253e+001
1.183916e+003, 3.549714e+001
1.184398e+003, 3.544474e+001
1.184880e+003, 3.560710e+001
1.185362e+003, 3.580714e+001
1.185844e+003, 3.586149e+001
1.186326e+003, 3.581648e+001
1.186808e+003, 3.582289e+001
1.187291e+003, 3.590948e+001
1.187773e+003, 3.592058e+001
1.188255e+003, 3.570469e+001
1.188737e+003, 3.562907e+001
1.189219e+003, 3.585290e+001
1.189701e+003, 3.605688e+001
1.190183e+003, 3.615240e+001
1.190665e+003, 3.610252e+001
1.191147e+003, 3.578881e+001
1.191630e+003, 3.532104e+001
1.192112e+003, 3.519298e+001
1.192594e+003, 3.549252e+001
1.193076e+003, 3.570188e+001
1.193558e+003, 3.582648e+001
1.194040e+003, 3.580312e+001
1.194522e+003, 3.558293e+001
1.195004e+003, 3.541972e+001
1.195487e+003, 3.546840e+001
1.195969e+003, 3.564384e+001
1.196451e+003, 3.586272e+001
1.196933e+003, 3.607557e+001
1.197415e+003, 3.604648e+001
1.197897e+003, 3.582960e+001
1.198379e+003, 3.576841e+001
1.198861e+003, 3.585072e+001
1.199344e+003, 3.574823e+001
1.199826e+003, 3.540306e+001
1.200308e+003, 3.525127e+001
1.200790e+003, 3.562342e+001
1.201272e+003, 3.609045e+001
1.201754e+003, 3.609144e+001
1.202236e+003, 3.590468e+001
1.202718e+003, 3.591866e+001
1.203200e+003, 3.603508e+001
1.203682e+003, 3.606881e+001
1.204165e+003, 3.603103e+001
1.204647e+003, 3.604472e+001
1.205129e+003, 3.613616e+001
1.205611e+003, 3.615512e+001
1.206093e+003, 3.592761e+001
1.206575e+003, 3.576676e+001
1.207057e+003, 3.592748e+001
1.207539e+003, 3.610580e+001
1.208022e+003, 3.602604e+001
1.208504e+003, 3.589605e+001
1.208986e+003, 3.604560e+001
1.209468e+003, 3.637600e+001
1.209950e+003, 3.644250e+001
1.210432e+003, 3.608742e+001
1.210914e+003, 3.592704e+001
1.211396e+003, 3.629049e+001
1.211879e+003, 3.639596e+001
1.212361e+003, 3.593158e+001
1.212843e+003, 3.550508e+001
1.213325e+003, 3.539756e+001
1.213807e+003, 3.552258e+001
1.214289e+003, 3.583673e+001
1.214771e+003, 3.626268e+001
1.215253e+003, 3.638437e+001
1.215735e+003, 3.614487e+001
1.216218e+003, 3.616950e+001
1.216700e+003, 3.650519e+001
1.217182e+003, 3.661738e+001
1.217664e+003, 3.637294e+001
1.218146e+003, 3.612523e+001
1.218628e+003, 3.608397e+001
1.219110e+003, 3.611506e+001
1.219592e+003, 3.602254e+001
1.220074e+003, 3.589811e+001
1.220557e+003, 3.601770e+001
1.221039e+003, 3.626422e+001
1.221521e+003, 3.632765e+001
1.222003e+003, 3.622607e+001
1.222485e+003, 3.605653e+001
1.222967e+003, 3.588102e+001
1.223449e+003, 3.587662e+001
1.223931e+003, 3.617786e+001
1.224414e+003, 3.642030e+001
1.224896e+003, 3.618219e+001
1.225378e+003, 3.592427e+001
1.225860e+003, 3.612067e+001
1.226342e+003, 3.640819e+001
1.226824e+003, 3.637665e+001
1.227306e+003, 3.613596e+001
1.227788e+003, 3.595072e+001
1.228271e+003, 3.585944e+001
1.228753e+003, 3.579255e+001
1.229235e+003, 3.566387e+001
1.229717e+003, 3.568891e+001
1.230199e+003, 3.608995e+001
1.230681e+003, 3.638265e+001
1.231163e+003, 3.631495e+001
1.231645e+003, 3.622452e+001
1.232127e+003, 3.640594e+001
1.232609e+003, 3.668320e+001
1.233092e+003, 3.669495e+001
1.233574e+003, 3.644912e+001
1.234056e+003, 3.634028e+001
1.234538e+003, 3.638734e+001
1.235020e+003, 3.639708e+001
1.235502e+003, 3.634673e+001
1.235984e+003, 3.634807e+001
1.236466e+003, 3.644259e+001
1.236949e+003, 3.642846e+001
1.237431e+003, 3.609855e+001
1.237913e+003, 3.588927e+001
1.238395e+003, 3.690753e+001
1.238877e+003, 3.837412e+001
1.239359e+003, 3.821746e+001
1.239841e+003, 3.706959e+001
1.240323e+003, 3.634892e+001
1.240806e+003, 3.615303e+001
1.241288e+003, 3.612086e+001
1.241770e+003, 3.613174e+001
1.242252e+003, 3.621166e+001
1.242734e+003, 3.642064e+001
1.243216e+003, 3.658082e+001
1.243698e+003, 3.658362e+001
1.244180e+003, 3.648973e+001
1.244662e+003, 3.624545e+001
1.245145e+003, 3.600739e+001
1.245627e+003, 3.593878e+001
1.246109e+003, 3.599855e+001
1.246591e+003, 3.607713e+001
1.247073e+003, 3.616399e+001
1.247555e+003, 3.625719e+001
1.248037e+003, 3.644429e+001
1.248519e+003, 3.645695e+001
1.249001e+003, 3.614512e+001
1.249484e+003, 3.595391e+001
1.249966e+003, 3.607399e+001
1.250448e+003, 3.624108e+001
1.250930e+003, 3.623882e+001
1.251412e+003, 3.617016e+001
1.251894e+003, 3.624390e+001
1.252376e+003, 3.643511e+001
1.252858e+003, 3.655498e+001
1.253341e+003, 3.660969e+001
1.253823e+003, 3.664797e+001
1.254305e+003, 3.668002e+001
1.254787e+003, 3.673306e+001
1.255269e+003, 3.681495e+001
1.255751e+003, 3.693327e+001
1.256233e+003, 3.711427e+001
1.256715e+003, 3.719510e+001
1.257198e+003, 3.689138e+001
1.257680e+003, 3.650364e+001
1.258162e+003, 3.632022e+001
1.258644e+003, 3.629962e+001
1.259126e+003, 3.643544e+001
1.259608e+003, 3.665773e+001
1.260090e+003, 3.686620e+001
1.260572e+003, 3.703588e+001
1.261054e+003, 3.714251e+001
1.261536e+003, 3.717345e+001
1.262019e+003, 3.715474e+001
1.262501e+003, 3.700209e+001
1.262983e+003, 3.692592e+001
1.263465e+003, 3.707996e+001
1.263947e+003, 3.721063e+001
1.264429e+003, 3.714539e+001
1.264911e+003, 3.697926e+001
1.265393e+003, 3.683657e+001
1.265876e+003, 3.672758e+001
1.266358e+003, 3.675317e+001
1.266840e+003, 3.692793e+001
1.267322e+003, 3.692065e+001
1.267804e+003, 3.672051e+001
1.268286e+003, 3.665434e+001
1.268768e+003, 3.679139e+001
1.269250e+003, 3.690434e+001
1.269733e+003, 3.686657e+001
1.270215e+003, 3.683677e+001
1.270697e+003, 3.704278e+001
1.271179e+003, 3.727436e+001
1.271661e+003, 3.704951e+001
1.272143e+003, 3.679665e+001
1.272625e+003, 3.739347e+001
1.273107e+003, 3.829545e+001
1.273589e+003, 3.830851e+001
1.274072e+003, 3.756756e+001
1.274554e+003, 3.729004e+001
1.275036e+003, 3.789300e+001
1.275518e+003, 3.828235e+001
1.276000e+003, 3.792184e+001
1.276482e+003, 3.758948e+001
1.276964e+003, 3.746206e+001
1.277446e+003, 3.745826e+001
1.277929e+003, 3.762303e+001
1.278411e+003, 3.777095e+001
1.278893e+003, 3.771305e+001
1.279375e+003, 3.751489e+001
1.279857e+003, 3.733628e+001
1.280339e+003, 3.717674e+001
1.280821e+003, 3.715347e+001
1.281303e+003, 3.727398e+001
1.281786e+003, 3.736332e+001
1.282268e+003, 3.739672e+001
##END=



