##NAMES=Holtstamite
##RRUFFID=R170001
##IDEAL CHEMISTRY=Ca_3_Al_2_(SiO_4_)_2_(OH)_4_
##LOCALITY=Wessels mine, Kalahari manganese field, South Africa
##OWNER=RRUFF
##SOURCE=Paul Botha
##DESCRIPTION=Yellow to brownish-yellow granular crystals, associate with Mn-rich vesuvianite, calcite, and henritermierite
##STATUS=The identification of this mineral has been confirmed only by single crystal X-ray diffraction.
##URL=rruff.info/R170001
8.813672e+001, 8.869044e+001
8.861884e+001, 9.020618e+001
8.910095e+001, 9.149337e+001
8.958307e+001, 9.213241e+001
9.006519e+001, 9.285320e+001
9.054730e+001, 9.466298e+001
9.102942e+001, 9.767109e+001
9.151154e+001, 1.006037e+002
9.199365e+001, 1.025412e+002
9.247577e+001, 1.035702e+002
9.295789e+001, 1.038915e+002
9.344000e+001, 1.028870e+002
9.392212e+001, 1.012324e+002
9.440424e+001, 1.009510e+002
9.488635e+001, 1.024602e+002
9.536847e+001, 1.043803e+002
9.585059e+001, 1.045918e+002
9.633270e+001, 1.031717e+002
9.681482e+001, 1.016552e+002
9.729694e+001, 1.007548e+002
9.777905e+001, 1.004477e+002
9.826117e+001, 1.006614e+002
9.874329e+001, 1.014707e+002
9.922540e+001, 1.026864e+002
9.970752e+001, 1.040118e+002
1.001896e+002, 1.055367e+002
1.006718e+002, 1.067630e+002
1.011539e+002, 1.072565e+002
1.016360e+002, 1.068576e+002
1.021181e+002, 1.065003e+002
1.026002e+002, 1.062012e+002
1.030823e+002, 1.060093e+002
1.035645e+002, 1.063118e+002
1.040466e+002, 1.071715e+002
1.045287e+002, 1.084253e+002
1.050108e+002, 1.099099e+002
1.054929e+002, 1.113183e+002
1.059750e+002, 1.134938e+002
1.064572e+002, 1.169325e+002
1.069393e+002, 1.218949e+002
1.074214e+002, 1.257566e+002
1.079035e+002, 1.286504e+002
1.083856e+002, 1.304666e+002
1.088677e+002, 1.310470e+002
1.093499e+002, 1.289653e+002
1.098320e+002, 1.270709e+002
1.103141e+002, 1.259471e+002
1.107962e+002, 1.257427e+002
1.112783e+002, 1.258028e+002
1.117604e+002, 1.260013e+002
1.122426e+002, 1.264451e+002
1.127247e+002, 1.272979e+002
1.132068e+002, 1.288167e+002
1.136889e+002, 1.305663e+002
1.141710e+002, 1.323620e+002
1.146531e+002, 1.341423e+002
1.151353e+002, 1.360373e+002
1.156174e+002, 1.383854e+002
1.160995e+002, 1.409251e+002
1.165816e+002, 1.430231e+002
1.170637e+002, 1.443245e+002
1.175458e+002, 1.451613e+002
1.180280e+002, 1.457449e+002
1.185101e+002, 1.459835e+002
1.189922e+002, 1.461436e+002
1.194743e+002, 1.462472e+002
1.199564e+002, 1.463419e+002
1.204385e+002, 1.466441e+002
1.209207e+002, 1.471568e+002
1.214028e+002, 1.479837e+002
1.218849e+002, 1.492365e+002
1.223670e+002, 1.510041e+002
1.228491e+002, 1.532091e+002
1.233312e+002, 1.562918e+002
1.238134e+002, 1.601738e+002
1.242955e+002, 1.632647e+002
1.247776e+002, 1.636542e+002
1.252597e+002, 1.623037e+002
1.257418e+002, 1.611623e+002
1.262239e+002, 1.611746e+002
1.267061e+002, 1.618448e+002
1.271882e+002, 1.622591e+002
1.276703e+002, 1.623689e+002
1.281524e+002, 1.627478e+002
1.286345e+002, 1.642487e+002
1.291166e+002, 1.666613e+002
1.295988e+002, 1.690318e+002
1.300809e+002, 1.708154e+002
1.305630e+002, 1.721840e+002
1.310451e+002, 1.738665e+002
1.315272e+002, 1.760232e+002
1.320093e+002, 1.780287e+002
1.324915e+002, 1.786876e+002
1.329736e+002, 1.780017e+002
1.334557e+002, 1.774655e+002
1.339378e+002, 1.779942e+002
1.344199e+002, 1.795289e+002
1.349020e+002, 1.810333e+002
1.353842e+002, 1.824433e+002
1.358663e+002, 1.837711e+002
1.363484e+002, 1.850701e+002
1.368305e+002, 1.863027e+002
1.373126e+002, 1.876455e+002
1.377947e+002, 1.890926e+002
1.382769e+002, 1.905821e+002
1.387590e+002, 1.927610e+002
1.392411e+002, 1.960898e+002
1.397232e+002, 2.000570e+002
1.402053e+002, 2.023982e+002
1.406874e+002, 2.027187e+002
1.411696e+002, 2.022897e+002
1.416517e+002, 2.019256e+002
1.421338e+002, 2.016064e+002
1.426159e+002, 2.014423e+002
1.430980e+002, 2.015037e+002
1.435801e+002, 2.017751e+002
1.440623e+002, 2.019602e+002
1.445444e+002, 2.018653e+002
1.450265e+002, 2.019171e+002
1.455086e+002, 2.024810e+002
1.459907e+002, 2.038966e+002
1.464728e+002, 2.053084e+002
1.469550e+002, 2.066465e+002
1.474371e+002, 2.079096e+002
1.479192e+002, 2.090184e+002
1.484013e+002, 2.097877e+002
1.488834e+002, 2.105056e+002
1.493655e+002, 2.114446e+002
1.498477e+002, 2.125086e+002
1.503298e+002, 2.138826e+002
1.508119e+002, 2.157303e+002
1.512940e+002, 2.181833e+002
1.517761e+002, 2.203163e+002
1.522583e+002, 2.219045e+002
1.527404e+002, 2.231958e+002
1.532225e+002, 2.244624e+002
1.537046e+002, 2.254073e+002
1.541867e+002, 2.266142e+002
1.546688e+002, 2.286031e+002
1.551510e+002, 2.319666e+002
1.556331e+002, 2.339029e+002
1.561152e+002, 2.332909e+002
1.565973e+002, 2.311594e+002
1.570794e+002, 2.288882e+002
1.575615e+002, 2.268809e+002
1.580437e+002, 2.246738e+002
1.585258e+002, 2.219633e+002
1.590079e+002, 2.184616e+002
1.594900e+002, 2.152501e+002
1.599721e+002, 2.127045e+002
1.604542e+002, 2.106487e+002
1.609364e+002, 2.087742e+002
1.614185e+002, 2.067191e+002
1.619006e+002, 2.049851e+002
1.623827e+002, 2.039421e+002
1.628648e+002, 2.039211e+002
1.633469e+002, 2.039331e+002
1.638291e+002, 2.035681e+002
1.643112e+002, 2.029086e+002
1.647933e+002, 2.021425e+002
1.652754e+002, 2.011052e+002
1.657575e+002, 2.001336e+002
1.662396e+002, 1.995079e+002
1.667218e+002, 1.993974e+002
1.672039e+002, 1.994271e+002
1.676860e+002, 1.993851e+002
1.681681e+002, 1.993009e+002
1.686502e+002, 1.992621e+002
1.691323e+002, 1.992633e+002
1.696145e+002, 1.993597e+002
1.700966e+002, 1.996402e+002
1.705787e+002, 2.002686e+002
1.710608e+002, 2.008691e+002
1.715429e+002, 2.010475e+002
1.720250e+002, 2.008840e+002
1.725072e+002, 2.007562e+002
1.729893e+002, 2.010017e+002
1.734714e+002, 2.013986e+002
1.739535e+002, 2.016295e+002
1.744356e+002, 2.015198e+002
1.749177e+002, 2.013150e+002
1.753999e+002, 2.012502e+002
1.758820e+002, 2.013197e+002
1.763641e+002, 2.014808e+002
1.768462e+002, 2.017692e+002
1.773283e+002, 2.021240e+002
1.778104e+002, 2.024323e+002
1.782926e+002, 2.026657e+002
1.787747e+002, 2.028348e+002
1.792568e+002, 2.029736e+002
1.797389e+002, 2.030800e+002
1.802210e+002, 2.030882e+002
1.807031e+002, 2.027810e+002
1.811853e+002, 2.023148e+002
1.816674e+002, 2.021399e+002
1.821495e+002, 2.026319e+002
1.826316e+002, 2.033565e+002
1.831137e+002, 2.034409e+002
1.835958e+002, 2.028774e+002
1.840780e+002, 2.020730e+002
1.845601e+002, 2.012212e+002
1.850422e+002, 2.003963e+002
1.855243e+002, 1.998804e+002
1.860064e+002, 2.000049e+002
1.864885e+002, 2.004246e+002
1.869707e+002, 2.001450e+002
1.874528e+002, 1.991095e+002
1.879349e+002, 1.979221e+002
1.884170e+002, 1.971547e+002
1.888991e+002, 1.967830e+002
1.893812e+002, 1.966087e+002
1.898634e+002, 1.966196e+002
1.903455e+002, 1.967789e+002
1.908276e+002, 1.969583e+002
1.913097e+002, 1.971664e+002
1.917918e+002, 1.973631e+002
1.922739e+002, 1.975616e+002
1.927561e+002, 1.977575e+002
1.932382e+002, 1.977192e+002
1.937203e+002, 1.971044e+002
1.942024e+002, 1.961229e+002
1.946845e+002, 1.961458e+002
1.951666e+002, 1.973607e+002
1.956488e+002, 1.989191e+002
1.961309e+002, 1.997929e+002
1.966130e+002, 1.999516e+002
1.970951e+002, 2.000355e+002
1.975772e+002, 2.003035e+002
1.980593e+002, 2.007176e+002
1.985415e+002, 2.007692e+002
1.990236e+002, 2.003412e+002
1.995057e+002, 1.998755e+002
1.999878e+002, 2.000291e+002
2.004699e+002, 2.008969e+002
2.009520e+002, 2.017262e+002
2.014342e+002, 2.022461e+002
2.019163e+002, 2.024746e+002
2.023984e+002, 2.027932e+002
2.028805e+002, 2.032712e+002
2.033626e+002, 2.037178e+002
2.038447e+002, 2.037699e+002
2.043269e+002, 2.032981e+002
2.048090e+002, 2.030771e+002
2.052911e+002, 2.034693e+002
2.057732e+002, 2.044946e+002
2.062553e+002, 2.051608e+002
2.067374e+002, 2.053151e+002
2.072196e+002, 2.053359e+002
2.077017e+002, 2.057945e+002
2.081838e+002, 2.068205e+002
2.086659e+002, 2.078126e+002
2.091480e+002, 2.085725e+002
2.096301e+002, 2.090934e+002
2.101123e+002, 2.094593e+002
2.105944e+002, 2.095679e+002
2.110765e+002, 2.096533e+002
2.115586e+002, 2.101376e+002
2.120407e+002, 2.112507e+002
2.125228e+002, 2.120967e+002
2.130050e+002, 2.122808e+002
2.134871e+002, 2.117029e+002
2.139692e+002, 2.114736e+002
2.144513e+002, 2.117503e+002
2.149334e+002, 2.122028e+002
2.154155e+002, 2.123325e+002
2.158977e+002, 2.119763e+002
2.163798e+002, 2.116986e+002
2.168619e+002, 2.116846e+002
2.173440e+002, 2.119623e+002
2.178261e+002, 2.123089e+002
2.183082e+002, 2.128264e+002
2.187904e+002, 2.133122e+002
2.192725e+002, 2.134544e+002
2.197546e+002, 2.131291e+002
2.202367e+002, 2.127329e+002
2.207188e+002, 2.123209e+002
2.212009e+002, 2.118415e+002
2.216831e+002, 2.117283e+002
2.221652e+002, 2.121119e+002
2.226473e+002, 2.127444e+002
2.231294e+002, 2.132792e+002
2.236115e+002, 2.136634e+002
2.240936e+002, 2.140766e+002
2.245758e+002, 2.146441e+002
2.250579e+002, 2.154395e+002
2.255400e+002, 2.157881e+002
2.260221e+002, 2.153901e+002
2.265042e+002, 2.148097e+002
2.269863e+002, 2.148068e+002
2.274685e+002, 2.156270e+002
2.279506e+002, 2.165655e+002
2.284327e+002, 2.174725e+002
2.289148e+002, 2.183644e+002
2.293969e+002, 2.191430e+002
2.298790e+002, 2.198292e+002
2.303612e+002, 2.203760e+002
2.308433e+002, 2.206928e+002
2.313254e+002, 2.206021e+002
2.318075e+002, 2.205930e+002
2.322896e+002, 2.207319e+002
2.327717e+002, 2.209913e+002
2.332539e+002, 2.216690e+002
2.337360e+002, 2.230390e+002
2.342181e+002, 2.245673e+002
2.347002e+002, 2.256361e+002
2.351823e+002, 2.259803e+002
2.356644e+002, 2.263379e+002
2.361466e+002, 2.268908e+002
2.366287e+002, 2.276631e+002
2.371108e+002, 2.283676e+002
2.375929e+002, 2.289916e+002
2.380750e+002, 2.295573e+002
2.385571e+002, 2.300448e+002
2.390393e+002, 2.302589e+002
2.395214e+002, 2.307779e+002
2.400035e+002, 2.318186e+002
2.404856e+002, 2.334323e+002
2.409677e+002, 2.347648e+002
2.414498e+002, 2.356260e+002
2.419320e+002, 2.363852e+002
2.424141e+002, 2.374296e+002
2.428962e+002, 2.389692e+002
2.433783e+002, 2.403766e+002
2.438604e+002, 2.414677e+002
2.443425e+002, 2.422375e+002
2.448247e+002, 2.432436e+002
2.453068e+002, 2.447448e+002
2.457889e+002, 2.461931e+002
2.462710e+002, 2.470884e+002
2.467531e+002, 2.470858e+002
2.472352e+002, 2.471905e+002
2.477174e+002, 2.474871e+002
2.481995e+002, 2.479829e+002
2.486816e+002, 2.489514e+002
2.491637e+002, 2.507791e+002
2.496458e+002, 2.526419e+002
2.501279e+002, 2.538211e+002
2.506101e+002, 2.539470e+002
2.510922e+002, 2.542453e+002
2.515743e+002, 2.549426e+002
2.520564e+002, 2.559863e+002
2.525385e+002, 2.568590e+002
2.530206e+002, 2.573908e+002
2.535028e+002, 2.579924e+002
2.539849e+002, 2.589810e+002
2.544670e+002, 2.606046e+002
2.549491e+002, 2.620236e+002
2.554312e+002, 2.630995e+002
2.559133e+002, 2.638793e+002
2.563955e+002, 2.646779e+002
2.568776e+002, 2.654752e+002
2.573597e+002, 2.663026e+002
2.578418e+002, 2.672195e+002
2.583239e+002, 2.683666e+002
2.588061e+002, 2.691825e+002
2.592882e+002, 2.694517e+002
2.597703e+002, 2.693860e+002
2.602524e+002, 2.698917e+002
2.607345e+002, 2.714304e+002
2.612166e+002, 2.727152e+002
2.616988e+002, 2.729228e+002
2.621809e+002, 2.716151e+002
2.626630e+002, 2.707247e+002
2.631451e+002, 2.705529e+002
2.636272e+002, 2.707674e+002
2.641093e+002, 2.703654e+002
2.645915e+002, 2.690030e+002
2.650736e+002, 2.678109e+002
2.655557e+002, 2.674085e+002
2.660378e+002, 2.680514e+002
2.665199e+002, 2.684926e+002
2.670020e+002, 2.687044e+002
2.674842e+002, 2.687125e+002
2.679663e+002, 2.685238e+002
2.684484e+002, 2.680682e+002
2.689305e+002, 2.676144e+002
2.694126e+002, 2.672947e+002
2.698947e+002, 2.671338e+002
2.703769e+002, 2.669005e+002
2.708590e+002, 2.665609e+002
2.713411e+002, 2.661762e+002
2.718232e+002, 2.658821e+002
2.723053e+002, 2.657173e+002
2.727874e+002, 2.654619e+002
2.732696e+002, 2.649571e+002
2.737517e+002, 2.641718e+002
2.742338e+002, 2.636986e+002
2.747159e+002, 2.636510e+002
2.751980e+002, 2.636851e+002
2.756801e+002, 2.632660e+002
2.761623e+002, 2.623030e+002
2.766444e+002, 2.614550e+002
2.771265e+002, 2.610345e+002
2.776086e+002, 2.609924e+002
2.780907e+002, 2.605301e+002
2.785728e+002, 2.595724e+002
2.790550e+002, 2.584266e+002
2.795371e+002, 2.574119e+002
2.800192e+002, 2.565382e+002
2.805013e+002, 2.557151e+002
2.809834e+002, 2.549228e+002
2.814655e+002, 2.541655e+002
2.819477e+002, 2.534355e+002
2.824298e+002, 2.527264e+002
2.829119e+002, 2.521084e+002
2.833940e+002, 2.517562e+002
2.838761e+002, 2.516599e+002
2.843582e+002, 2.512935e+002
2.848404e+002, 2.504466e+002
2.853225e+002, 2.493019e+002
2.858046e+002, 2.483945e+002
2.862867e+002, 2.477367e+002
2.867688e+002, 2.472444e+002
2.872509e+002, 2.468839e+002
2.877331e+002, 2.466465e+002
2.882152e+002, 2.464918e+002
2.886973e+002, 2.464725e+002
2.891794e+002, 2.464526e+002
2.896615e+002, 2.460365e+002
2.901436e+002, 2.452253e+002
2.906258e+002, 2.445313e+002
2.911079e+002, 2.444294e+002
2.915900e+002, 2.447683e+002
2.920721e+002, 2.448813e+002
2.925542e+002, 2.446701e+002
2.930363e+002, 2.442657e+002
2.935185e+002, 2.436709e+002
2.940006e+002, 2.429404e+002
2.944827e+002, 2.426012e+002
2.949648e+002, 2.432376e+002
2.954469e+002, 2.444806e+002
2.959290e+002, 2.453167e+002
2.964112e+002, 2.456473e+002
2.968933e+002, 2.457414e+002
2.973754e+002, 2.459082e+002
2.978575e+002, 2.461116e+002
2.983396e+002, 2.462212e+002
2.988217e+002, 2.460435e+002
2.993039e+002, 2.457616e+002
2.997860e+002, 2.456881e+002
3.002681e+002, 2.458309e+002
3.007502e+002, 2.461493e+002
3.012323e+002, 2.467486e+002
3.017144e+002, 2.475058e+002
3.021966e+002, 2.480970e+002
3.026787e+002, 2.482265e+002
3.031608e+002, 2.482312e+002
3.036429e+002, 2.485360e+002
3.041250e+002, 2.491300e+002
3.046071e+002, 2.498414e+002
3.050893e+002, 2.507038e+002
3.055714e+002, 2.515654e+002
3.060535e+002, 2.521435e+002
3.065356e+002, 2.522092e+002
3.070177e+002, 2.521180e+002
3.074998e+002, 2.522221e+002
3.079820e+002, 2.524748e+002
3.084641e+002, 2.526251e+002
3.089462e+002, 2.523748e+002
3.094283e+002, 2.519952e+002
3.099104e+002, 2.517954e+002
3.103925e+002, 2.519197e+002
3.108747e+002, 2.521143e+002
3.113568e+002, 2.522066e+002
3.118389e+002, 2.522330e+002
3.123210e+002, 2.522941e+002
3.128031e+002, 2.525183e+002
3.132852e+002, 2.527525e+002
3.137674e+002, 2.528837e+002
3.142495e+002, 2.528890e+002
3.147316e+002, 2.528078e+002
3.152137e+002, 2.525493e+002
3.156958e+002, 2.522298e+002
3.161779e+002, 2.520474e+002
3.166601e+002, 2.522801e+002
3.171422e+002, 2.525101e+002
3.176243e+002, 2.524619e+002
3.181064e+002, 2.520553e+002
3.185885e+002, 2.517590e+002
3.190706e+002, 2.518704e+002
3.195528e+002, 2.521324e+002
3.200349e+002, 2.522525e+002
3.205170e+002, 2.520518e+002
3.209991e+002, 2.517966e+002
3.214812e+002, 2.515601e+002
3.219633e+002, 2.513441e+002
3.224455e+002, 2.511334e+002
3.229276e+002, 2.507691e+002
3.234097e+002, 2.504904e+002
3.238918e+002, 2.504762e+002
3.243739e+002, 2.510049e+002
3.248560e+002, 2.515173e+002
3.253382e+002, 2.520778e+002
3.258203e+002, 2.526221e+002
3.263024e+002, 2.527272e+002
3.267845e+002, 2.518752e+002
3.272666e+002, 2.509379e+002
3.277487e+002, 2.503279e+002
3.282309e+002, 2.500696e+002
3.287130e+002, 2.501231e+002
3.291951e+002, 2.506803e+002
3.296772e+002, 2.515434e+002
3.301593e+002, 2.522301e+002
3.306414e+002, 2.528083e+002
3.311236e+002, 2.531229e+002
3.316057e+002, 2.530469e+002
3.320878e+002, 2.523327e+002
3.325699e+002, 2.519959e+002
3.330520e+002, 2.522035e+002
3.335341e+002, 2.526867e+002
3.340163e+002, 2.530521e+002
3.344984e+002, 2.532024e+002
3.349805e+002, 2.534301e+002
3.354626e+002, 2.538491e+002
3.359447e+002, 2.544756e+002
3.364268e+002, 2.549870e+002
3.369090e+002, 2.553832e+002
3.373911e+002, 2.556761e+002
3.378732e+002, 2.557946e+002
3.383553e+002, 2.556185e+002
3.388374e+002, 2.557652e+002
3.393195e+002, 2.564080e+002
3.398017e+002, 2.574426e+002
3.402838e+002, 2.585003e+002
3.407659e+002, 2.596398e+002
3.412480e+002, 2.605818e+002
3.417301e+002, 2.609878e+002
3.422122e+002, 2.608195e+002
3.426944e+002, 2.610307e+002
3.431765e+002, 2.617981e+002
3.436586e+002, 2.628674e+002
3.441407e+002, 2.637130e+002
3.446228e+002, 2.643286e+002
3.451049e+002, 2.649075e+002
3.455871e+002, 2.656053e+002
3.460692e+002, 2.663839e+002
3.465513e+002, 2.669594e+002
3.470334e+002, 2.673235e+002
3.475155e+002, 2.675258e+002
3.479977e+002, 2.674962e+002
3.484798e+002, 2.673038e+002
3.489619e+002, 2.673010e+002
3.494440e+002, 2.677544e+002
3.499261e+002, 2.684518e+002
3.504082e+002, 2.689577e+002
3.508904e+002, 2.692702e+002
3.513725e+002, 2.695441e+002
3.518546e+002, 2.699406e+002
3.523367e+002, 2.703912e+002
3.528188e+002, 2.707571e+002
3.533009e+002, 2.709733e+002
3.537831e+002, 2.711096e+002
3.542652e+002, 2.712416e+002
3.547473e+002, 2.713605e+002
3.552294e+002, 2.714332e+002
3.557115e+002, 2.714095e+002
3.561936e+002, 2.713454e+002
3.566758e+002, 2.712785e+002
3.571579e+002, 2.711784e+002
3.576400e+002, 2.712020e+002
3.581221e+002, 2.715682e+002
3.586042e+002, 2.721410e+002
3.590863e+002, 2.726497e+002
3.595685e+002, 2.729034e+002
3.600506e+002, 2.731174e+002
3.605327e+002, 2.734483e+002
3.610148e+002, 2.739272e+002
3.614969e+002, 2.743597e+002
3.619790e+002, 2.746254e+002
3.624612e+002, 2.748137e+002
3.629433e+002, 2.750229e+002
3.634254e+002, 2.752430e+002
3.639075e+002, 2.755121e+002
3.643896e+002, 2.758277e+002
3.648717e+002, 2.761871e+002
3.653539e+002, 2.766114e+002
3.658360e+002, 2.774251e+002
3.663181e+002, 2.780770e+002
3.668002e+002, 2.782403e+002
3.672823e+002, 2.770643e+002
3.677644e+002, 2.764262e+002
3.682466e+002, 2.767460e+002
3.687287e+002, 2.777101e+002
3.692108e+002, 2.784330e+002
3.696929e+002, 2.789130e+002
3.701750e+002, 2.791621e+002
3.706571e+002, 2.791265e+002
3.711393e+002, 2.786598e+002
3.716214e+002, 2.784251e+002
3.721035e+002, 2.785866e+002
3.725856e+002, 2.788675e+002
3.730677e+002, 2.788703e+002
3.735498e+002, 2.783778e+002
3.740320e+002, 2.781052e+002
3.745141e+002, 2.783018e+002
3.749962e+002, 2.789279e+002
3.754783e+002, 2.793606e+002
3.759604e+002, 2.795996e+002
3.764425e+002, 2.796507e+002
3.769247e+002, 2.794005e+002
3.774068e+002, 2.787698e+002
3.778889e+002, 2.785371e+002
3.783710e+002, 2.789594e+002
3.788531e+002, 2.796808e+002
3.793352e+002, 2.797086e+002
3.798174e+002, 2.789706e+002
3.802995e+002, 2.783808e+002
3.807816e+002, 2.786954e+002
3.812637e+002, 2.797220e+002
3.817458e+002, 2.800692e+002
3.822279e+002, 2.795635e+002
3.827101e+002, 2.788298e+002
3.831922e+002, 2.786468e+002
3.836743e+002, 2.789210e+002
3.841564e+002, 2.792328e+002
3.846385e+002, 2.793977e+002
3.851206e+002, 2.795073e+002
3.856028e+002, 2.797952e+002
3.860849e+002, 2.802477e+002
3.865670e+002, 2.805900e+002
3.870491e+002, 2.804628e+002
3.875312e+002, 2.801195e+002
3.880133e+002, 2.800140e+002
3.884955e+002, 2.804232e+002
3.889776e+002, 2.808119e+002
3.894597e+002, 2.805713e+002
3.899418e+002, 2.799035e+002
3.904239e+002, 2.793796e+002
3.909060e+002, 2.795414e+002
3.913882e+002, 2.798122e+002
3.918703e+002, 2.797124e+002
3.923524e+002, 2.791252e+002
3.928345e+002, 2.785013e+002
3.933166e+002, 2.780080e+002
3.937987e+002, 2.776148e+002
3.942809e+002, 2.772891e+002
3.947630e+002, 2.771075e+002
3.952451e+002, 2.768996e+002
3.957272e+002, 2.765022e+002
3.962093e+002, 2.759406e+002
3.966914e+002, 2.756475e+002
3.971736e+002, 2.761419e+002
3.976557e+002, 2.766460e+002
3.981378e+002, 2.766830e+002
3.986199e+002, 2.757767e+002
3.991020e+002, 2.749406e+002
3.995841e+002, 2.741834e+002
4.000663e+002, 2.735161e+002
4.005484e+002, 2.729585e+002
4.010305e+002, 2.724162e+002
4.015126e+002, 2.721074e+002
4.019947e+002, 2.721965e+002
4.024768e+002, 2.728236e+002
4.029590e+002, 2.730642e+002
4.034411e+002, 2.727374e+002
4.039232e+002, 2.722327e+002
4.044053e+002, 2.720331e+002
4.048874e+002, 2.722863e+002
4.053695e+002, 2.723247e+002
4.058517e+002, 2.719475e+002
4.063338e+002, 2.712734e+002
4.068159e+002, 2.707608e+002
4.072980e+002, 2.703975e+002
4.077801e+002, 2.702642e+002
4.082622e+002, 2.706089e+002
4.087444e+002, 2.713736e+002
4.092265e+002, 2.716191e+002
4.097086e+002, 2.711416e+002
4.101907e+002, 2.704262e+002
4.106728e+002, 2.702726e+002
4.111549e+002, 2.705933e+002
4.116371e+002, 2.708427e+002
4.121192e+002, 2.706927e+002
4.126013e+002, 2.703129e+002
4.130834e+002, 2.699712e+002
4.135655e+002, 2.696671e+002
4.140476e+002, 2.695506e+002
4.145298e+002, 2.699649e+002
4.150119e+002, 2.706025e+002
4.154940e+002, 2.709327e+002
4.159761e+002, 2.706172e+002
4.164582e+002, 2.702421e+002
4.169403e+002, 2.704498e+002
4.174225e+002, 2.710285e+002
4.179046e+002, 2.713640e+002
4.183867e+002, 2.708181e+002
4.188688e+002, 2.701371e+002
4.193509e+002, 2.698902e+002
4.198330e+002, 2.702301e+002
4.203152e+002, 2.705478e+002
4.207973e+002, 2.704967e+002
4.212794e+002, 2.703409e+002
4.217615e+002, 2.703839e+002
4.222436e+002, 2.710241e+002
4.227257e+002, 2.715322e+002
4.232079e+002, 2.716688e+002
4.236900e+002, 2.714594e+002
4.241721e+002, 2.713053e+002
4.246542e+002, 2.710064e+002
4.251363e+002, 2.709466e+002
4.256184e+002, 2.713396e+002
4.261006e+002, 2.725114e+002
4.265827e+002, 2.735212e+002
4.270648e+002, 2.743387e+002
4.275469e+002, 2.750058e+002
4.280290e+002, 2.755676e+002
4.285111e+002, 2.759727e+002
4.289933e+002, 2.763744e+002
4.294754e+002, 2.767757e+002
4.299575e+002, 2.771837e+002
4.304396e+002, 2.778510e+002
4.309217e+002, 2.788691e+002
4.314038e+002, 2.798828e+002
4.318860e+002, 2.805709e+002
4.323681e+002, 2.809329e+002
4.328502e+002, 2.810773e+002
4.333323e+002, 2.808723e+002
4.338144e+002, 2.806927e+002
4.342965e+002, 2.814268e+002
4.347787e+002, 2.830074e+002
4.352608e+002, 2.845840e+002
4.357429e+002, 2.856293e+002
4.362250e+002, 2.863419e+002
4.367071e+002, 2.871793e+002
4.371892e+002, 2.881668e+002
4.376714e+002, 2.891507e+002
4.381535e+002, 2.897424e+002
4.386356e+002, 2.902620e+002
4.391177e+002, 2.913158e+002
4.395998e+002, 2.936154e+002
4.400819e+002, 2.959184e+002
4.405641e+002, 2.970832e+002
4.410462e+002, 2.973647e+002
4.415283e+002, 2.976748e+002
4.420104e+002, 2.982888e+002
4.424925e+002, 2.992215e+002
4.429746e+002, 3.006125e+002
4.434568e+002, 3.026896e+002
4.439389e+002, 3.044130e+002
4.444210e+002, 3.052498e+002
4.449031e+002, 3.056159e+002
4.453852e+002, 3.060094e+002
4.458673e+002, 3.066569e+002
4.463495e+002, 3.071733e+002
4.468316e+002, 3.073362e+002
4.473137e+002, 3.071850e+002
4.477958e+002, 3.073827e+002
4.482779e+002, 3.082904e+002
4.487600e+002, 3.091709e+002
4.492422e+002, 3.096742e+002
4.497243e+002, 3.097672e+002
4.502064e+002, 3.095145e+002
4.506885e+002, 3.086939e+002
4.511706e+002, 3.077412e+002
4.516527e+002, 3.074380e+002
4.521349e+002, 3.079390e+002
4.526170e+002, 3.084827e+002
4.530991e+002, 3.089335e+002
4.535812e+002, 3.092570e+002
4.540633e+002, 3.090451e+002
4.545454e+002, 3.082245e+002
4.550276e+002, 3.075049e+002
4.555097e+002, 3.075188e+002
4.559918e+002, 3.081530e+002
4.564739e+002, 3.089185e+002
4.569560e+002, 3.098241e+002
4.574381e+002, 3.106205e+002
4.579203e+002, 3.107603e+002
4.584024e+002, 3.104625e+002
4.588845e+002, 3.104442e+002
4.593666e+002, 3.113125e+002
4.598488e+002, 3.124848e+002
4.603309e+002, 3.132918e+002
4.608130e+002, 3.137359e+002
4.612951e+002, 3.141390e+002
4.617772e+002, 3.145808e+002
4.622593e+002, 3.151328e+002
4.627415e+002, 3.159038e+002
4.632236e+002, 3.171645e+002
4.637057e+002, 3.182088e+002
4.641878e+002, 3.185075e+002
4.646699e+002, 3.184149e+002
4.651520e+002, 3.186181e+002
4.656342e+002, 3.195172e+002
4.661163e+002, 3.205242e+002
4.665984e+002, 3.215396e+002
4.670805e+002, 3.225829e+002
4.675626e+002, 3.233452e+002
4.680447e+002, 3.235633e+002
4.685269e+002, 3.237058e+002
4.690090e+002, 3.241090e+002
4.694911e+002, 3.249598e+002
4.699732e+002, 3.256534e+002
4.704553e+002, 3.260258e+002
4.709374e+002, 3.262929e+002
4.714196e+002, 3.269837e+002
4.719017e+002, 3.281801e+002
4.723838e+002, 3.294941e+002
4.728659e+002, 3.308484e+002
4.733480e+002, 3.322255e+002
4.738301e+002, 3.332993e+002
4.743123e+002, 3.340333e+002
4.747944e+002, 3.347554e+002
4.752765e+002, 3.356768e+002
4.757586e+002, 3.368283e+002
4.762407e+002, 3.384097e+002
4.767228e+002, 3.406032e+002
4.772050e+002, 3.429326e+002
4.776871e+002, 3.446638e+002
4.781692e+002, 3.459588e+002
4.786513e+002, 3.473065e+002
4.791334e+002, 3.488765e+002
4.796155e+002, 3.506680e+002
4.800977e+002, 3.527866e+002
4.805798e+002, 3.552223e+002
4.810619e+002, 3.575780e+002
4.815440e+002, 3.594175e+002
4.820261e+002, 3.611476e+002
4.825082e+002, 3.631489e+002
4.829904e+002, 3.655741e+002
4.834725e+002, 3.681820e+002
4.839546e+002, 3.711661e+002
4.844367e+002, 3.742878e+002
4.849188e+002, 3.769894e+002
4.854009e+002, 3.789469e+002
4.858831e+002, 3.807497e+002
4.863652e+002, 3.824433e+002
4.868473e+002, 3.839710e+002
4.873294e+002, 3.860950e+002
4.878115e+002, 3.892085e+002
4.882936e+002, 3.924624e+002
4.887758e+002, 3.951864e+002
4.892579e+002, 3.970916e+002
4.897400e+002, 3.995826e+002
4.902221e+002, 4.029267e+002
4.907042e+002, 4.066977e+002
4.911863e+002, 4.098557e+002
4.916685e+002, 4.123556e+002
4.921506e+002, 4.152414e+002
4.926327e+002, 4.190816e+002
4.931148e+002, 4.236154e+002
4.935969e+002, 4.275702e+002
4.940790e+002, 4.309972e+002
4.945612e+002, 4.347256e+002
4.950433e+002, 4.397023e+002
4.955254e+002, 4.454304e+002
4.960075e+002, 4.510384e+002
4.964896e+002, 4.562109e+002
4.969717e+002, 4.615947e+002
4.974539e+002, 4.675923e+002
4.979360e+002, 4.741444e+002
4.984181e+002, 4.809616e+002
4.989002e+002, 4.880917e+002
4.993823e+002, 4.954005e+002
4.998644e+002, 5.027915e+002
5.003466e+002, 5.103302e+002
5.008287e+002, 5.180529e+002
5.013108e+002, 5.264539e+002
5.017929e+002, 5.347047e+002
5.022750e+002, 5.422023e+002
5.027571e+002, 5.481541e+002
5.032393e+002, 5.549743e+002
5.037214e+002, 5.631469e+002
5.042035e+002, 5.719608e+002
5.046856e+002, 5.806403e+002
5.051677e+002, 5.892103e+002
5.056498e+002, 5.975197e+002
5.061320e+002, 6.055137e+002
5.066141e+002, 6.133015e+002
5.070962e+002, 6.212313e+002
5.075783e+002, 6.294796e+002
5.080604e+002, 6.371093e+002
5.085425e+002, 6.434286e+002
5.090247e+002, 6.485248e+002
5.095068e+002, 6.533882e+002
5.099889e+002, 6.581155e+002
5.104710e+002, 6.622640e+002
5.109531e+002, 6.655866e+002
5.114352e+002, 6.679514e+002
5.119174e+002, 6.689684e+002
5.123995e+002, 6.685326e+002
5.128816e+002, 6.666946e+002
5.133637e+002, 6.630975e+002
5.138458e+002, 6.580650e+002
5.143279e+002, 6.526302e+002
5.148101e+002, 6.479438e+002
5.152922e+002, 6.426312e+002
5.157743e+002, 6.356278e+002
5.162564e+002, 6.267642e+002
5.167385e+002, 6.171609e+002
5.172206e+002, 6.068506e+002
5.177028e+002, 5.962543e+002
5.181849e+002, 5.857415e+002
5.186670e+002, 5.751459e+002
5.191491e+002, 5.648990e+002
5.196312e+002, 5.549677e+002
5.201133e+002, 5.454171e+002
5.205955e+002, 5.361229e+002
5.210776e+002, 5.270864e+002
5.215597e+002, 5.184478e+002
5.220418e+002, 5.101724e+002
5.225239e+002, 5.022447e+002
5.230060e+002, 4.952670e+002
5.234882e+002, 4.893242e+002
5.239703e+002, 4.838551e+002
5.244524e+002, 4.784117e+002
5.249345e+002, 4.730348e+002
5.254166e+002, 4.678917e+002
5.258987e+002, 4.628901e+002
5.263809e+002, 4.583554e+002
5.268630e+002, 4.550440e+002
5.273451e+002, 4.525408e+002
5.278272e+002, 4.495777e+002
5.283093e+002, 4.448553e+002
5.287914e+002, 4.400864e+002
5.292736e+002, 4.373565e+002
5.297557e+002, 4.362494e+002
5.302378e+002, 4.350056e+002
5.307199e+002, 4.325486e+002
5.312020e+002, 4.297142e+002
5.316841e+002, 4.270491e+002
5.321663e+002, 4.245733e+002
5.326484e+002, 4.223676e+002
5.331305e+002, 4.202177e+002
5.336126e+002, 4.184257e+002
5.340947e+002, 4.172548e+002
5.345768e+002, 4.172458e+002
5.350590e+002, 4.171855e+002
5.355411e+002, 4.170504e+002
5.360232e+002, 4.167920e+002
5.365053e+002, 4.162195e+002
5.369874e+002, 4.151333e+002
5.374695e+002, 4.142314e+002
5.379517e+002, 4.138319e+002
5.384338e+002, 4.138853e+002
5.389159e+002, 4.138296e+002
5.393980e+002, 4.136576e+002
5.398801e+002, 4.134038e+002
5.403622e+002, 4.129217e+002
5.408444e+002, 4.123530e+002
5.413265e+002, 4.124256e+002
5.418086e+002, 4.134329e+002
5.422907e+002, 4.143471e+002
5.427728e+002, 4.135895e+002
5.432549e+002, 4.118672e+002
5.437371e+002, 4.107206e+002
5.442192e+002, 4.112169e+002
5.447013e+002, 4.121597e+002
5.451834e+002, 4.128246e+002
5.456655e+002, 4.132628e+002
5.461476e+002, 4.136410e+002
5.466298e+002, 4.141862e+002
5.471119e+002, 4.145674e+002
5.475940e+002, 4.144640e+002
5.480761e+002, 4.135807e+002
5.485582e+002, 4.133036e+002
5.490403e+002, 4.142676e+002
5.495225e+002, 4.155057e+002
5.500046e+002, 4.162036e+002
5.504867e+002, 4.160151e+002
5.509688e+002, 4.160257e+002
5.514509e+002, 4.163460e+002
5.519330e+002, 4.168910e+002
5.524152e+002, 4.174709e+002
5.528973e+002, 4.180747e+002
5.533794e+002, 4.187866e+002
5.538615e+002, 4.196803e+002
5.543436e+002, 4.206928e+002
5.548257e+002, 4.216597e+002
5.553079e+002, 4.225712e+002
5.557900e+002, 4.233374e+002
5.562721e+002, 4.235145e+002
5.567542e+002, 4.236093e+002
5.572363e+002, 4.245424e+002
5.577184e+002, 4.265112e+002
5.582006e+002, 4.287459e+002
5.586827e+002, 4.309497e+002
5.591648e+002, 4.329873e+002
5.596469e+002, 4.347228e+002
5.601290e+002, 4.351884e+002
5.606111e+002, 4.363344e+002
5.610933e+002, 4.391998e+002
5.615754e+002, 4.432352e+002
5.620575e+002, 4.469169e+002
5.625396e+002, 4.495361e+002
5.630217e+002, 4.522981e+002
5.635038e+002, 4.555840e+002
5.639860e+002, 4.594288e+002
5.644681e+002, 4.632036e+002
5.649502e+002, 4.667763e+002
5.654323e+002, 4.705090e+002
5.659144e+002, 4.746833e+002
5.663965e+002, 4.793554e+002
5.668787e+002, 4.838394e+002
5.673608e+002, 4.879863e+002
5.678429e+002, 4.921665e+002
5.683250e+002, 4.967682e+002
5.688071e+002, 5.017572e+002
5.692892e+002, 5.068647e+002
5.697714e+002, 5.120108e+002
5.702535e+002, 5.171663e+002
5.707356e+002, 5.223626e+002
5.712177e+002, 5.275453e+002
5.716998e+002, 5.322479e+002
5.721819e+002, 5.361525e+002
5.726641e+002, 5.396771e+002
5.731462e+002, 5.429635e+002
5.736283e+002, 5.460479e+002
5.741104e+002, 5.493477e+002
5.745925e+002, 5.541738e+002
5.750746e+002, 5.584793e+002
5.755568e+002, 5.608934e+002
5.760389e+002, 5.601689e+002
5.765210e+002, 5.595598e+002
5.770031e+002, 5.592966e+002
5.774852e+002, 5.589835e+002
5.779673e+002, 5.581481e+002
5.784495e+002, 5.568255e+002
5.789316e+002, 5.548613e+002
5.794137e+002, 5.522383e+002
5.798958e+002, 5.489713e+002
5.803779e+002, 5.449045e+002
5.808600e+002, 5.400540e+002
5.813422e+002, 5.346231e+002
5.818243e+002, 5.284084e+002
5.823064e+002, 5.217400e+002
5.827885e+002, 5.154760e+002
5.832706e+002, 5.095842e+002
5.837527e+002, 5.037636e+002
5.842349e+002, 4.976783e+002
5.847170e+002, 4.915196e+002
5.851991e+002, 4.854423e+002
5.856812e+002, 4.792947e+002
5.861633e+002, 4.735943e+002
5.866454e+002, 4.687510e+002
5.871276e+002, 4.643761e+002
5.876097e+002, 4.600599e+002
5.880918e+002, 4.554033e+002
5.885739e+002, 4.511707e+002
5.890560e+002, 4.476241e+002
5.895381e+002, 4.445631e+002
5.900203e+002, 4.413359e+002
5.905024e+002, 4.377086e+002
5.909845e+002, 4.344673e+002
5.914666e+002, 4.320002e+002
5.919487e+002, 4.302240e+002
5.924308e+002, 4.285262e+002
5.929130e+002, 4.269313e+002
5.933951e+002, 4.252377e+002
5.938772e+002, 4.230316e+002
5.943593e+002, 4.206099e+002
5.948414e+002, 4.190008e+002
5.953235e+002, 4.184033e+002
5.958057e+002, 4.179300e+002
5.962878e+002, 4.165788e+002
5.967699e+002, 4.148633e+002
5.972520e+002, 4.135821e+002
5.977341e+002, 4.131107e+002
5.982162e+002, 4.128882e+002
5.986984e+002, 4.128358e+002
5.991805e+002, 4.128286e+002
5.996626e+002, 4.126007e+002
6.001447e+002, 4.118014e+002
6.006268e+002, 4.110917e+002
6.011089e+002, 4.107004e+002
6.015911e+002, 4.105927e+002
6.020732e+002, 4.103997e+002
6.025553e+002, 4.101389e+002
6.030374e+002, 4.097717e+002
6.035195e+002, 4.091886e+002
6.040016e+002, 4.083724e+002
6.044838e+002, 4.080151e+002
6.049659e+002, 4.082022e+002
6.054480e+002, 4.084664e+002
6.059301e+002, 4.081780e+002
6.064122e+002, 4.075479e+002
6.068943e+002, 4.073167e+002
6.073765e+002, 4.076538e+002
6.078586e+002, 4.083085e+002
6.083407e+002, 4.092025e+002
6.088228e+002, 4.102061e+002
6.093049e+002, 4.110645e+002
6.097870e+002, 4.116983e+002
6.102692e+002, 4.121499e+002
6.107513e+002, 4.123633e+002
6.112334e+002, 4.123931e+002
6.117155e+002, 4.124376e+002
6.121976e+002, 4.124319e+002
6.126797e+002, 4.125487e+002
6.131619e+002, 4.129028e+002
6.136440e+002, 4.135162e+002
6.141261e+002, 4.138626e+002
6.146082e+002, 4.137536e+002
6.150903e+002, 4.137302e+002
6.155724e+002, 4.142894e+002
6.160546e+002, 4.154445e+002
6.165367e+002, 4.162010e+002
6.170188e+002, 4.164833e+002
6.175009e+002, 4.164750e+002
6.179830e+002, 4.161822e+002
6.184651e+002, 4.157623e+002
6.189473e+002, 4.156699e+002
6.194294e+002, 4.160510e+002
6.199115e+002, 4.167428e+002
6.203936e+002, 4.177721e+002
6.208757e+002, 4.189986e+002
6.213578e+002, 4.201409e+002
6.218400e+002, 4.212394e+002
6.223221e+002, 4.220881e+002
6.228042e+002, 4.225758e+002
6.232863e+002, 4.227239e+002
6.237684e+002, 4.226416e+002
6.242505e+002, 4.218112e+002
6.247327e+002, 4.213408e+002
6.252148e+002, 4.217837e+002
6.256969e+002, 4.232619e+002
6.261790e+002, 4.240923e+002
6.266611e+002, 4.240704e+002
6.271432e+002, 4.238980e+002
6.276254e+002, 4.242320e+002
6.281075e+002, 4.250032e+002
6.285896e+002, 4.253405e+002
6.290717e+002, 4.250963e+002
6.295538e+002, 4.248028e+002
6.300359e+002, 4.252554e+002
6.305181e+002, 4.260934e+002
6.310002e+002, 4.265225e+002
6.314823e+002, 4.260490e+002
6.319644e+002, 4.255615e+002
6.324465e+002, 4.257008e+002
6.329286e+002, 4.262780e+002
6.334108e+002, 4.269073e+002
6.338929e+002, 4.274370e+002
6.343750e+002, 4.280344e+002
6.348571e+002, 4.288552e+002
6.353392e+002, 4.298334e+002
6.358214e+002, 4.304819e+002
6.363035e+002, 4.305199e+002
6.367856e+002, 4.306606e+002
6.372677e+002, 4.313394e+002
6.377498e+002, 4.325409e+002
6.382319e+002, 4.328590e+002
6.387141e+002, 4.321313e+002
6.391962e+002, 4.313589e+002
6.396783e+002, 4.315253e+002
6.401604e+002, 4.323409e+002
6.406425e+002, 4.327829e+002
6.411246e+002, 4.327219e+002
6.416068e+002, 4.325558e+002
6.420889e+002, 4.327682e+002
6.425710e+002, 4.330895e+002
6.430531e+002, 4.331317e+002
6.435352e+002, 4.327082e+002
6.440173e+002, 4.321498e+002
6.444995e+002, 4.312607e+002
6.449816e+002, 4.303917e+002
6.454637e+002, 4.301368e+002
6.459458e+002, 4.314664e+002
6.464279e+002, 4.323195e+002
6.469100e+002, 4.320777e+002
6.473922e+002, 4.311011e+002
6.478743e+002, 4.309389e+002
6.483564e+002, 4.318089e+002
6.488385e+002, 4.326649e+002
6.493206e+002, 4.329222e+002
6.498027e+002, 4.327784e+002
6.502849e+002, 4.333380e+002
6.507670e+002, 4.345837e+002
6.512491e+002, 4.357721e+002
6.517312e+002, 4.363831e+002
6.522133e+002, 4.365707e+002
6.526954e+002, 4.364226e+002
6.531776e+002, 4.359158e+002
6.536597e+002, 4.356259e+002
6.541418e+002, 4.360098e+002
6.546239e+002, 4.367042e+002
6.551060e+002, 4.374087e+002
6.555881e+002, 4.382235e+002
6.560703e+002, 4.387524e+002
6.565524e+002, 4.387852e+002
6.570345e+002, 4.385665e+002
6.575166e+002, 4.383218e+002
6.579987e+002, 4.379041e+002
6.584808e+002, 4.378417e+002
6.589630e+002, 4.382827e+002
6.594451e+002, 4.390307e+002
6.599272e+002, 4.396972e+002
6.604093e+002, 4.402836e+002
6.608914e+002, 4.408297e+002
6.613735e+002, 4.414702e+002
6.618557e+002, 4.419969e+002
6.623378e+002, 4.420393e+002
6.628199e+002, 4.416681e+002
6.633020e+002, 4.411553e+002
6.637841e+002, 4.400333e+002
6.642662e+002, 4.393291e+002
6.647484e+002, 4.401776e+002
6.652305e+002, 4.426219e+002
6.657126e+002, 4.443597e+002
6.661947e+002, 4.442534e+002
6.666768e+002, 4.437460e+002
6.671589e+002, 4.435439e+002
6.676411e+002, 4.436255e+002
6.681232e+002, 4.440884e+002
6.686053e+002, 4.450794e+002
6.690874e+002, 4.461460e+002
6.695695e+002, 4.467922e+002
6.700516e+002, 4.470239e+002
6.705338e+002, 4.474926e+002
6.710159e+002, 4.483200e+002
6.714980e+002, 4.491557e+002
6.719801e+002, 4.494465e+002
6.724622e+002, 4.494134e+002
6.729443e+002, 4.495838e+002
6.734265e+002, 4.503234e+002
6.739086e+002, 4.509941e+002
6.743907e+002, 4.510808e+002
6.748728e+002, 4.508389e+002
6.753549e+002, 4.507383e+002
6.758370e+002, 4.514041e+002
6.763192e+002, 4.517231e+002
6.768013e+002, 4.510855e+002
6.772834e+002, 4.498659e+002
6.777655e+002, 4.494228e+002
6.782476e+002, 4.500155e+002
6.787297e+002, 4.508179e+002
6.792119e+002, 4.515780e+002
6.796940e+002, 4.522858e+002
6.801761e+002, 4.527799e+002
6.806582e+002, 4.530378e+002
6.811403e+002, 4.534679e+002
6.816224e+002, 4.545350e+002
6.821046e+002, 4.558767e+002
6.825867e+002, 4.568887e+002
6.830688e+002, 4.575319e+002
6.835509e+002, 4.578919e+002
6.840330e+002, 4.576448e+002
6.845151e+002, 4.573703e+002
6.849973e+002, 4.576263e+002
6.854794e+002, 4.587594e+002
6.859615e+002, 4.596367e+002
6.864436e+002, 4.597516e+002
6.869257e+002, 4.597717e+002
6.874078e+002, 4.603456e+002
6.878900e+002, 4.620001e+002
6.883721e+002, 4.625811e+002
6.888542e+002, 4.615633e+002
6.893363e+002, 4.601257e+002
6.898184e+002, 4.602123e+002
6.903005e+002, 4.616460e+002
6.907827e+002, 4.629062e+002
6.912648e+002, 4.635715e+002
6.917469e+002, 4.639163e+002
6.922290e+002, 4.642770e+002
6.927111e+002, 4.645832e+002
6.931932e+002, 4.646678e+002
6.936754e+002, 4.640484e+002
6.941575e+002, 4.635834e+002
6.946396e+002, 4.637859e+002
6.951217e+002, 4.645010e+002
6.956038e+002, 4.651581e+002
6.960859e+002, 4.655500e+002
6.965681e+002, 4.660140e+002
6.970502e+002, 4.667408e+002
6.975323e+002, 4.676675e+002
6.980144e+002, 4.680830e+002
6.984965e+002, 4.678797e+002
6.989786e+002, 4.676743e+002
6.994608e+002, 4.678838e+002
6.999429e+002, 4.684015e+002
7.004250e+002, 4.687159e+002
7.009071e+002, 4.688441e+002
7.013892e+002, 4.690991e+002
7.018713e+002, 4.698479e+002
7.023535e+002, 4.707822e+002
7.028356e+002, 4.715670e+002
7.033177e+002, 4.721479e+002
7.037998e+002, 4.726924e+002
7.042819e+002, 4.731432e+002
7.047640e+002, 4.736594e+002
7.052462e+002, 4.743934e+002
7.057283e+002, 4.755399e+002
7.062104e+002, 4.764493e+002
7.066925e+002, 4.771213e+002
7.071746e+002, 4.775268e+002
7.076567e+002, 4.774131e+002
7.081389e+002, 4.767291e+002
7.086210e+002, 4.768056e+002
7.091031e+002, 4.779531e+002
7.095852e+002, 4.795111e+002
7.100673e+002, 4.808999e+002
7.105494e+002, 4.819807e+002
7.110316e+002, 4.823734e+002
7.115137e+002, 4.814178e+002
7.119958e+002, 4.805774e+002
7.124779e+002, 4.809238e+002
7.129600e+002, 4.820521e+002
7.134421e+002, 4.831882e+002
7.139243e+002, 4.846380e+002
7.144064e+002, 4.855015e+002
7.148885e+002, 4.851827e+002
7.153706e+002, 4.842029e+002
7.158527e+002, 4.843188e+002
7.163348e+002, 4.859363e+002
7.168170e+002, 4.872116e+002
7.172991e+002, 4.872882e+002
7.177812e+002, 4.866566e+002
7.182633e+002, 4.869879e+002
7.187454e+002, 4.881988e+002
7.192275e+002, 4.894071e+002
7.197097e+002, 4.899800e+002
7.201918e+002, 4.903653e+002
7.206739e+002, 4.912017e+002
7.211560e+002, 4.924086e+002
7.216381e+002, 4.932834e+002
7.221202e+002, 4.931649e+002
7.226024e+002, 4.929053e+002
7.230845e+002, 4.929717e+002
7.235666e+002, 4.934349e+002
7.240487e+002, 4.939024e+002
7.245308e+002, 4.943200e+002
7.250129e+002, 4.948541e+002
7.254951e+002, 4.957828e+002
7.259772e+002, 4.971577e+002
7.264593e+002, 4.976446e+002
7.269414e+002, 4.971482e+002
7.274235e+002, 4.964597e+002
7.279056e+002, 4.961660e+002
7.283878e+002, 4.962387e+002
7.288699e+002, 4.966608e+002
7.293520e+002, 4.974581e+002
7.298341e+002, 4.984251e+002
7.303162e+002, 4.997607e+002
7.307983e+002, 5.010177e+002
7.312805e+002, 5.017337e+002
7.317626e+002, 5.012150e+002
7.322447e+002, 5.012464e+002
7.327268e+002, 5.020683e+002
7.332089e+002, 5.033626e+002
7.336910e+002, 5.048903e+002
7.341732e+002, 5.067677e+002
7.346553e+002, 5.082512e+002
7.351374e+002, 5.091949e+002
7.356195e+002, 5.097967e+002
7.361016e+002, 5.101948e+002
7.365837e+002, 5.104674e+002
7.370659e+002, 5.109191e+002
7.375480e+002, 5.117234e+002
7.380301e+002, 5.125651e+002
7.385122e+002, 5.133266e+002
7.389943e+002, 5.138998e+002
7.394764e+002, 5.140950e+002
7.399586e+002, 5.132541e+002
7.404407e+002, 5.127261e+002
7.409228e+002, 5.130495e+002
7.414049e+002, 5.138875e+002
7.418870e+002, 5.145253e+002
7.423691e+002, 5.149112e+002
7.428513e+002, 5.152527e+002
7.433334e+002, 5.155823e+002
7.438155e+002, 5.159374e+002
7.442976e+002, 5.163919e+002
7.447797e+002, 5.169552e+002
7.452618e+002, 5.176417e+002
7.457440e+002, 5.186575e+002
7.462261e+002, 5.196644e+002
7.467082e+002, 5.201975e+002
7.471903e+002, 5.203801e+002
7.476724e+002, 5.206951e+002
7.481545e+002, 5.212150e+002
7.486367e+002, 5.220181e+002
7.491188e+002, 5.233698e+002
7.496009e+002, 5.251930e+002
7.500830e+002, 5.263817e+002
7.505651e+002, 5.266420e+002
7.510472e+002, 5.269111e+002
7.515294e+002, 5.276531e+002
7.520115e+002, 5.287717e+002
7.524936e+002, 5.294919e+002
7.529757e+002, 5.298223e+002
7.534578e+002, 5.302139e+002
7.539399e+002, 5.310294e+002
7.544221e+002, 5.320656e+002
7.549042e+002, 5.331751e+002
7.553863e+002, 5.343275e+002
7.558684e+002, 5.350822e+002
7.563505e+002, 5.345443e+002
7.568326e+002, 5.340865e+002
7.573148e+002, 5.346943e+002
7.577969e+002, 5.366909e+002
7.582790e+002, 5.381641e+002
7.587611e+002, 5.389534e+002
7.592432e+002, 5.394743e+002
7.597253e+002, 5.397896e+002
7.602075e+002, 5.398975e+002
7.606896e+002, 5.410892e+002
7.611717e+002, 5.435350e+002
7.616538e+002, 5.455911e+002
7.621359e+002, 5.453063e+002
7.626180e+002, 5.439059e+002
7.631002e+002, 5.433909e+002
7.635823e+002, 5.440952e+002
7.640644e+002, 5.448682e+002
7.645465e+002, 5.449466e+002
7.650286e+002, 5.449619e+002
7.655107e+002, 5.454597e+002
7.659929e+002, 5.467556e+002
7.664750e+002, 5.479376e+002
7.669571e+002, 5.490982e+002
7.674392e+002, 5.500432e+002
7.679213e+002, 5.503987e+002
7.684034e+002, 5.501433e+002
7.688856e+002, 5.506563e+002
7.693677e+002, 5.521348e+002
7.698498e+002, 5.538041e+002
7.703319e+002, 5.549587e+002
7.708140e+002, 5.557029e+002
7.712961e+002, 5.561339e+002
7.717783e+002, 5.561023e+002
7.722604e+002, 5.563563e+002
7.727425e+002, 5.576896e+002
7.732246e+002, 5.593053e+002
7.737067e+002, 5.603724e+002
7.741888e+002, 5.600524e+002
7.746710e+002, 5.604487e+002
7.751531e+002, 5.619029e+002
7.756352e+002, 5.636890e+002
7.761173e+002, 5.648817e+002
7.765994e+002, 5.654807e+002
7.770815e+002, 5.662967e+002
7.775637e+002, 5.675615e+002
7.780458e+002, 5.686799e+002
7.785279e+002, 5.685477e+002
7.790100e+002, 5.678401e+002
7.794921e+002, 5.678119e+002
7.799742e+002, 5.690838e+002
7.804564e+002, 5.705510e+002
7.809385e+002, 5.718594e+002
7.814206e+002, 5.730227e+002
7.819027e+002, 5.740342e+002
7.823848e+002, 5.745839e+002
7.828669e+002, 5.755703e+002
7.833491e+002, 5.772930e+002
7.838312e+002, 5.791917e+002
7.843133e+002, 5.802715e+002
7.847954e+002, 5.805692e+002
7.852775e+002, 5.808630e+002
7.857596e+002, 5.812255e+002
7.862418e+002, 5.819016e+002
7.867239e+002, 5.836020e+002
7.872060e+002, 5.857548e+002
7.876881e+002, 5.873466e+002
7.881702e+002, 5.875749e+002
7.886523e+002, 5.877695e+002
7.891345e+002, 5.883308e+002
7.896166e+002, 5.891801e+002
7.900987e+002, 5.901902e+002
7.905808e+002, 5.914410e+002
7.910629e+002, 5.927043e+002
7.915450e+002, 5.940190e+002
7.920272e+002, 5.952530e+002
7.925093e+002, 5.960908e+002
7.929914e+002, 5.965729e+002
7.934735e+002, 5.968288e+002
7.939556e+002, 5.966746e+002
7.944377e+002, 5.967523e+002
7.949199e+002, 5.980740e+002
7.954020e+002, 6.000732e+002
7.958841e+002, 6.016873e+002
7.963662e+002, 6.019420e+002
7.968483e+002, 6.024662e+002
7.973304e+002, 6.039406e+002
7.978126e+002, 6.058329e+002
7.982947e+002, 6.072308e+002
7.987768e+002, 6.080283e+002
7.992589e+002, 6.085566e+002
7.997410e+002, 6.087244e+002
8.002231e+002, 6.088966e+002
8.007053e+002, 6.100070e+002
8.011874e+002, 6.117920e+002
8.016695e+002, 6.131053e+002
8.021516e+002, 6.132396e+002
8.026337e+002, 6.133196e+002
8.031158e+002, 6.144936e+002
8.035980e+002, 6.162616e+002
8.040801e+002, 6.177762e+002
8.045622e+002, 6.188969e+002
8.050443e+002, 6.195969e+002
8.055264e+002, 6.194623e+002
8.060085e+002, 6.191467e+002
8.064907e+002, 6.199930e+002
8.069728e+002, 6.222322e+002
8.074549e+002, 6.241074e+002
8.079370e+002, 6.250872e+002
8.084191e+002, 6.258106e+002
8.089012e+002, 6.274499e+002
8.093834e+002, 6.296834e+002
8.098655e+002, 6.316519e+002
8.103476e+002, 6.328195e+002
8.108297e+002, 6.339417e+002
8.113118e+002, 6.356696e+002
8.117939e+002, 6.375829e+002
8.122761e+002, 6.389426e+002
8.127582e+002, 6.390232e+002
8.132403e+002, 6.395275e+002
8.137224e+002, 6.407806e+002
8.142045e+002, 6.424143e+002
8.146866e+002, 6.437408e+002
8.151688e+002, 6.447546e+002
8.156509e+002, 6.458737e+002
8.161330e+002, 6.471829e+002
8.166151e+002, 6.486920e+002
8.170972e+002, 6.505598e+002
8.175793e+002, 6.526052e+002
8.180615e+002, 6.545488e+002
8.185436e+002, 6.566295e+002
8.190257e+002, 6.580977e+002
8.195078e+002, 6.579218e+002
8.199899e+002, 6.572404e+002
8.204720e+002, 6.579028e+002
8.209542e+002, 6.607207e+002
8.214363e+002, 6.626082e+002
8.219184e+002, 6.629250e+002
8.224005e+002, 6.626254e+002
8.228826e+002, 6.630172e+002
8.233647e+002, 6.640900e+002
8.238469e+002, 6.659738e+002
8.243290e+002, 6.691398e+002
8.248111e+002, 6.719598e+002
8.252932e+002, 6.726208e+002
8.257753e+002, 6.722660e+002
8.262574e+002, 6.724340e+002
8.267396e+002, 6.736813e+002
8.272217e+002, 6.752991e+002
8.277038e+002, 6.775953e+002
8.281859e+002, 6.799382e+002
8.286681e+002, 6.814557e+002
8.291502e+002, 6.819812e+002
8.296323e+002, 6.830557e+002
8.301144e+002, 6.849269e+002
8.305966e+002, 6.871418e+002
8.310787e+002, 6.893513e+002
8.315608e+002, 6.914681e+002
8.320429e+002, 6.933367e+002
8.325250e+002, 6.947810e+002
8.330071e+002, 6.962855e+002
8.334893e+002, 6.982928e+002
8.339714e+002, 7.003685e+002
8.344535e+002, 7.020759e+002
8.349356e+002, 7.032531e+002
8.354177e+002, 7.043929e+002
8.358998e+002, 7.054860e+002
8.363820e+002, 7.065872e+002
8.368641e+002, 7.077370e+002
8.373462e+002, 7.089649e+002
8.378283e+002, 7.104980e+002
8.383104e+002, 7.124106e+002
8.387925e+002, 7.142086e+002
8.392747e+002, 7.152582e+002
8.397568e+002, 7.160848e+002
8.402389e+002, 7.173114e+002
8.407210e+002, 7.191851e+002
8.412031e+002, 7.209028e+002
8.416852e+002, 7.219654e+002
8.421674e+002, 7.230668e+002
8.426495e+002, 7.247651e+002
8.431316e+002, 7.272385e+002
8.436137e+002, 7.287767e+002
8.440958e+002, 7.292372e+002
8.445779e+002, 7.295931e+002
8.450601e+002, 7.309977e+002
8.455422e+002, 7.328224e+002
8.460243e+002, 7.337803e+002
8.465064e+002, 7.337722e+002
8.469885e+002, 7.339899e+002
8.474706e+002, 7.355712e+002
8.479528e+002, 7.372372e+002
8.484349e+002, 7.379621e+002
8.489170e+002, 7.375283e+002
8.493991e+002, 7.380873e+002
8.498812e+002, 7.399355e+002
8.503633e+002, 7.421146e+002
8.508455e+002, 7.442307e+002
8.513276e+002, 7.462236e+002
8.518097e+002, 7.476787e+002
8.522918e+002, 7.486146e+002
8.527739e+002, 7.492882e+002
8.532560e+002, 7.493301e+002
8.537382e+002, 7.495768e+002
8.542203e+002, 7.509578e+002
8.547024e+002, 7.533805e+002
8.551845e+002, 7.554233e+002
8.556666e+002, 7.567861e+002
8.561487e+002, 7.576871e+002
8.566309e+002, 7.580643e+002
8.571130e+002, 7.580209e+002
8.575951e+002, 7.580493e+002
8.580772e+002, 7.581532e+002
8.585593e+002, 7.586801e+002
8.590414e+002, 7.601415e+002
8.595236e+002, 7.619095e+002
8.600057e+002, 7.630587e+002
8.604878e+002, 7.637416e+002
8.609699e+002, 7.644088e+002
8.614520e+002, 7.652313e+002
8.619341e+002, 7.661016e+002
8.624163e+002, 7.669842e+002
8.628984e+002, 7.678895e+002
8.633805e+002, 7.689150e+002
8.638626e+002, 7.702150e+002
8.643447e+002, 7.709691e+002
8.648268e+002, 7.707995e+002
8.653090e+002, 7.702284e+002
8.657911e+002, 7.700694e+002
8.662732e+002, 7.703116e+002
8.667553e+002, 7.709757e+002
8.672374e+002, 7.723603e+002
8.677195e+002, 7.737302e+002
8.682017e+002, 7.749437e+002
8.686838e+002, 7.757919e+002
8.691659e+002, 7.758105e+002
8.696480e+002, 7.743024e+002
8.701301e+002, 7.735056e+002
8.706122e+002, 7.740479e+002
8.710944e+002, 7.746912e+002
8.715765e+002, 7.732990e+002
8.720586e+002, 7.702991e+002
8.725407e+002, 7.682607e+002
8.730228e+002, 7.678550e+002
8.735049e+002, 7.675273e+002
8.739871e+002, 7.656617e+002
8.744692e+002, 7.632521e+002
8.749513e+002, 7.614031e+002
8.754334e+002, 7.604675e+002
8.759155e+002, 7.597884e+002
8.763976e+002, 7.594550e+002
8.768798e+002, 7.591385e+002
8.773619e+002, 7.584817e+002
8.778440e+002, 7.574611e+002
8.783261e+002, 7.571569e+002
8.788082e+002, 7.576990e+002
8.792903e+002, 7.577181e+002
8.797725e+002, 7.551288e+002
8.802546e+002, 7.518232e+002
8.807367e+002, 7.503193e+002
8.812188e+002, 7.508784e+002
8.817009e+002, 7.515091e+002
8.821830e+002, 7.515983e+002
8.826652e+002, 7.515305e+002
8.831473e+002, 7.515544e+002
8.836294e+002, 7.516541e+002
8.841115e+002, 7.511496e+002
8.845936e+002, 7.499107e+002
8.850757e+002, 7.489601e+002
8.855579e+002, 7.491473e+002
8.860400e+002, 7.498678e+002
8.865221e+002, 7.500538e+002
8.870042e+002, 7.497748e+002
8.874863e+002, 7.493480e+002
8.879684e+002, 7.487370e+002
8.884506e+002, 7.481898e+002
8.889327e+002, 7.478268e+002
8.894148e+002, 7.476057e+002
8.898969e+002, 7.474770e+002
8.903790e+002, 7.476085e+002
8.908611e+002, 7.471268e+002
8.913433e+002, 7.454517e+002
8.918254e+002, 7.435812e+002
8.923075e+002, 7.438007e+002
8.927896e+002, 7.454217e+002
8.932717e+002, 7.463455e+002
8.937538e+002, 7.454576e+002
8.942360e+002, 7.443005e+002
8.947181e+002, 7.434375e+002
8.952002e+002, 7.429518e+002
8.956823e+002, 7.430199e+002
8.961644e+002, 7.438536e+002
8.966465e+002, 7.447737e+002
8.971287e+002, 7.458223e+002
8.976108e+002, 7.467808e+002
8.980929e+002, 7.473389e+002
8.985750e+002, 7.475568e+002
8.990571e+002, 7.476221e+002
8.995392e+002, 7.475413e+002
9.000214e+002, 7.474536e+002
9.005035e+002, 7.470573e+002
9.009856e+002, 7.469484e+002
9.014677e+002, 7.478884e+002
9.019498e+002, 7.505713e+002
9.024319e+002, 7.518123e+002
9.029141e+002, 7.509330e+002
9.033962e+002, 7.497719e+002
9.038783e+002, 7.495460e+002
9.043604e+002, 7.501049e+002
9.048425e+002, 7.501637e+002
9.053246e+002, 7.497673e+002
9.058068e+002, 7.496991e+002
9.062889e+002, 7.510848e+002
9.067710e+002, 7.525244e+002
9.072531e+002, 7.528203e+002
9.077352e+002, 7.520626e+002
9.082173e+002, 7.513327e+002
9.086995e+002, 7.502172e+002
9.091816e+002, 7.501264e+002
9.096637e+002, 7.519388e+002
9.101458e+002, 7.547787e+002
9.106279e+002, 7.556465e+002
9.111100e+002, 7.547741e+002
9.115922e+002, 7.542228e+002
9.120743e+002, 7.547728e+002
9.125564e+002, 7.559874e+002
9.130385e+002, 7.582180e+002
9.135206e+002, 7.606316e+002
9.140027e+002, 7.618373e+002
9.144849e+002, 7.600724e+002
9.149670e+002, 7.590117e+002
9.154491e+002, 7.590029e+002
9.159312e+002, 7.596927e+002
9.164133e+002, 7.607750e+002
9.168954e+002, 7.622252e+002
9.173776e+002, 7.635079e+002
9.178597e+002, 7.645170e+002
9.183418e+002, 7.656658e+002
9.188239e+002, 7.677653e+002
9.193060e+002, 7.699726e+002
9.197881e+002, 7.713633e+002
9.202703e+002, 7.717184e+002
9.207524e+002, 7.715509e+002
9.212345e+002, 7.703087e+002
9.217166e+002, 7.694031e+002
9.221987e+002, 7.697033e+002
9.226808e+002, 7.711491e+002
9.231630e+002, 7.726937e+002
9.236451e+002, 7.743479e+002
9.241272e+002, 7.755770e+002
9.246093e+002, 7.755128e+002
9.250914e+002, 7.752614e+002
9.255735e+002, 7.759737e+002
9.260557e+002, 7.775221e+002
9.265378e+002, 7.791683e+002
9.270199e+002, 7.812539e+002
9.275020e+002, 7.826967e+002
9.279841e+002, 7.829426e+002
9.284662e+002, 7.825936e+002
9.289484e+002, 7.833231e+002
9.294305e+002, 7.850562e+002
9.299126e+002, 7.866643e+002
9.303947e+002, 7.878525e+002
9.308768e+002, 7.886049e+002
9.313589e+002, 7.887883e+002
9.318411e+002, 7.885410e+002
9.323232e+002, 7.880262e+002
9.328053e+002, 7.865421e+002
9.332874e+002, 7.861387e+002
9.337695e+002, 7.876225e+002
9.342516e+002, 7.894218e+002
9.347338e+002, 7.899301e+002
9.352159e+002, 7.892084e+002
9.356980e+002, 7.887717e+002
9.361801e+002, 7.887312e+002
9.366622e+002, 7.886576e+002
9.371443e+002, 7.880801e+002
9.376265e+002, 7.873614e+002
9.381086e+002, 7.867601e+002
9.385907e+002, 7.862897e+002
9.390728e+002, 7.862824e+002
9.395549e+002, 7.870765e+002
9.400370e+002, 7.878623e+002
9.405192e+002, 7.882928e+002
9.410013e+002, 7.884615e+002
9.414834e+002, 7.888853e+002
9.419655e+002, 7.895319e+002
9.424476e+002, 7.900588e+002
9.429297e+002, 7.903808e+002
9.434119e+002, 7.904413e+002
9.438940e+002, 7.898695e+002
9.443761e+002, 7.890639e+002
9.448582e+002, 7.888418e+002
9.453403e+002, 7.901555e+002
9.458224e+002, 7.908957e+002
9.463046e+002, 7.906863e+002
9.467867e+002, 7.901209e+002
9.472688e+002, 7.899346e+002
9.477509e+002, 7.901228e+002
9.482330e+002, 7.908253e+002
9.487151e+002, 7.921522e+002
9.491973e+002, 7.932462e+002
9.496794e+002, 7.927286e+002
9.501615e+002, 7.920820e+002
9.506436e+002, 7.929873e+002
9.511257e+002, 7.962808e+002
9.516078e+002, 7.976223e+002
9.520900e+002, 7.960156e+002
9.525721e+002, 7.943829e+002
9.530542e+002, 7.944502e+002
9.535363e+002, 7.958328e+002
9.540184e+002, 7.971719e+002
9.545005e+002, 7.984028e+002
9.549827e+002, 7.991450e+002
9.554648e+002, 7.988037e+002
9.559469e+002, 7.982963e+002
9.564290e+002, 7.982376e+002
9.569111e+002, 7.984588e+002
9.573932e+002, 7.983478e+002
9.578754e+002, 7.975585e+002
9.583575e+002, 7.972678e+002
9.588396e+002, 7.976948e+002
9.593217e+002, 7.986475e+002
9.598038e+002, 8.000390e+002
9.602859e+002, 8.016807e+002
9.607681e+002, 8.030709e+002
9.612502e+002, 8.040684e+002
9.617323e+002, 8.048892e+002
9.622144e+002, 8.054828e+002
9.626965e+002, 8.060678e+002
9.631786e+002, 8.069441e+002
9.636608e+002, 8.082922e+002
9.641429e+002, 8.086863e+002
9.646250e+002, 8.078777e+002
9.651071e+002, 8.072821e+002
9.655892e+002, 8.080834e+002
9.660714e+002, 8.097095e+002
9.665535e+002, 8.113685e+002
9.670356e+002, 8.129294e+002
9.675177e+002, 8.139104e+002
9.679998e+002, 8.135256e+002
9.684819e+002, 8.131339e+002
9.689641e+002, 8.132432e+002
9.694462e+002, 8.137035e+002
9.699283e+002, 8.140952e+002
9.704104e+002, 8.143679e+002
9.708925e+002, 8.151894e+002
9.713746e+002, 8.168531e+002
9.718568e+002, 8.187291e+002
9.723389e+002, 8.202565e+002
9.728210e+002, 8.214225e+002
9.733031e+002, 8.221650e+002
9.737852e+002, 8.222871e+002
9.742673e+002, 8.224975e+002
9.747495e+002, 8.227585e+002
9.752316e+002, 8.233329e+002
9.757137e+002, 8.245439e+002
9.761958e+002, 8.263938e+002
9.766779e+002, 8.276686e+002
9.771600e+002, 8.283691e+002
9.776422e+002, 8.290182e+002
9.781243e+002, 8.302438e+002
9.786064e+002, 8.313751e+002
9.790885e+002, 8.317760e+002
9.795706e+002, 8.315316e+002
9.800527e+002, 8.310844e+002
9.805349e+002, 8.299167e+002
9.810170e+002, 8.296432e+002
9.814991e+002, 8.308898e+002
9.819812e+002, 8.328145e+002
9.824633e+002, 8.337949e+002
9.829454e+002, 8.339929e+002
9.834276e+002, 8.339456e+002
9.839097e+002, 8.336104e+002
9.843918e+002, 8.337018e+002
9.848739e+002, 8.353517e+002
9.853560e+002, 8.372679e+002
9.858381e+002, 8.380508e+002
9.863203e+002, 8.372809e+002
9.868024e+002, 8.369901e+002
9.872845e+002, 8.372133e+002
9.877666e+002, 8.377949e+002
9.882487e+002, 8.386913e+002
9.887308e+002, 8.398430e+002
9.892130e+002, 8.412704e+002
9.896951e+002, 8.428831e+002
9.901772e+002, 8.443077e+002
9.906593e+002, 8.452328e+002
9.911414e+002, 8.460787e+002
9.916235e+002, 8.470728e+002
9.921057e+002, 8.480655e+002
9.925878e+002, 8.486282e+002
9.930699e+002, 8.486780e+002
9.935520e+002, 8.493311e+002
9.940341e+002, 8.510138e+002
9.945162e+002, 8.525751e+002
9.949984e+002, 8.521227e+002
9.954805e+002, 8.509500e+002
9.959626e+002, 8.509603e+002
9.964447e+002, 8.529164e+002
9.969268e+002, 8.542724e+002
9.974089e+002, 8.540385e+002
9.978911e+002, 8.539783e+002
9.983732e+002, 8.553021e+002
9.988553e+002, 8.577386e+002
9.993374e+002, 8.592574e+002
9.998195e+002, 8.599144e+002
1.000302e+003, 8.603032e+002
1.000784e+003, 8.607325e+002
1.001266e+003, 8.610695e+002
1.001748e+003, 8.610381e+002
1.002230e+003, 8.608699e+002
1.002712e+003, 8.611582e+002
1.003194e+003, 8.619694e+002
1.003676e+003, 8.632044e+002
1.004159e+003, 8.650723e+002
1.004641e+003, 8.668341e+002
1.005123e+003, 8.673430e+002
1.005605e+003, 8.670204e+002
1.006087e+003, 8.666960e+002
1.006569e+003, 8.664210e+002
1.007051e+003, 8.668687e+002
1.007533e+003, 8.696193e+002
1.008016e+003, 8.719716e+002
1.008498e+003, 8.721516e+002
1.008980e+003, 8.703267e+002
1.009462e+003, 8.695180e+002
1.009944e+003, 8.697692e+002
1.010426e+003, 8.702076e+002
1.010908e+003, 8.702990e+002
1.011390e+003, 8.704940e+002
1.011872e+003, 8.717549e+002
1.012355e+003, 8.734661e+002
1.012837e+003, 8.743873e+002
1.013319e+003, 8.731295e+002
1.013801e+003, 8.725914e+002
1.014283e+003, 8.730887e+002
1.014765e+003, 8.742308e+002
1.015247e+003, 8.759367e+002
1.015729e+003, 8.780071e+002
1.016211e+003, 8.791675e+002
1.016694e+003, 8.793230e+002
1.017176e+003, 8.790690e+002
1.017658e+003, 8.782448e+002
1.018140e+003, 8.776552e+002
1.018622e+003, 8.778847e+002
1.019104e+003, 8.789001e+002
1.019586e+003, 8.802412e+002
1.020068e+003, 8.820451e+002
1.020551e+003, 8.835390e+002
1.021033e+003, 8.843417e+002
1.021515e+003, 8.849563e+002
1.021997e+003, 8.862911e+002
1.022479e+003, 8.880133e+002
1.022961e+003, 8.894739e+002
1.023443e+003, 8.903870e+002
1.023925e+003, 8.912278e+002
1.024407e+003, 8.920511e+002
1.024890e+003, 8.928958e+002
1.025372e+003, 8.937512e+002
1.025854e+003, 8.946097e+002
1.026336e+003, 8.959057e+002
1.026818e+003, 8.976237e+002
1.027300e+003, 8.989353e+002
1.027782e+003, 8.986915e+002
1.028264e+003, 8.983574e+002
1.028746e+003, 8.993391e+002
1.029229e+003, 9.012711e+002
1.029711e+003, 9.025889e+002
1.030193e+003, 9.029974e+002
1.030675e+003, 9.032491e+002
1.031157e+003, 9.032350e+002
1.031639e+003, 9.036526e+002
1.032121e+003, 9.062053e+002
1.032603e+003, 9.098522e+002
1.033086e+003, 9.120427e+002
1.033568e+003, 9.122261e+002
1.034050e+003, 9.120853e+002
1.034532e+003, 9.117419e+002
1.035014e+003, 9.119010e+002
1.035496e+003, 9.132697e+002
1.035978e+003, 9.156114e+002
1.036460e+003, 9.161169e+002
1.036943e+003, 9.148148e+002
1.037425e+003, 9.139792e+002
1.037907e+003, 9.149515e+002
1.038389e+003, 9.165648e+002
1.038871e+003, 9.178665e+002
1.039353e+003, 9.189808e+002
1.039835e+003, 9.200981e+002
1.040317e+003, 9.214189e+002
1.040799e+003, 9.224444e+002
1.041281e+003, 9.231487e+002
1.041764e+003, 9.236117e+002
1.042246e+003, 9.236516e+002
1.042728e+003, 9.235610e+002
1.043210e+003, 9.243180e+002
1.043692e+003, 9.258943e+002
1.044174e+003, 9.271598e+002
1.044656e+003, 9.268082e+002
1.045138e+003, 9.268676e+002
1.045621e+003, 9.285966e+002
1.046103e+003, 9.312141e+002
1.046585e+003, 9.325721e+002
1.047067e+003, 9.326512e+002
1.047549e+003, 9.324028e+002
1.048031e+003, 9.319348e+002
1.048513e+003, 9.317364e+002
1.048995e+003, 9.321965e+002
1.049478e+003, 9.332867e+002
1.049960e+003, 9.352308e+002
1.050442e+003, 9.386381e+002
1.050924e+003, 9.404210e+002
1.051406e+003, 9.399749e+002
1.051888e+003, 9.393019e+002
1.052370e+003, 9.394296e+002
1.052852e+003, 9.401641e+002
1.053334e+003, 9.410241e+002
1.053817e+003, 9.420458e+002
1.054299e+003, 9.433813e+002
1.054781e+003, 9.454020e+002
1.055263e+003, 9.473344e+002
1.055745e+003, 9.491766e+002
1.056227e+003, 9.506272e+002
1.056709e+003, 9.510459e+002
1.057191e+003, 9.504021e+002
1.057673e+003, 9.508871e+002
1.058156e+003, 9.527267e+002
1.058638e+003, 9.544382e+002
1.059120e+003, 9.547195e+002
1.059602e+003, 9.544697e+002
1.060084e+003, 9.541312e+002
1.060566e+003, 9.538785e+002
1.061048e+003, 9.547219e+002
1.061530e+003, 9.573377e+002
1.062013e+003, 9.591130e+002
1.062495e+003, 9.591303e+002
1.062977e+003, 9.585311e+002
1.063459e+003, 9.591647e+002
1.063941e+003, 9.605687e+002
1.064423e+003, 9.619651e+002
1.064905e+003, 9.633527e+002
1.065387e+003, 9.640339e+002
1.065870e+003, 9.626967e+002
1.066352e+003, 9.617240e+002
1.066834e+003, 9.624597e+002
1.067316e+003, 9.646600e+002
1.067798e+003, 9.667534e+002
1.068280e+003, 9.687064e+002
1.068762e+003, 9.702362e+002
1.069244e+003, 9.706638e+002
1.069726e+003, 9.712120e+002
1.070208e+003, 9.731856e+002
1.070691e+003, 9.755672e+002
1.071173e+003, 9.765328e+002
1.071655e+003, 9.753420e+002
1.072137e+003, 9.756492e+002
1.072619e+003, 9.778937e+002
1.073101e+003, 9.802629e+002
1.073583e+003, 9.810731e+002
1.074065e+003, 9.810234e+002
1.074548e+003, 9.806818e+002
1.075030e+003, 9.802244e+002
1.075512e+003, 9.805407e+002
1.075994e+003, 9.826388e+002
1.076476e+003, 9.842670e+002
1.076958e+003, 9.846549e+002
1.077440e+003, 9.847389e+002
1.077922e+003, 9.866759e+002
1.078405e+003, 9.897820e+002
1.078887e+003, 9.917361e+002
1.079369e+003, 9.919355e+002
1.079851e+003, 9.919708e+002
1.080333e+003, 9.926864e+002
1.080815e+003, 9.935174e+002
1.081297e+003, 9.939561e+002
1.081779e+003, 9.941036e+002
1.082261e+003, 9.952564e+002
1.082744e+003, 9.974068e+002
1.083226e+003, 9.992712e+002
1.083708e+003, 1.000186e+003
1.084190e+003, 1.000715e+003
1.084672e+003, 1.000711e+003
1.085154e+003, 1.000911e+003
1.085636e+003, 1.002587e+003
1.086118e+003, 1.007073e+003
1.086601e+003, 1.010107e+003
1.087083e+003, 1.011697e+003
1.087565e+003, 1.011825e+003
1.088047e+003, 1.009168e+003
1.088529e+003, 1.005711e+003
1.089011e+003, 1.005429e+003
1.089493e+003, 1.007641e+003
1.089975e+003, 1.009197e+003
1.090458e+003, 1.007739e+003
1.090940e+003, 1.007298e+003
1.091422e+003, 1.009160e+003
1.091904e+003, 1.011636e+003
1.092386e+003, 1.011677e+003
1.092868e+003, 1.010039e+003
1.093350e+003, 1.010184e+003
1.093832e+003, 1.012582e+003
1.094314e+003, 1.015312e+003
1.094797e+003, 1.017661e+003
1.095279e+003, 1.019509e+003
1.095761e+003, 1.020663e+003
1.096243e+003, 1.021252e+003
1.096725e+003, 1.021762e+003
1.097207e+003, 1.022180e+003
1.097689e+003, 1.022656e+003
1.098171e+003, 1.023036e+003
1.098653e+003, 1.024042e+003
1.099136e+003, 1.027221e+003
1.099618e+003, 1.030959e+003
1.100100e+003, 1.033336e+003
1.100582e+003, 1.033708e+003
1.101064e+003, 1.034625e+003
1.101546e+003, 1.036273e+003
1.102028e+003, 1.037739e+003
1.102510e+003, 1.038344e+003
1.102993e+003, 1.038624e+003
1.103475e+003, 1.039899e+003
1.103957e+003, 1.041572e+003
1.104439e+003, 1.042278e+003
1.104921e+003, 1.040237e+003
1.105403e+003, 1.039178e+003
1.105885e+003, 1.039734e+003
1.106367e+003, 1.040851e+003
1.106849e+003, 1.041502e+003
1.107332e+003, 1.041883e+003
1.107814e+003, 1.042976e+003
1.108296e+003, 1.044696e+003
1.108778e+003, 1.045990e+003
1.109260e+003, 1.046230e+003
1.109742e+003, 1.046037e+003
1.110224e+003, 1.045317e+003
1.110706e+003, 1.044569e+003
1.111188e+003, 1.044730e+003
1.111671e+003, 1.045776e+003
1.112153e+003, 1.046555e+003
1.112635e+003, 1.046886e+003
1.113117e+003, 1.047434e+003
1.113599e+003, 1.048855e+003
1.114081e+003, 1.050638e+003
1.114563e+003, 1.052337e+003
1.115045e+003, 1.053979e+003
1.115528e+003, 1.055956e+003
1.116010e+003, 1.058363e+003
1.116492e+003, 1.060490e+003
1.116974e+003, 1.062042e+003
1.117456e+003, 1.063364e+003
1.117938e+003, 1.064599e+003
1.118420e+003, 1.065969e+003
1.118902e+003, 1.067935e+003
1.119385e+003, 1.070888e+003
1.119867e+003, 1.072718e+003
1.120349e+003, 1.072919e+003
1.120831e+003, 1.073074e+003
1.121313e+003, 1.074171e+003
1.121795e+003, 1.075566e+003
1.122277e+003, 1.075424e+003
1.122759e+003, 1.074548e+003
1.123241e+003, 1.074893e+003
1.123724e+003, 1.078512e+003
1.124206e+003, 1.081172e+003
1.124688e+003, 1.082100e+003
1.125170e+003, 1.082343e+003
1.125652e+003, 1.082771e+003
1.126134e+003, 1.083296e+003
1.126616e+003, 1.083178e+003
1.127098e+003, 1.082540e+003
1.127580e+003, 1.082044e+003
1.128063e+003, 1.081456e+003
1.128545e+003, 1.081811e+003
1.129027e+003, 1.084330e+003
1.129509e+003, 1.087477e+003
1.129991e+003, 1.089107e+003
1.130473e+003, 1.089254e+003
1.130955e+003, 1.089765e+003
1.131437e+003, 1.090778e+003
1.131920e+003, 1.092305e+003
1.132402e+003, 1.095236e+003
1.132884e+003, 1.097844e+003
1.133366e+003, 1.098334e+003
1.133848e+003, 1.097478e+003
1.134330e+003, 1.098255e+003
1.134812e+003, 1.100875e+003
1.135294e+003, 1.103458e+003
1.135776e+003, 1.105682e+003
1.136259e+003, 1.107449e+003
1.136741e+003, 1.108185e+003
1.137223e+003, 1.108751e+003
1.137705e+003, 1.110205e+003
1.138187e+003, 1.112705e+003
1.138669e+003, 1.114683e+003
1.139151e+003, 1.116112e+003
1.139633e+003, 1.117032e+003
1.140115e+003, 1.117302e+003
1.140598e+003, 1.117382e+003
1.141080e+003, 1.118122e+003
1.141562e+003, 1.119078e+003
1.142044e+003, 1.119389e+003
1.142526e+003, 1.118338e+003
1.143008e+003, 1.118752e+003
1.143490e+003, 1.121490e+003
1.143972e+003, 1.124161e+003
1.144455e+003, 1.125360e+003
1.144937e+003, 1.125701e+003
1.145419e+003, 1.126473e+003
1.145901e+003, 1.127605e+003
1.146383e+003, 1.128943e+003
1.146865e+003, 1.130773e+003
1.147347e+003, 1.132208e+003
1.147829e+003, 1.133081e+003
1.148312e+003, 1.133662e+003
1.148794e+003, 1.133956e+003
1.149276e+003, 1.134126e+003
1.149758e+003, 1.134945e+003
1.150240e+003, 1.136375e+003
1.150722e+003, 1.138188e+003
1.151204e+003, 1.141347e+003
1.151686e+003, 1.143465e+003
1.152168e+003, 1.142766e+003
1.152651e+003, 1.141545e+003
1.153133e+003, 1.142870e+003
1.153615e+003, 1.146389e+003
1.154097e+003, 1.148284e+003
1.154579e+003, 1.148341e+003
1.155061e+003, 1.148235e+003
1.155543e+003, 1.148845e+003
1.156025e+003, 1.149779e+003
1.156507e+003, 1.150799e+003
1.156990e+003, 1.151996e+003
1.157472e+003, 1.153821e+003
1.157954e+003, 1.156282e+003
1.158436e+003, 1.157671e+003
1.158918e+003, 1.157663e+003
1.159400e+003, 1.157742e+003
1.159882e+003, 1.159453e+003
1.160364e+003, 1.161427e+003
1.160847e+003, 1.162521e+003
1.161329e+003, 1.162915e+003
1.161811e+003, 1.163659e+003
1.162293e+003, 1.164756e+003
1.162775e+003, 1.166269e+003
1.163257e+003, 1.168432e+003
1.163739e+003, 1.170150e+003
1.164221e+003, 1.169465e+003
1.164703e+003, 1.168384e+003
1.165186e+003, 1.169274e+003
1.165668e+003, 1.172432e+003
1.166150e+003, 1.174310e+003
1.166632e+003, 1.174727e+003
1.167114e+003, 1.174886e+003
1.167596e+003, 1.175092e+003
1.168078e+003, 1.175545e+003
1.168560e+003, 1.176570e+003
1.169042e+003, 1.177976e+003
1.169525e+003, 1.179508e+003
1.170007e+003, 1.181128e+003
1.170489e+003, 1.182849e+003
1.170971e+003, 1.184600e+003
1.171453e+003, 1.186758e+003
1.171935e+003, 1.189891e+003
1.172417e+003, 1.193112e+003
1.172899e+003, 1.194763e+003
1.173382e+003, 1.195548e+003
1.173864e+003, 1.196756e+003
1.174346e+003, 1.199160e+003
1.174828e+003, 1.200942e+003
1.175310e+003, 1.201910e+003
1.175792e+003, 1.202677e+003
1.176274e+003, 1.203653e+003
1.176756e+003, 1.204737e+003
1.177239e+003, 1.206032e+003
1.177721e+003, 1.207294e+003
1.178203e+003, 1.207921e+003
1.178685e+003, 1.206823e+003
1.179167e+003, 1.206570e+003
1.179649e+003, 1.207634e+003
1.180131e+003, 1.208980e+003
1.180613e+003, 1.209301e+003
1.181095e+003, 1.209369e+003
1.181578e+003, 1.211596e+003
1.182060e+003, 1.215361e+003
1.182542e+003, 1.217657e+003
1.183024e+003, 1.215280e+003
1.183506e+003, 1.214416e+003
1.183988e+003, 1.216250e+003
1.184470e+003, 1.219240e+003
1.184952e+003, 1.221919e+003
1.185434e+003, 1.224236e+003
1.185917e+003, 1.226042e+003
1.186399e+003, 1.227340e+003
1.186881e+003, 1.228422e+003
1.187363e+003, 1.228979e+003
1.187845e+003, 1.229858e+003
1.188327e+003, 1.231257e+003
1.188809e+003, 1.232966e+003
1.189291e+003, 1.234606e+003
1.189774e+003, 1.236312e+003
1.190256e+003, 1.238891e+003
1.190738e+003, 1.242400e+003
1.191220e+003, 1.244914e+003
1.191702e+003, 1.245029e+003
1.192184e+003, 1.244631e+003
1.192666e+003, 1.244000e+003
1.193148e+003, 1.243594e+003
1.193630e+003, 1.244586e+003
1.194113e+003, 1.246600e+003
1.194595e+003, 1.248359e+003
1.195077e+003, 1.249636e+003
1.195559e+003, 1.250828e+003
1.196041e+003, 1.252102e+003
1.196523e+003, 1.253338e+003
1.197005e+003, 1.254436e+003
1.197487e+003, 1.255504e+003
1.197969e+003, 1.256988e+003
1.198452e+003, 1.258693e+003
1.198934e+003, 1.259964e+003
1.199416e+003, 1.260584e+003
1.199898e+003, 1.260895e+003
1.200380e+003, 1.260691e+003
1.200862e+003, 1.260519e+003
1.201344e+003, 1.260451e+003
1.201826e+003, 1.260684e+003
1.202309e+003, 1.262248e+003
1.202791e+003, 1.264822e+003
1.203273e+003, 1.267185e+003
1.203755e+003, 1.269266e+003
1.204237e+003, 1.270296e+003
1.204719e+003, 1.268390e+003
1.205201e+003, 1.266991e+003
1.205683e+003, 1.268510e+003
1.206166e+003, 1.272033e+003
1.206648e+003, 1.272982e+003
1.207130e+003, 1.272003e+003
1.207612e+003, 1.271898e+003
1.208094e+003, 1.274152e+003
1.208576e+003, 1.276411e+003
1.209058e+003, 1.277159e+003
1.209540e+003, 1.278078e+003
1.210022e+003, 1.280360e+003
1.210505e+003, 1.283745e+003
1.210987e+003, 1.286878e+003
1.211469e+003, 1.289623e+003
1.211951e+003, 1.291140e+003
1.212433e+003, 1.289232e+003
1.212915e+003, 1.289044e+003
1.213397e+003, 1.294711e+003
1.213879e+003, 1.300661e+003
1.214361e+003, 1.302459e+003
1.214844e+003, 1.300755e+003
1.215326e+003, 1.300235e+003
1.215808e+003, 1.300744e+003
1.216290e+003, 1.301501e+003
1.216772e+003, 1.302123e+003
1.217254e+003, 1.302931e+003
1.217736e+003, 1.304041e+003
1.218218e+003, 1.305328e+003
1.218701e+003, 1.306868e+003
1.219183e+003, 1.308541e+003
1.219665e+003, 1.309458e+003
1.220147e+003, 1.309745e+003
1.220629e+003, 1.310178e+003
1.221111e+003, 1.311101e+003
1.221593e+003, 1.312351e+003
1.222075e+003, 1.314358e+003
1.222557e+003, 1.316145e+003
1.223040e+003, 1.316499e+003
1.223522e+003, 1.315759e+003
1.224004e+003, 1.315328e+003
1.224486e+003, 1.315312e+003
1.224968e+003, 1.316004e+003
1.225450e+003, 1.318797e+003
1.225932e+003, 1.320516e+003
1.226414e+003, 1.319632e+003
1.226896e+003, 1.318520e+003
1.227379e+003, 1.320483e+003
1.227861e+003, 1.324469e+003
1.228343e+003, 1.326481e+003
1.228825e+003, 1.326642e+003
1.229307e+003, 1.327241e+003
1.229789e+003, 1.330489e+003
1.230271e+003, 1.332532e+003
1.230753e+003, 1.331993e+003
1.231236e+003, 1.330824e+003
1.231718e+003, 1.331791e+003
1.232200e+003, 1.334083e+003
1.232682e+003, 1.335333e+003
1.233164e+003, 1.335538e+003
1.233646e+003, 1.335986e+003
1.234128e+003, 1.337290e+003
1.234610e+003, 1.338849e+003
1.235093e+003, 1.340633e+003
1.235575e+003, 1.342452e+003
1.236057e+003, 1.343588e+003
1.236539e+003, 1.344675e+003
1.237021e+003, 1.347584e+003
1.237503e+003, 1.352182e+003
1.237985e+003, 1.355965e+003
1.238467e+003, 1.357904e+003
1.238949e+003, 1.359104e+003
1.239432e+003, 1.359681e+003
1.239914e+003, 1.359686e+003
1.240396e+003, 1.358345e+003
1.240878e+003, 1.356829e+003
1.241360e+003, 1.357654e+003
1.241842e+003, 1.360867e+003
1.242324e+003, 1.363771e+003
1.242806e+003, 1.365506e+003
1.243288e+003, 1.367717e+003
1.243771e+003, 1.370959e+003
1.244253e+003, 1.374149e+003
1.244735e+003, 1.375562e+003
1.245217e+003, 1.376201e+003
1.245699e+003, 1.377833e+003
1.246181e+003, 1.380506e+003
1.246663e+003, 1.382015e+003
1.247145e+003, 1.381695e+003
1.247628e+003, 1.381708e+003
1.248110e+003, 1.382514e+003
1.248592e+003, 1.383785e+003
1.249074e+003, 1.385593e+003
1.249556e+003, 1.387310e+003
1.250038e+003, 1.388068e+003
1.250520e+003, 1.387846e+003
1.251002e+003, 1.387865e+003
1.251484e+003, 1.388054e+003
1.251967e+003, 1.389145e+003
1.252449e+003, 1.391544e+003
1.252931e+003, 1.393919e+003
1.253413e+003, 1.394553e+003
1.253895e+003, 1.394646e+003
1.254377e+003, 1.395232e+003
1.254859e+003, 1.396437e+003
1.255341e+003, 1.398447e+003
1.255823e+003, 1.401420e+003
1.256306e+003, 1.403609e+003
1.256788e+003, 1.404406e+003
1.257270e+003, 1.405245e+003
1.257752e+003, 1.408162e+003
1.258234e+003, 1.411122e+003
1.258716e+003, 1.411633e+003
1.259198e+003, 1.410465e+003
1.259680e+003, 1.412014e+003
1.260163e+003, 1.416322e+003
1.260645e+003, 1.419172e+003
1.261127e+003, 1.419500e+003
1.261609e+003, 1.419244e+003
1.262091e+003, 1.419699e+003
1.262573e+003, 1.420295e+003
1.263055e+003, 1.420712e+003
1.263537e+003, 1.420953e+003
1.264020e+003, 1.420865e+003
1.264502e+003, 1.420538e+003
1.264984e+003, 1.420561e+003
1.265466e+003, 1.421034e+003
1.265948e+003, 1.422134e+003
1.266430e+003, 1.424804e+003
1.266912e+003, 1.427178e+003
1.267394e+003, 1.428237e+003
1.267876e+003, 1.428414e+003
1.268359e+003, 1.428607e+003
1.268841e+003, 1.429004e+003
1.269323e+003, 1.430670e+003
1.269805e+003, 1.434058e+003
1.270287e+003, 1.436554e+003
1.270769e+003, 1.436218e+003
1.271251e+003, 1.435782e+003
1.271733e+003, 1.436142e+003
1.272215e+003, 1.436989e+003
1.272698e+003, 1.437732e+003
1.273180e+003, 1.438414e+003
1.273662e+003, 1.438960e+003
1.274144e+003, 1.439289e+003
1.274626e+003, 1.440511e+003
1.275108e+003, 1.443381e+003
1.275590e+003, 1.446023e+003
1.276072e+003, 1.447787e+003
1.276555e+003, 1.449094e+003
1.277037e+003, 1.450446e+003
1.277519e+003, 1.451834e+003
1.278001e+003, 1.453219e+003
1.278483e+003, 1.454545e+003
1.278965e+003, 1.456158e+003
1.279447e+003, 1.458118e+003
1.279929e+003, 1.459958e+003
1.280411e+003, 1.461429e+003
1.280894e+003, 1.462900e+003
1.281376e+003, 1.465219e+003
1.281858e+003, 1.467537e+003
1.282340e+003, 1.468701e+003
1.282822e+003, 1.468692e+003
1.283304e+003, 1.469441e+003
1.283786e+003, 1.471061e+003
1.284268e+003, 1.472228e+003
1.284750e+003, 1.472484e+003
1.285233e+003, 1.472762e+003
1.285715e+003, 1.474354e+003
1.286197e+003, 1.475993e+003
1.286679e+003, 1.476301e+003
1.287161e+003, 1.475767e+003
1.287643e+003, 1.476793e+003
1.288125e+003, 1.479250e+003
1.288607e+003, 1.481221e+003
1.289090e+003, 1.482195e+003
1.289572e+003, 1.483005e+003
1.290054e+003, 1.483790e+003
1.290536e+003, 1.485081e+003
1.291018e+003, 1.487505e+003
1.291500e+003, 1.490301e+003
1.291982e+003, 1.491079e+003
1.292464e+003, 1.490369e+003
1.292947e+003, 1.489925e+003
1.293429e+003, 1.490006e+003
1.293911e+003, 1.491124e+003
1.294393e+003, 1.494207e+003
1.294875e+003, 1.497468e+003
1.295357e+003, 1.500400e+003
1.295839e+003, 1.503044e+003
1.296321e+003, 1.505735e+003
1.296803e+003, 1.508400e+003
1.297286e+003, 1.510930e+003
1.297768e+003, 1.513308e+003
1.298250e+003, 1.514601e+003
1.298732e+003, 1.514341e+003
1.299214e+003, 1.514044e+003
1.299696e+003, 1.514049e+003
1.300178e+003, 1.514597e+003
1.300660e+003, 1.516424e+003
##END=



