##NAMES=Kryzhanovskite
##RRUFFID=R130050
##IDEAL CHEMISTRY=(Fe^3+^,Mn^2+^)_3_(PO_4_)_2_(OH,H_2_O)_3_
##LOCALITY=Bull Moose mine, Custer County, South Dakota, USA
##OWNER=RRUFF
##SOURCE=Don Doell
##DESCRIPTION=Light brown massive
##STATUS=The identification of this mineral has been confirmed only by single crystal X-ray diffraction.
##URL=rruff.info/R130050
8.806445e+001, 9.898789e+002
8.854657e+001, 9.887815e+002
8.902869e+001, 9.884492e+002
8.951080e+001, 9.893901e+002
8.999292e+001, 9.908696e+002
9.047504e+001, 9.925110e+002
9.095715e+001, 9.944584e+002
9.143927e+001, 9.955702e+002
9.192139e+001, 9.934852e+002
9.240350e+001, 9.882458e+002
9.288562e+001, 9.835441e+002
9.336774e+001, 9.749449e+002
9.384985e+001, 9.562898e+002
9.433197e+001, 9.269623e+002
9.481409e+001, 9.002090e+002
9.529620e+001, 8.730358e+002
9.577832e+001, 8.479753e+002
9.626044e+001, 8.253724e+002
9.674255e+001, 8.053751e+002
9.722467e+001, 7.884576e+002
9.770679e+001, 7.753799e+002
9.818890e+001, 7.621549e+002
9.867102e+001, 7.478054e+002
9.915314e+001, 7.329285e+002
9.963525e+001, 7.173768e+002
1.001174e+002, 7.009348e+002
1.005995e+002, 6.843798e+002
1.010816e+002, 6.706094e+002
1.015637e+002, 6.614745e+002
1.020458e+002, 6.531595e+002
1.025280e+002, 6.452962e+002
1.030101e+002, 6.377682e+002
1.034922e+002, 6.304249e+002
1.039743e+002, 6.231276e+002
1.044564e+002, 6.158359e+002
1.049385e+002, 6.099563e+002
1.054207e+002, 6.066229e+002
1.059028e+002, 6.032662e+002
1.063849e+002, 5.988933e+002
1.068670e+002, 5.933563e+002
1.073491e+002, 5.863506e+002
1.078312e+002, 5.766967e+002
1.083134e+002, 5.646329e+002
1.087955e+002, 5.547155e+002
1.092776e+002, 5.484200e+002
1.097597e+002, 5.442993e+002
1.102418e+002, 5.405167e+002
1.107239e+002, 5.370754e+002
1.112061e+002, 5.333448e+002
1.116882e+002, 5.281814e+002
1.121703e+002, 5.219614e+002
1.126524e+002, 5.167269e+002
1.131345e+002, 5.143320e+002
1.136166e+002, 5.145614e+002
1.140988e+002, 5.138597e+002
1.145809e+002, 5.115639e+002
1.150630e+002, 5.082786e+002
1.155451e+002, 5.039692e+002
1.160272e+002, 4.987582e+002
1.165093e+002, 4.933811e+002
1.169915e+002, 4.887885e+002
1.174736e+002, 4.853876e+002
1.179557e+002, 4.817259e+002
1.184378e+002, 4.772562e+002
1.189199e+002, 4.728137e+002
1.194020e+002, 4.688972e+002
1.198842e+002, 4.656898e+002
1.203663e+002, 4.631406e+002
1.208484e+002, 4.611260e+002
1.213305e+002, 4.605521e+002
1.218126e+002, 4.595103e+002
1.222947e+002, 4.582840e+002
1.227769e+002, 4.564885e+002
1.232590e+002, 4.534010e+002
1.237411e+002, 4.484743e+002
1.242232e+002, 4.422968e+002
1.247053e+002, 4.375227e+002
1.251874e+002, 4.348218e+002
1.256696e+002, 4.324295e+002
1.261517e+002, 4.294447e+002
1.266338e+002, 4.261177e+002
1.271159e+002, 4.235092e+002
1.275980e+002, 4.227254e+002
1.280801e+002, 4.231067e+002
1.285623e+002, 4.223105e+002
1.290444e+002, 4.194051e+002
1.295265e+002, 4.158943e+002
1.300086e+002, 4.134559e+002
1.304907e+002, 4.123889e+002
1.309728e+002, 4.109171e+002
1.314550e+002, 4.072006e+002
1.319371e+002, 4.024536e+002
1.324192e+002, 3.983201e+002
1.329013e+002, 3.955792e+002
1.333834e+002, 3.938958e+002
1.338655e+002, 3.923324e+002
1.343477e+002, 3.910426e+002
1.348298e+002, 3.896378e+002
1.353119e+002, 3.878798e+002
1.357940e+002, 3.859156e+002
1.362761e+002, 3.840365e+002
1.367582e+002, 3.825196e+002
1.372404e+002, 3.813936e+002
1.377225e+002, 3.799218e+002
1.382046e+002, 3.782487e+002
1.386867e+002, 3.760894e+002
1.391688e+002, 3.730791e+002
1.396509e+002, 3.694032e+002
1.401331e+002, 3.655992e+002
1.406152e+002, 3.621666e+002
1.410973e+002, 3.592054e+002
1.415794e+002, 3.563972e+002
1.420615e+002, 3.537670e+002
1.425436e+002, 3.512307e+002
1.430258e+002, 3.487039e+002
1.435079e+002, 3.461852e+002
1.439900e+002, 3.437303e+002
1.444721e+002, 3.413921e+002
1.449542e+002, 3.390940e+002
1.454363e+002, 3.372062e+002
1.459185e+002, 3.360744e+002
1.464006e+002, 3.352247e+002
1.468827e+002, 3.340937e+002
1.473648e+002, 3.324985e+002
1.478469e+002, 3.306797e+002
1.483290e+002, 3.290172e+002
1.488112e+002, 3.275092e+002
1.492933e+002, 3.260238e+002
1.497754e+002, 3.244614e+002
1.502575e+002, 3.228791e+002
1.507396e+002, 3.214308e+002
1.512217e+002, 3.202059e+002
1.517039e+002, 3.191073e+002
1.521860e+002, 3.179215e+002
1.526681e+002, 3.165989e+002
1.531502e+002, 3.155367e+002
1.536323e+002, 3.153407e+002
1.541144e+002, 3.160619e+002
1.545966e+002, 3.161673e+002
1.550787e+002, 3.147766e+002
1.555608e+002, 3.128363e+002
1.560429e+002, 3.108593e+002
1.565250e+002, 3.089319e+002
1.570071e+002, 3.071401e+002
1.574893e+002, 3.056441e+002
1.579714e+002, 3.045817e+002
1.584535e+002, 3.034481e+002
1.589356e+002, 3.021300e+002
1.594177e+002, 3.007256e+002
1.598998e+002, 2.993215e+002
1.603820e+002, 2.979554e+002
1.608641e+002, 2.965737e+002
1.613462e+002, 2.950373e+002
1.618283e+002, 2.930739e+002
1.623104e+002, 2.913484e+002
1.627925e+002, 2.899825e+002
1.632747e+002, 2.888464e+002
1.637568e+002, 2.877998e+002
1.642389e+002, 2.867806e+002
1.647210e+002, 2.857956e+002
1.652031e+002, 2.848841e+002
1.656852e+002, 2.842369e+002
1.661674e+002, 2.834488e+002
1.666495e+002, 2.822251e+002
1.671316e+002, 2.808311e+002
1.676137e+002, 2.797212e+002
1.680958e+002, 2.791500e+002
1.685779e+002, 2.790832e+002
1.690601e+002, 2.792697e+002
1.695422e+002, 2.803302e+002
1.700243e+002, 2.809772e+002
1.705064e+002, 2.804244e+002
1.709885e+002, 2.789159e+002
1.714706e+002, 2.774390e+002
1.719528e+002, 2.766257e+002
1.724349e+002, 2.763481e+002
1.729170e+002, 2.758724e+002
1.733991e+002, 2.748755e+002
1.738812e+002, 2.739319e+002
1.743633e+002, 2.735952e+002
1.748455e+002, 2.738799e+002
1.753276e+002, 2.741142e+002
1.758097e+002, 2.738764e+002
1.762918e+002, 2.732951e+002
1.767739e+002, 2.725832e+002
1.772560e+002, 2.717508e+002
1.777382e+002, 2.708305e+002
1.782203e+002, 2.698076e+002
1.787024e+002, 2.685996e+002
1.791845e+002, 2.675819e+002
1.796666e+002, 2.669720e+002
1.801487e+002, 2.666582e+002
1.806309e+002, 2.665711e+002
1.811130e+002, 2.668055e+002
1.815951e+002, 2.671737e+002
1.820772e+002, 2.671382e+002
1.825593e+002, 2.664725e+002
1.830414e+002, 2.657478e+002
1.835236e+002, 2.650444e+002
1.840057e+002, 2.644415e+002
1.844878e+002, 2.640795e+002
1.849699e+002, 2.640981e+002
1.854520e+002, 2.644109e+002
1.859341e+002, 2.644482e+002
1.864163e+002, 2.636909e+002
1.868984e+002, 2.632418e+002
1.873805e+002, 2.635611e+002
1.878626e+002, 2.643438e+002
1.883447e+002, 2.651090e+002
1.888268e+002, 2.655631e+002
1.893090e+002, 2.657001e+002
1.897911e+002, 2.653017e+002
1.902732e+002, 2.634042e+002
1.907553e+002, 2.619482e+002
1.912374e+002, 2.616670e+002
1.917195e+002, 2.622747e+002
1.922017e+002, 2.630364e+002
1.926838e+002, 2.633725e+002
1.931659e+002, 2.632532e+002
1.936480e+002, 2.635548e+002
1.941301e+002, 2.638015e+002
1.946122e+002, 2.647809e+002
1.950944e+002, 2.675087e+002
1.955765e+002, 2.714821e+002
1.960586e+002, 2.750022e+002
1.965407e+002, 2.765971e+002
1.970228e+002, 2.761478e+002
1.975049e+002, 2.760436e+002
1.979871e+002, 2.765392e+002
1.984692e+002, 2.771275e+002
1.989513e+002, 2.776481e+002
1.994334e+002, 2.780443e+002
1.999155e+002, 2.780664e+002
2.003976e+002, 2.774186e+002
2.008798e+002, 2.761129e+002
2.013619e+002, 2.748774e+002
2.018440e+002, 2.744711e+002
2.023261e+002, 2.736860e+002
2.028082e+002, 2.708268e+002
2.032903e+002, 2.657183e+002
2.037725e+002, 2.611162e+002
2.042546e+002, 2.598570e+002
2.047367e+002, 2.609026e+002
2.052188e+002, 2.613062e+002
2.057009e+002, 2.608224e+002
2.061830e+002, 2.592825e+002
2.066652e+002, 2.557472e+002
2.071473e+002, 2.494524e+002
2.076294e+002, 2.441647e+002
2.081115e+002, 2.438053e+002
2.085936e+002, 2.460197e+002
2.090757e+002, 2.472742e+002
2.095579e+002, 2.459565e+002
2.100400e+002, 2.430268e+002
2.105221e+002, 2.402758e+002
2.110042e+002, 2.376015e+002
2.114863e+002, 2.353756e+002
2.119685e+002, 2.339625e+002
2.124506e+002, 2.330201e+002
2.129327e+002, 2.320632e+002
2.134148e+002, 2.307656e+002
2.138969e+002, 2.293323e+002
2.143790e+002, 2.284381e+002
2.148612e+002, 2.283361e+002
2.153433e+002, 2.283940e+002
2.158254e+002, 2.284230e+002
2.163075e+002, 2.284333e+002
2.167896e+002, 2.284580e+002
2.172717e+002, 2.285406e+002
2.177539e+002, 2.286329e+002
2.182360e+002, 2.284846e+002
2.187181e+002, 2.277119e+002
2.192002e+002, 2.272185e+002
2.196823e+002, 2.274526e+002
2.201644e+002, 2.280318e+002
2.206466e+002, 2.284126e+002
2.211287e+002, 2.282522e+002
2.216108e+002, 2.276572e+002
2.220929e+002, 2.272325e+002
2.225750e+002, 2.270355e+002
2.230571e+002, 2.269736e+002
2.235393e+002, 2.270021e+002
2.240214e+002, 2.271610e+002
2.245035e+002, 2.275358e+002
2.249856e+002, 2.281882e+002
2.254677e+002, 2.290690e+002
2.259498e+002, 2.298622e+002
2.264320e+002, 2.305957e+002
2.269141e+002, 2.312061e+002
2.273962e+002, 2.317533e+002
2.278783e+002, 2.321599e+002
2.283604e+002, 2.323232e+002
2.288425e+002, 2.321837e+002
2.293247e+002, 2.317483e+002
2.298068e+002, 2.310326e+002
2.302889e+002, 2.299273e+002
2.307710e+002, 2.286930e+002
2.312531e+002, 2.272844e+002
2.317352e+002, 2.257886e+002
2.322174e+002, 2.242912e+002
2.326995e+002, 2.228054e+002
2.331816e+002, 2.214147e+002
2.336637e+002, 2.205387e+002
2.341458e+002, 2.206875e+002
2.346279e+002, 2.206596e+002
2.351101e+002, 2.200168e+002
2.355922e+002, 2.189909e+002
2.360743e+002, 2.179900e+002
2.365564e+002, 2.171729e+002
2.370385e+002, 2.165850e+002
2.375206e+002, 2.164514e+002
2.380028e+002, 2.170825e+002
2.384849e+002, 2.175805e+002
2.389670e+002, 2.174334e+002
2.394491e+002, 2.169259e+002
2.399312e+002, 2.167464e+002
2.404133e+002, 2.172679e+002
2.408955e+002, 2.181593e+002
2.413776e+002, 2.186568e+002
2.418597e+002, 2.186157e+002
2.423418e+002, 2.186171e+002
2.428239e+002, 2.189726e+002
2.433060e+002, 2.195646e+002
2.437882e+002, 2.200753e+002
2.442703e+002, 2.203914e+002
2.447524e+002, 2.205710e+002
2.452345e+002, 2.207236e+002
2.457166e+002, 2.208622e+002
2.461987e+002, 2.209266e+002
2.466809e+002, 2.208891e+002
2.471630e+002, 2.207541e+002
2.476451e+002, 2.205249e+002
2.481272e+002, 2.201767e+002
2.486093e+002, 2.197668e+002
2.490914e+002, 2.194338e+002
2.495736e+002, 2.191933e+002
2.500557e+002, 2.187469e+002
2.505378e+002, 2.176390e+002
2.510199e+002, 2.161104e+002
2.515020e+002, 2.151787e+002
2.519841e+002, 2.152216e+002
2.524663e+002, 2.156863e+002
2.529484e+002, 2.162119e+002
2.534305e+002, 2.167601e+002
2.539126e+002, 2.169751e+002
2.543947e+002, 2.164138e+002
2.548768e+002, 2.152668e+002
2.553590e+002, 2.144481e+002
2.558411e+002, 2.141278e+002
2.563232e+002, 2.140790e+002
2.568053e+002, 2.141585e+002
2.572874e+002, 2.143432e+002
2.577695e+002, 2.145496e+002
2.582516e+002, 2.147339e+002
2.587338e+002, 2.149002e+002
2.592159e+002, 2.150891e+002
2.596980e+002, 2.154389e+002
2.601801e+002, 2.155913e+002
2.606622e+002, 2.152102e+002
2.611443e+002, 2.145129e+002
2.616265e+002, 2.139943e+002
2.621086e+002, 2.140957e+002
2.625907e+002, 2.146297e+002
2.630728e+002, 2.147129e+002
2.635549e+002, 2.141178e+002
2.640370e+002, 2.133857e+002
2.645192e+002, 2.126495e+002
2.650013e+002, 2.119606e+002
2.654834e+002, 2.114205e+002
2.659655e+002, 2.111415e+002
2.664476e+002, 2.110117e+002
2.669297e+002, 2.105699e+002
2.674119e+002, 2.094326e+002
2.678940e+002, 2.086307e+002
2.683761e+002, 2.086530e+002
2.688582e+002, 2.090786e+002
2.693403e+002, 2.093935e+002
2.698224e+002, 2.093438e+002
2.703046e+002, 2.090511e+002
2.707867e+002, 2.088601e+002
2.712688e+002, 2.088994e+002
2.717509e+002, 2.088067e+002
2.722330e+002, 2.082406e+002
2.727151e+002, 2.076449e+002
2.731973e+002, 2.075049e+002
2.736794e+002, 2.080231e+002
2.741615e+002, 2.089223e+002
2.746436e+002, 2.096426e+002
2.751257e+002, 2.101512e+002
2.756078e+002, 2.105202e+002
2.760900e+002, 2.105911e+002
2.765721e+002, 2.106490e+002
2.770542e+002, 2.109511e+002
2.775363e+002, 2.115655e+002
2.780184e+002, 2.123345e+002
2.785005e+002, 2.130186e+002
2.789827e+002, 2.136709e+002
2.794648e+002, 2.140963e+002
2.799469e+002, 2.141293e+002
2.804290e+002, 2.140854e+002
2.809111e+002, 2.141489e+002
2.813932e+002, 2.143637e+002
2.818754e+002, 2.146839e+002
2.823575e+002, 2.150517e+002
2.828396e+002, 2.154597e+002
2.833217e+002, 2.159438e+002
2.838038e+002, 2.166753e+002
2.842859e+002, 2.173349e+002
2.847681e+002, 2.177368e+002
2.852502e+002, 2.178840e+002
2.857323e+002, 2.178764e+002
2.862144e+002, 2.177525e+002
2.866965e+002, 2.174054e+002
2.871786e+002, 2.175900e+002
2.876608e+002, 2.190220e+002
2.881429e+002, 2.202705e+002
2.886250e+002, 2.205801e+002
2.891071e+002, 2.201616e+002
2.895892e+002, 2.197515e+002
2.900714e+002, 2.199781e+002
2.905535e+002, 2.208544e+002
2.910356e+002, 2.214170e+002
2.915177e+002, 2.215584e+002
2.919998e+002, 2.215033e+002
2.924819e+002, 2.212206e+002
2.929641e+002, 2.207885e+002
2.934462e+002, 2.203031e+002
2.939283e+002, 2.198060e+002
2.944104e+002, 2.193306e+002
2.948925e+002, 2.190859e+002
2.953746e+002, 2.195706e+002
2.958568e+002, 2.197314e+002
2.963389e+002, 2.191230e+002
2.968210e+002, 2.181787e+002
2.973031e+002, 2.175605e+002
2.977852e+002, 2.175939e+002
2.982673e+002, 2.179763e+002
2.987495e+002, 2.178078e+002
2.992316e+002, 2.164732e+002
2.997137e+002, 2.153093e+002
3.001958e+002, 2.144929e+002
3.006779e+002, 2.138071e+002
3.011600e+002, 2.130416e+002
3.016422e+002, 2.121229e+002
3.021243e+002, 2.111031e+002
3.026064e+002, 2.100821e+002
3.030885e+002, 2.090927e+002
3.035706e+002, 2.080397e+002
3.040527e+002, 2.068588e+002
3.045349e+002, 2.056663e+002
3.050170e+002, 2.045440e+002
3.054991e+002, 2.035107e+002
3.059812e+002, 2.025536e+002
3.064633e+002, 2.016720e+002
3.069454e+002, 2.009233e+002
3.074276e+002, 2.000473e+002
3.079097e+002, 1.990064e+002
3.083918e+002, 1.979050e+002
3.088739e+002, 1.967567e+002
3.093560e+002, 1.955893e+002
3.098381e+002, 1.944629e+002
3.103203e+002, 1.934011e+002
3.108024e+002, 1.924003e+002
3.112845e+002, 1.916530e+002
3.117666e+002, 1.912996e+002
3.122487e+002, 1.910145e+002
3.127308e+002, 1.907652e+002
3.132130e+002, 1.904939e+002
3.136951e+002, 1.900909e+002
3.141772e+002, 1.894716e+002
3.146593e+002, 1.886793e+002
3.151414e+002, 1.880398e+002
3.156235e+002, 1.875614e+002
3.161057e+002, 1.872216e+002
3.165878e+002, 1.871648e+002
3.170699e+002, 1.872035e+002
3.175520e+002, 1.870867e+002
3.180341e+002, 1.867013e+002
3.185162e+002, 1.861246e+002
3.189984e+002, 1.855554e+002
3.194805e+002, 1.848919e+002
3.199626e+002, 1.843842e+002
3.204447e+002, 1.840569e+002
3.209268e+002, 1.838709e+002
3.214089e+002, 1.838622e+002
3.218911e+002, 1.840153e+002
3.223732e+002, 1.841623e+002
3.228553e+002, 1.840267e+002
3.233374e+002, 1.833606e+002
3.238195e+002, 1.830428e+002
3.243016e+002, 1.834802e+002
3.247838e+002, 1.839017e+002
3.252659e+002, 1.838132e+002
3.257480e+002, 1.831999e+002
3.262301e+002, 1.823333e+002
3.267122e+002, 1.814264e+002
3.271943e+002, 1.804343e+002
3.276765e+002, 1.798233e+002
3.281586e+002, 1.799308e+002
3.286407e+002, 1.800277e+002
3.291228e+002, 1.799316e+002
3.296049e+002, 1.796065e+002
3.300870e+002, 1.790081e+002
3.305692e+002, 1.780758e+002
3.310513e+002, 1.768729e+002
3.315334e+002, 1.759084e+002
3.320155e+002, 1.753392e+002
3.324976e+002, 1.748407e+002
3.329797e+002, 1.743499e+002
3.334619e+002, 1.739119e+002
3.339440e+002, 1.736687e+002
3.344261e+002, 1.736838e+002
3.349082e+002, 1.737423e+002
3.353904e+002, 1.732982e+002
3.358725e+002, 1.718418e+002
3.363546e+002, 1.706743e+002
3.368367e+002, 1.699334e+002
3.373188e+002, 1.694146e+002
3.378009e+002, 1.690752e+002
3.382831e+002, 1.688500e+002
3.387652e+002, 1.685109e+002
3.392473e+002, 1.676958e+002
3.397294e+002, 1.661225e+002
3.402115e+002, 1.649529e+002
3.406936e+002, 1.642724e+002
3.411758e+002, 1.638541e+002
3.416579e+002, 1.637969e+002
3.421400e+002, 1.639458e+002
3.426221e+002, 1.639091e+002
3.431042e+002, 1.633141e+002
3.435863e+002, 1.621615e+002
3.440685e+002, 1.611766e+002
3.445506e+002, 1.604130e+002
3.450327e+002, 1.597880e+002
3.455148e+002, 1.594320e+002
3.459969e+002, 1.591805e+002
3.464790e+002, 1.588011e+002
3.469612e+002, 1.581658e+002
3.474433e+002, 1.573161e+002
3.479254e+002, 1.563013e+002
3.484075e+002, 1.546487e+002
3.488896e+002, 1.536675e+002
3.493717e+002, 1.540751e+002
3.498539e+002, 1.548495e+002
3.503360e+002, 1.550675e+002
3.508181e+002, 1.544595e+002
3.513002e+002, 1.534658e+002
3.517823e+002, 1.527021e+002
3.522644e+002, 1.521984e+002
3.527466e+002, 1.518372e+002
3.532287e+002, 1.517976e+002
3.537108e+002, 1.517421e+002
3.541929e+002, 1.514456e+002
3.546750e+002, 1.509419e+002
3.551571e+002, 1.504580e+002
3.556393e+002, 1.502490e+002
3.561214e+002, 1.503111e+002
3.566035e+002, 1.501121e+002
3.570856e+002, 1.494119e+002
3.575677e+002, 1.487271e+002
3.580498e+002, 1.481903e+002
3.585320e+002, 1.478026e+002
3.590141e+002, 1.475715e+002
3.594962e+002, 1.475371e+002
3.599783e+002, 1.476105e+002
3.604604e+002, 1.475248e+002
3.609425e+002, 1.471517e+002
3.614247e+002, 1.469223e+002
3.619068e+002, 1.471614e+002
3.623889e+002, 1.474856e+002
3.628710e+002, 1.475031e+002
3.633531e+002, 1.470988e+002
3.638352e+002, 1.465960e+002
3.643174e+002, 1.464225e+002
3.647995e+002, 1.466225e+002
3.652816e+002, 1.466885e+002
3.657637e+002, 1.464030e+002
3.662458e+002, 1.460700e+002
3.667279e+002, 1.458986e+002
3.672101e+002, 1.458757e+002
3.676922e+002, 1.458529e+002
3.681743e+002, 1.456651e+002
3.686564e+002, 1.453757e+002
3.691385e+002, 1.453332e+002
3.696206e+002, 1.457490e+002
3.701028e+002, 1.460196e+002
3.705849e+002, 1.456281e+002
3.710670e+002, 1.448737e+002
3.715491e+002, 1.442955e+002
3.720312e+002, 1.441720e+002
3.725133e+002, 1.442193e+002
3.729955e+002, 1.440652e+002
3.734776e+002, 1.437059e+002
3.739597e+002, 1.431515e+002
3.744418e+002, 1.420570e+002
3.749239e+002, 1.409821e+002
3.754060e+002, 1.407624e+002
3.758882e+002, 1.416868e+002
3.763703e+002, 1.425222e+002
3.768524e+002, 1.423118e+002
3.773345e+002, 1.412681e+002
3.778166e+002, 1.402234e+002
3.782987e+002, 1.392829e+002
3.787809e+002, 1.385468e+002
3.792630e+002, 1.381519e+002
3.797451e+002, 1.380599e+002
3.802272e+002, 1.381344e+002
3.807093e+002, 1.387147e+002
3.811914e+002, 1.392621e+002
3.816736e+002, 1.388765e+002
3.821557e+002, 1.374586e+002
3.826378e+002, 1.360296e+002
3.831199e+002, 1.353508e+002
3.836020e+002, 1.352879e+002
3.840841e+002, 1.350797e+002
3.845663e+002, 1.346120e+002
3.850484e+002, 1.340923e+002
3.855305e+002, 1.334321e+002
3.860126e+002, 1.327820e+002
3.864947e+002, 1.327508e+002
3.869768e+002, 1.337675e+002
3.874590e+002, 1.351729e+002
3.879411e+002, 1.354548e+002
3.884232e+002, 1.342943e+002
3.889053e+002, 1.332372e+002
3.893874e+002, 1.326210e+002
3.898695e+002, 1.322509e+002
3.903517e+002, 1.319102e+002
3.908338e+002, 1.315562e+002
3.913159e+002, 1.312829e+002
3.917980e+002, 1.312233e+002
3.922801e+002, 1.314247e+002
3.927622e+002, 1.313651e+002
3.932444e+002, 1.306189e+002
3.937265e+002, 1.300375e+002
3.942086e+002, 1.302041e+002
3.946907e+002, 1.309064e+002
3.951728e+002, 1.315757e+002
3.956549e+002, 1.318923e+002
3.961371e+002, 1.318939e+002
3.966192e+002, 1.317157e+002
3.971013e+002, 1.311014e+002
3.975834e+002, 1.306228e+002
3.980655e+002, 1.303303e+002
3.985476e+002, 1.301886e+002
3.990298e+002, 1.302050e+002
3.995119e+002, 1.303649e+002
3.999940e+002, 1.305679e+002
4.004761e+002, 1.306694e+002
4.009582e+002, 1.306102e+002
4.014403e+002, 1.306593e+002
4.019225e+002, 1.309430e+002
4.024046e+002, 1.312012e+002
4.028867e+002, 1.312485e+002
4.033688e+002, 1.311651e+002
4.038509e+002, 1.311788e+002
4.043330e+002, 1.314647e+002
4.048152e+002, 1.319608e+002
4.052973e+002, 1.322961e+002
4.057794e+002, 1.322391e+002
4.062615e+002, 1.323756e+002
4.067436e+002, 1.329770e+002
4.072257e+002, 1.337221e+002
4.077079e+002, 1.342727e+002
4.081900e+002, 1.345300e+002
4.086721e+002, 1.346701e+002
4.091542e+002, 1.349495e+002
4.096363e+002, 1.354115e+002
4.101184e+002, 1.357796e+002
4.106006e+002, 1.359260e+002
4.110827e+002, 1.360608e+002
4.115648e+002, 1.362574e+002
4.120469e+002, 1.365299e+002
4.125290e+002, 1.369007e+002
4.130111e+002, 1.374862e+002
4.134933e+002, 1.381652e+002
4.139754e+002, 1.385234e+002
4.144575e+002, 1.384811e+002
4.149396e+002, 1.383292e+002
4.154217e+002, 1.381720e+002
4.159038e+002, 1.379962e+002
4.163860e+002, 1.377591e+002
4.168681e+002, 1.374138e+002
4.173502e+002, 1.371240e+002
4.178323e+002, 1.370403e+002
4.183144e+002, 1.371535e+002
4.187965e+002, 1.374262e+002
4.192787e+002, 1.379683e+002
4.197608e+002, 1.384933e+002
4.202429e+002, 1.387084e+002
4.207250e+002, 1.386336e+002
4.212071e+002, 1.383804e+002
4.216892e+002, 1.377775e+002
4.221714e+002, 1.371146e+002
4.226535e+002, 1.368591e+002
4.231356e+002, 1.370456e+002
4.236177e+002, 1.372124e+002
4.240998e+002, 1.370663e+002
4.245819e+002, 1.366407e+002
4.250641e+002, 1.361569e+002
4.255462e+002, 1.353517e+002
4.260283e+002, 1.348142e+002
4.265104e+002, 1.350648e+002
4.269925e+002, 1.357252e+002
4.274746e+002, 1.360406e+002
4.279568e+002, 1.357450e+002
4.284389e+002, 1.351413e+002
4.289210e+002, 1.346574e+002
4.294031e+002, 1.343034e+002
4.298852e+002, 1.340848e+002
4.303673e+002, 1.341432e+002
4.308495e+002, 1.342230e+002
4.313316e+002, 1.341330e+002
4.318137e+002, 1.338899e+002
4.322958e+002, 1.336299e+002
4.327779e+002, 1.334509e+002
4.332600e+002, 1.333405e+002
4.337422e+002, 1.332030e+002
4.342243e+002, 1.331080e+002
4.347064e+002, 1.328960e+002
4.351885e+002, 1.325420e+002
4.356706e+002, 1.320619e+002
4.361527e+002, 1.313956e+002
4.366349e+002, 1.305532e+002
4.371170e+002, 1.297465e+002
4.375991e+002, 1.292910e+002
4.380812e+002, 1.292673e+002
4.385633e+002, 1.293002e+002
4.390454e+002, 1.295960e+002
4.395276e+002, 1.297516e+002
4.400097e+002, 1.294902e+002
4.404918e+002, 1.289587e+002
4.409739e+002, 1.284893e+002
4.414560e+002, 1.282806e+002
4.419381e+002, 1.282829e+002
4.424203e+002, 1.284028e+002
4.429024e+002, 1.287626e+002
4.433845e+002, 1.289114e+002
4.438666e+002, 1.283655e+002
4.443487e+002, 1.277621e+002
4.448308e+002, 1.276858e+002
4.453130e+002, 1.282356e+002
4.457951e+002, 1.288908e+002
4.462772e+002, 1.292218e+002
4.467593e+002, 1.292834e+002
4.472414e+002, 1.293324e+002
4.477235e+002, 1.293513e+002
4.482057e+002, 1.294555e+002
4.486878e+002, 1.297812e+002
4.491699e+002, 1.302596e+002
4.496520e+002, 1.307397e+002
4.501341e+002, 1.312109e+002
4.506162e+002, 1.316455e+002
4.510984e+002, 1.320576e+002
4.515805e+002, 1.324286e+002
4.520626e+002, 1.326069e+002
4.525447e+002, 1.324535e+002
4.530268e+002, 1.321847e+002
4.535089e+002, 1.322246e+002
4.539911e+002, 1.325919e+002
4.544732e+002, 1.330433e+002
4.549553e+002, 1.335646e+002
4.554374e+002, 1.341209e+002
4.559195e+002, 1.347366e+002
4.564016e+002, 1.353901e+002
4.568838e+002, 1.359036e+002
4.573659e+002, 1.361179e+002
4.578480e+002, 1.360502e+002
4.583301e+002, 1.360275e+002
4.588122e+002, 1.359501e+002
4.592943e+002, 1.360257e+002
4.597765e+002, 1.363664e+002
4.602586e+002, 1.368677e+002
4.607407e+002, 1.374254e+002
4.612228e+002, 1.379943e+002
4.617049e+002, 1.385326e+002
4.621870e+002, 1.389825e+002
4.626692e+002, 1.393425e+002
4.631513e+002, 1.396116e+002
4.636334e+002, 1.396109e+002
4.641155e+002, 1.396988e+002
4.645976e+002, 1.401311e+002
4.650797e+002, 1.407720e+002
4.655619e+002, 1.413030e+002
4.660440e+002, 1.415121e+002
4.665261e+002, 1.415258e+002
4.670082e+002, 1.416722e+002
4.674903e+002, 1.419441e+002
4.679724e+002, 1.423726e+002
4.684546e+002, 1.432372e+002
4.689367e+002, 1.440774e+002
4.694188e+002, 1.444676e+002
4.699009e+002, 1.443972e+002
4.703830e+002, 1.443399e+002
4.708651e+002, 1.447830e+002
4.713473e+002, 1.455445e+002
4.718294e+002, 1.459064e+002
4.723115e+002, 1.457050e+002
4.727936e+002, 1.454842e+002
4.732757e+002, 1.456203e+002
4.737578e+002, 1.459774e+002
4.742400e+002, 1.463416e+002
4.747221e+002, 1.468268e+002
4.752042e+002, 1.470784e+002
4.756863e+002, 1.467041e+002
4.761684e+002, 1.458927e+002
4.766505e+002, 1.451336e+002
4.771327e+002, 1.445229e+002
4.776148e+002, 1.441891e+002
4.780969e+002, 1.444410e+002
4.785790e+002, 1.454245e+002
4.790611e+002, 1.458417e+002
4.795432e+002, 1.451896e+002
4.800254e+002, 1.443397e+002
4.805075e+002, 1.438205e+002
4.809896e+002, 1.435790e+002
4.814717e+002, 1.433642e+002
4.819538e+002, 1.430459e+002
4.824359e+002, 1.426318e+002
4.829181e+002, 1.421348e+002
4.834002e+002, 1.413349e+002
4.838823e+002, 1.407823e+002
4.843644e+002, 1.407202e+002
4.848465e+002, 1.407161e+002
4.853286e+002, 1.404506e+002
4.858108e+002, 1.399158e+002
4.862929e+002, 1.393017e+002
4.867750e+002, 1.387703e+002
4.872571e+002, 1.383059e+002
4.877392e+002, 1.377347e+002
4.882213e+002, 1.368880e+002
4.887035e+002, 1.362185e+002
4.891856e+002, 1.360302e+002
4.896677e+002, 1.359564e+002
4.901498e+002, 1.355426e+002
4.906319e+002, 1.346777e+002
4.911140e+002, 1.338407e+002
4.915962e+002, 1.336314e+002
4.920783e+002, 1.339509e+002
4.925604e+002, 1.339967e+002
4.930425e+002, 1.336646e+002
4.935246e+002, 1.330929e+002
4.940067e+002, 1.322393e+002
4.944889e+002, 1.312262e+002
4.949710e+002, 1.303228e+002
4.954531e+002, 1.296106e+002
4.959352e+002, 1.290044e+002
4.964173e+002, 1.284028e+002
4.968994e+002, 1.278421e+002
4.973816e+002, 1.274808e+002
4.978637e+002, 1.274074e+002
4.983458e+002, 1.274446e+002
4.988279e+002, 1.273587e+002
4.993100e+002, 1.271460e+002
4.997921e+002, 1.268068e+002
5.002743e+002, 1.262753e+002
5.007564e+002, 1.256737e+002
5.012385e+002, 1.249432e+002
5.017206e+002, 1.241989e+002
5.022027e+002, 1.238186e+002
5.026848e+002, 1.240531e+002
5.031670e+002, 1.246078e+002
5.036491e+002, 1.245869e+002
5.041312e+002, 1.234033e+002
5.046133e+002, 1.225892e+002
5.050954e+002, 1.224519e+002
5.055775e+002, 1.224538e+002
5.060597e+002, 1.222380e+002
5.065418e+002, 1.217996e+002
5.070239e+002, 1.213224e+002
5.075060e+002, 1.209127e+002
5.079881e+002, 1.205959e+002
5.084702e+002, 1.205226e+002
5.089524e+002, 1.208012e+002
5.094345e+002, 1.210795e+002
5.099166e+002, 1.213136e+002
5.103987e+002, 1.214536e+002
5.108808e+002, 1.214071e+002
5.113629e+002, 1.211591e+002
5.118451e+002, 1.209018e+002
5.123271e+002, 1.207208e+002
5.128093e+002, 1.206425e+002
5.132914e+002, 1.208070e+002
5.137735e+002, 1.212827e+002
5.142556e+002, 1.217010e+002
5.147377e+002, 1.217428e+002
5.152198e+002, 1.215272e+002
5.157020e+002, 1.214960e+002
5.161841e+002, 1.218344e+002
5.166662e+002, 1.221056e+002
5.171483e+002, 1.220060e+002
5.176304e+002, 1.217447e+002
5.181125e+002, 1.216768e+002
5.185947e+002, 1.218878e+002
5.190768e+002, 1.222162e+002
5.195589e+002, 1.225027e+002
5.200410e+002, 1.227517e+002
5.205231e+002, 1.229169e+002
5.210052e+002, 1.228834e+002
5.214874e+002, 1.229084e+002
5.219695e+002, 1.230739e+002
5.224516e+002, 1.233487e+002
5.229337e+002, 1.237379e+002
5.234158e+002, 1.242334e+002
5.238979e+002, 1.246719e+002
5.243801e+002, 1.247288e+002
5.248622e+002, 1.242691e+002
5.253443e+002, 1.241535e+002
5.258264e+002, 1.247996e+002
5.263085e+002, 1.253648e+002
5.267906e+002, 1.253674e+002
5.272728e+002, 1.250491e+002
5.277549e+002, 1.248955e+002
5.282370e+002, 1.251388e+002
5.287191e+002, 1.255396e+002
5.292012e+002, 1.257644e+002
5.296833e+002, 1.258322e+002
5.301655e+002, 1.260809e+002
5.306476e+002, 1.267482e+002
5.311297e+002, 1.273663e+002
5.316118e+002, 1.272717e+002
5.320939e+002, 1.265751e+002
5.325760e+002, 1.260477e+002
5.330582e+002, 1.257837e+002
5.335403e+002, 1.257911e+002
5.340224e+002, 1.262156e+002
5.345045e+002, 1.269313e+002
5.349866e+002, 1.276054e+002
5.354688e+002, 1.281041e+002
5.359509e+002, 1.284019e+002
5.364330e+002, 1.284055e+002
5.369151e+002, 1.277970e+002
5.373972e+002, 1.276813e+002
5.378793e+002, 1.283783e+002
5.383615e+002, 1.292263e+002
5.388436e+002, 1.299310e+002
5.393257e+002, 1.304821e+002
5.398078e+002, 1.309411e+002
5.402899e+002, 1.313352e+002
5.407720e+002, 1.316912e+002
5.412542e+002, 1.320833e+002
5.417363e+002, 1.325372e+002
5.422184e+002, 1.329293e+002
5.427005e+002, 1.329644e+002
5.431826e+002, 1.331772e+002
5.436647e+002, 1.340089e+002
5.441469e+002, 1.353279e+002
5.446290e+002, 1.365982e+002
5.451111e+002, 1.375979e+002
5.455932e+002, 1.383606e+002
5.460753e+002, 1.387634e+002
5.465574e+002, 1.388286e+002
5.470396e+002, 1.393147e+002
5.475217e+002, 1.406661e+002
5.480038e+002, 1.423473e+002
5.484859e+002, 1.435538e+002
5.489680e+002, 1.442862e+002
5.494501e+002, 1.448203e+002
5.499323e+002, 1.451750e+002
5.504144e+002, 1.453755e+002
5.508965e+002, 1.454666e+002
5.513786e+002, 1.454241e+002
5.518607e+002, 1.451640e+002
5.523428e+002, 1.446378e+002
5.528250e+002, 1.438862e+002
5.533071e+002, 1.429853e+002
5.537892e+002, 1.416797e+002
5.542713e+002, 1.406920e+002
5.547534e+002, 1.401783e+002
5.552355e+002, 1.397939e+002
5.557177e+002, 1.394559e+002
5.561998e+002, 1.390816e+002
5.566819e+002, 1.385106e+002
5.571640e+002, 1.376085e+002
5.576461e+002, 1.365439e+002
5.581282e+002, 1.357181e+002
5.586104e+002, 1.351757e+002
5.590925e+002, 1.345735e+002
5.595746e+002, 1.338402e+002
5.600567e+002, 1.329994e+002
5.605388e+002, 1.320429e+002
5.610209e+002, 1.309932e+002
5.615031e+002, 1.299801e+002
5.619852e+002, 1.290139e+002
5.624673e+002, 1.281428e+002
5.629494e+002, 1.273906e+002
5.634315e+002, 1.267702e+002
5.639136e+002, 1.264032e+002
5.643958e+002, 1.264047e+002
5.648779e+002, 1.264638e+002
5.653600e+002, 1.260079e+002
5.658421e+002, 1.247396e+002
5.663242e+002, 1.238119e+002
5.668063e+002, 1.235263e+002
5.672885e+002, 1.232838e+002
5.677706e+002, 1.226657e+002
5.682527e+002, 1.218367e+002
5.687348e+002, 1.212091e+002
5.692169e+002, 1.209859e+002
5.696990e+002, 1.209854e+002
5.701812e+002, 1.208345e+002
5.706633e+002, 1.204574e+002
5.711454e+002, 1.202470e+002
5.716275e+002, 1.204471e+002
5.721096e+002, 1.205979e+002
5.725917e+002, 1.203684e+002
5.730739e+002, 1.199208e+002
5.735560e+002, 1.196458e+002
5.740381e+002, 1.197398e+002
5.745202e+002, 1.199778e+002
5.750023e+002, 1.201568e+002
5.754844e+002, 1.202711e+002
5.759666e+002, 1.202547e+002
5.764487e+002, 1.200481e+002
5.769308e+002, 1.198479e+002
5.774129e+002, 1.198719e+002
5.778950e+002, 1.201289e+002
5.783771e+002, 1.203769e+002
5.788593e+002, 1.205762e+002
5.793414e+002, 1.208028e+002
5.798235e+002, 1.210849e+002
5.803056e+002, 1.214185e+002
5.807877e+002, 1.218030e+002
5.812698e+002, 1.222364e+002
5.817520e+002, 1.226941e+002
5.822341e+002, 1.231612e+002
5.827162e+002, 1.236570e+002
5.831984e+002, 1.239982e+002
5.836805e+002, 1.238933e+002
5.841626e+002, 1.240029e+002
5.846447e+002, 1.246587e+002
5.851268e+002, 1.255543e+002
5.856089e+002, 1.262614e+002
5.860911e+002, 1.266618e+002
5.865732e+002, 1.271523e+002
5.870553e+002, 1.282979e+002
5.875374e+002, 1.298644e+002
5.880195e+002, 1.308315e+002
5.885016e+002, 1.310035e+002
5.889838e+002, 1.311761e+002
5.894659e+002, 1.318956e+002
5.899480e+002, 1.329750e+002
5.904301e+002, 1.338150e+002
5.909122e+002, 1.342492e+002
5.913943e+002, 1.347816e+002
5.918765e+002, 1.356362e+002
5.923586e+002, 1.366259e+002
5.928407e+002, 1.375105e+002
5.933228e+002, 1.382964e+002
5.938049e+002, 1.392051e+002
5.942870e+002, 1.404177e+002
5.947692e+002, 1.418686e+002
5.952513e+002, 1.432805e+002
5.957334e+002, 1.446489e+002
5.962155e+002, 1.459754e+002
5.966976e+002, 1.473390e+002
5.971797e+002, 1.486024e+002
5.976619e+002, 1.496192e+002
5.981440e+002, 1.504358e+002
5.986261e+002, 1.512732e+002
5.991082e+002, 1.522937e+002
5.995903e+002, 1.533879e+002
6.000724e+002, 1.544161e+002
6.005546e+002, 1.553783e+002
6.010367e+002, 1.560985e+002
6.015188e+002, 1.565704e+002
6.020009e+002, 1.567027e+002
6.024830e+002, 1.562663e+002
6.029651e+002, 1.552855e+002
6.034473e+002, 1.542650e+002
6.039294e+002, 1.534456e+002
6.044115e+002, 1.524431e+002
6.048936e+002, 1.508061e+002
6.053757e+002, 1.488512e+002
6.058578e+002, 1.472678e+002
6.063400e+002, 1.463057e+002
6.068221e+002, 1.455654e+002
6.073042e+002, 1.444887e+002
6.077863e+002, 1.430378e+002
6.082684e+002, 1.415199e+002
6.087505e+002, 1.399123e+002
6.092327e+002, 1.382693e+002
6.097148e+002, 1.364938e+002
6.101969e+002, 1.347476e+002
6.106790e+002, 1.332289e+002
6.111611e+002, 1.319962e+002
6.116432e+002, 1.309189e+002
6.121254e+002, 1.298868e+002
6.126075e+002, 1.289099e+002
6.130896e+002, 1.280308e+002
6.135717e+002, 1.272482e+002
6.140538e+002, 1.265698e+002
6.145359e+002, 1.261108e+002
6.150181e+002, 1.257056e+002
6.155002e+002, 1.248382e+002
6.159823e+002, 1.232189e+002
6.164644e+002, 1.218372e+002
6.169465e+002, 1.209778e+002
6.174286e+002, 1.203743e+002
6.179108e+002, 1.198367e+002
6.183929e+002, 1.193406e+002
6.188750e+002, 1.189264e+002
6.193571e+002, 1.186260e+002
6.198392e+002, 1.183986e+002
6.203214e+002, 1.181511e+002
6.208035e+002, 1.179113e+002
6.212856e+002, 1.175679e+002
6.217677e+002, 1.170815e+002
6.222498e+002, 1.165098e+002
6.227319e+002, 1.158397e+002
6.232141e+002, 1.151101e+002
6.236962e+002, 1.144004e+002
6.241783e+002, 1.136951e+002
6.246604e+002, 1.130995e+002
6.251425e+002, 1.129155e+002
6.256246e+002, 1.129408e+002
6.261068e+002, 1.124249e+002
6.265889e+002, 1.111623e+002
6.270710e+002, 1.097026e+002
6.275531e+002, 1.085354e+002
6.280352e+002, 1.076540e+002
6.285173e+002, 1.068068e+002
6.289995e+002, 1.060803e+002
6.294816e+002, 1.052795e+002
6.299637e+002, 1.042849e+002
6.304458e+002, 1.032487e+002
6.309279e+002, 1.023164e+002
6.314100e+002, 1.015039e+002
6.318922e+002, 1.007302e+002
6.323743e+002, 9.993594e+001
6.328564e+002, 9.912319e+001
6.333385e+002, 9.828501e+001
6.338206e+002, 9.739678e+001
6.343027e+002, 9.658369e+001
6.347849e+002, 9.591146e+001
6.352670e+002, 9.530258e+001
6.357491e+002, 9.470187e+001
6.362312e+002, 9.409986e+001
6.367133e+002, 9.344026e+001
6.371954e+002, 9.259937e+001
6.376776e+002, 9.178503e+001
6.381597e+002, 9.116826e+001
6.386418e+002, 9.070930e+001
6.391239e+002, 9.031287e+001
6.396060e+002, 8.994964e+001
6.400881e+002, 8.963268e+001
6.405703e+002, 8.940809e+001
6.410524e+002, 8.930484e+001
6.415345e+002, 8.897031e+001
6.420166e+002, 8.818961e+001
6.424987e+002, 8.742593e+001
6.429808e+002, 8.671439e+001
6.434630e+002, 8.609780e+001
6.439451e+002, 8.567565e+001
6.444272e+002, 8.544084e+001
6.449093e+002, 8.514759e+001
6.453914e+002, 8.443832e+001
6.458735e+002, 8.356409e+001
6.463557e+002, 8.324522e+001
6.468378e+002, 8.350841e+001
6.473199e+002, 8.365806e+001
6.478020e+002, 8.339700e+001
6.482841e+002, 8.288946e+001
6.487662e+002, 8.236590e+001
6.492484e+002, 8.181341e+001
6.497305e+002, 8.131136e+001
6.502126e+002, 8.068859e+001
6.506947e+002, 8.029737e+001
6.511768e+002, 8.058494e+001
6.516589e+002, 8.117261e+001
6.521411e+002, 8.135976e+001
6.526232e+002, 8.091422e+001
6.531053e+002, 8.024837e+001
6.535874e+002, 7.989158e+001
6.540695e+002, 7.984771e+001
6.545516e+002, 7.975368e+001
6.550338e+002, 7.957018e+001
6.555159e+002, 7.941638e+001
6.559980e+002, 7.941103e+001
6.564801e+002, 7.942883e+001
6.569622e+002, 7.934751e+001
6.574443e+002, 7.915820e+001
6.579265e+002, 7.884316e+001
6.584086e+002, 7.827967e+001
6.588907e+002, 7.766645e+001
6.593728e+002, 7.714284e+001
6.598549e+002, 7.675646e+001
6.603370e+002, 7.669338e+001
6.608192e+002, 7.706097e+001
6.613013e+002, 7.758065e+001
6.617834e+002, 7.774397e+001
6.622655e+002, 7.741528e+001
6.627476e+002, 7.724104e+001
6.632297e+002, 7.748173e+001
6.637119e+002, 7.758904e+001
6.641940e+002, 7.722554e+001
6.646761e+002, 7.670261e+001
6.651582e+002, 7.647431e+001
6.656403e+002, 7.666059e+001
6.661224e+002, 7.689378e+001
6.666046e+002, 7.685082e+001
6.670867e+002, 7.663330e+001
6.675688e+002, 7.647114e+001
6.680509e+002, 7.637851e+001
6.685330e+002, 7.632446e+001
6.690151e+002, 7.631081e+001
6.694973e+002, 7.630038e+001
6.699794e+002, 7.619762e+001
6.704615e+002, 7.589205e+001
6.709436e+002, 7.581088e+001
6.714257e+002, 7.630685e+001
6.719078e+002, 7.667719e+001
6.723900e+002, 7.637500e+001
6.728721e+002, 7.574783e+001
6.733542e+002, 7.541973e+001
6.738363e+002, 7.560897e+001
6.743184e+002, 7.600617e+001
6.748005e+002, 7.630980e+001
6.752827e+002, 7.651336e+001
6.757648e+002, 7.651700e+001
6.762469e+002, 7.625744e+001
6.767290e+002, 7.602196e+001
6.772111e+002, 7.600802e+001
6.776932e+002, 7.605947e+001
6.781754e+002, 7.582478e+001
6.786575e+002, 7.518303e+001
6.791396e+002, 7.491403e+001
6.796217e+002, 7.567522e+001
6.801038e+002, 7.645159e+001
6.805859e+002, 7.635642e+001
6.810681e+002, 7.567129e+001
6.815502e+002, 7.514499e+001
6.820323e+002, 7.507237e+001
6.825144e+002, 7.514467e+001
6.829965e+002, 7.486162e+001
6.834786e+002, 7.417881e+001
6.839608e+002, 7.392236e+001
6.844429e+002, 7.431819e+001
6.849250e+002, 7.473554e+001
6.854071e+002, 7.492165e+001
6.858892e+002, 7.499673e+001
6.863713e+002, 7.511298e+001
6.868535e+002, 7.529296e+001
6.873356e+002, 7.532188e+001
6.878177e+002, 7.492444e+001
6.882998e+002, 7.446703e+001
6.887819e+002, 7.432227e+001
6.892640e+002, 7.444807e+001
6.897462e+002, 7.469605e+001
6.902283e+002, 7.501327e+001
6.907104e+002, 7.527577e+001
6.911925e+002, 7.528526e+001
6.916746e+002, 7.500322e+001
6.921567e+002, 7.481801e+001
6.926389e+002, 7.475481e+001
6.931210e+002, 7.475854e+001
6.936031e+002, 7.496407e+001
6.940852e+002, 7.513421e+001
6.945673e+002, 7.495132e+001
6.950494e+002, 7.440557e+001
6.955316e+002, 7.393662e+001
6.960137e+002, 7.389454e+001
6.964958e+002, 7.401643e+001
6.969779e+002, 7.392567e+001
6.974600e+002, 7.367367e+001
6.979421e+002, 7.351591e+001
6.984243e+002, 7.354150e+001
6.989064e+002, 7.370399e+001
6.993885e+002, 7.398148e+001
6.998706e+002, 7.440044e+001
7.003527e+002, 7.459004e+001
7.008348e+002, 7.416139e+001
7.013170e+002, 7.398398e+001
7.017991e+002, 7.457708e+001
7.022812e+002, 7.524301e+001
7.027633e+002, 7.529768e+001
7.032454e+002, 7.471640e+001
7.037275e+002, 7.397936e+001
7.042097e+002, 7.322430e+001
7.046918e+002, 7.262789e+001
7.051739e+002, 7.254213e+001
7.056560e+002, 7.289851e+001
7.061381e+002, 7.329677e+001
7.066202e+002, 7.364948e+001
7.071024e+002, 7.388988e+001
7.075845e+002, 7.393447e+001
7.080666e+002, 7.378616e+001
7.085487e+002, 7.362961e+001
7.090308e+002, 7.325235e+001
7.095129e+002, 7.314816e+001
7.099951e+002, 7.368050e+001
7.104772e+002, 7.429401e+001
7.109593e+002, 7.450385e+001
7.114414e+002, 7.433492e+001
7.119235e+002, 7.412182e+001
7.124056e+002, 7.406418e+001
7.128878e+002, 7.404887e+001
7.133699e+002, 7.381705e+001
7.138520e+002, 7.342821e+001
7.143341e+002, 7.337292e+001
7.148162e+002, 7.380530e+001
7.152983e+002, 7.425738e+001
7.157805e+002, 7.433382e+001
7.162626e+002, 7.410867e+001
7.167447e+002, 7.400780e+001
7.172268e+002, 7.415993e+001
7.177089e+002, 7.424442e+001
7.181910e+002, 7.424259e+001
7.186732e+002, 7.416017e+001
7.191553e+002, 7.397792e+001
7.196374e+002, 7.372112e+001
7.201195e+002, 7.341680e+001
7.206016e+002, 7.306261e+001
7.210837e+002, 7.277152e+001
7.215659e+002, 7.274285e+001
7.220480e+002, 7.292604e+001
7.225301e+002, 7.302934e+001
7.230122e+002, 7.300845e+001
7.234943e+002, 7.300311e+001
7.239764e+002, 7.309140e+001
7.244586e+002, 7.325532e+001
7.249407e+002, 7.347034e+001
7.254228e+002, 7.383514e+001
7.259049e+002, 7.400510e+001
7.263870e+002, 7.364175e+001
7.268691e+002, 7.340009e+001
7.273513e+002, 7.390270e+001
7.278334e+002, 7.469434e+001
7.283155e+002, 7.491149e+001
7.287976e+002, 7.429089e+001
7.292797e+002, 7.351062e+001
7.297618e+002, 7.335579e+001
7.302440e+002, 7.362827e+001
7.307261e+002, 7.354154e+001
7.312082e+002, 7.304634e+001
7.316903e+002, 7.269896e+001
7.321724e+002, 7.278541e+001
7.326545e+002, 7.302646e+001
7.331367e+002, 7.300684e+001
7.336188e+002, 7.266172e+001
7.341009e+002, 7.240958e+001
7.345830e+002, 7.224212e+001
7.350651e+002, 7.217402e+001
7.355472e+002, 7.224941e+001
7.360294e+002, 7.240453e+001
7.365115e+002, 7.260757e+001
7.369936e+002, 7.282726e+001
7.374757e+002, 7.297453e+001
7.379578e+002, 7.297049e+001
7.384399e+002, 7.286204e+001
7.389221e+002, 7.272503e+001
7.394042e+002, 7.256248e+001
7.398863e+002, 7.240970e+001
7.403684e+002, 7.226494e+001
7.408505e+002, 7.217397e+001
7.413326e+002, 7.219235e+001
7.418148e+002, 7.230994e+001
7.422969e+002, 7.241075e+001
7.427790e+002, 7.252397e+001
7.432611e+002, 7.258172e+001
7.437432e+002, 7.244445e+001
7.442253e+002, 7.235936e+001
7.447075e+002, 7.265704e+001
7.451896e+002, 7.316331e+001
7.456717e+002, 7.334689e+001
7.461538e+002, 7.289396e+001
7.466359e+002, 7.231020e+001
7.471180e+002, 7.226359e+001
7.476002e+002, 7.259815e+001
7.480823e+002, 7.273191e+001
7.485644e+002, 7.259348e+001
7.490465e+002, 7.242166e+001
7.495286e+002, 7.234678e+001
7.500107e+002, 7.234424e+001
7.504929e+002, 7.235503e+001
7.509750e+002, 7.236829e+001
7.514571e+002, 7.242449e+001
7.519392e+002, 7.267027e+001
7.524213e+002, 7.279248e+001
7.529034e+002, 7.247070e+001
7.533856e+002, 7.203979e+001
7.538677e+002, 7.202377e+001
7.543498e+002, 7.252101e+001
7.548319e+002, 7.300443e+001
7.553140e+002, 7.300254e+001
7.557961e+002, 7.278085e+001
7.562783e+002, 7.283842e+001
7.567604e+002, 7.311130e+001
7.572425e+002, 7.311242e+001
7.577246e+002, 7.264577e+001
7.582067e+002, 7.221762e+001
7.586888e+002, 7.247014e+001
7.591710e+002, 7.339712e+001
7.596531e+002, 7.401588e+001
7.601352e+002, 7.428587e+001
7.606173e+002, 7.429115e+001
7.610994e+002, 7.376268e+001
7.615815e+002, 7.322717e+001
7.620637e+002, 7.314429e+001
7.625458e+002, 7.340955e+001
7.630279e+002, 7.354647e+001
7.635100e+002, 7.326598e+001
7.639921e+002, 7.299509e+001
7.644742e+002, 7.325297e+001
7.649564e+002, 7.370640e+001
7.654385e+002, 7.360503e+001
7.659206e+002, 7.294978e+001
7.664027e+002, 7.253320e+001
7.668848e+002, 7.289791e+001
7.673669e+002, 7.364356e+001
7.678491e+002, 7.374648e+001
7.683312e+002, 7.291348e+001
7.688133e+002, 7.255645e+001
7.692954e+002, 7.301340e+001
7.697775e+002, 7.351328e+001
7.702596e+002, 7.374863e+001
7.707418e+002, 7.381578e+001
7.712239e+002, 7.382993e+001
7.717060e+002, 7.380473e+001
7.721881e+002, 7.371094e+001
7.726702e+002, 7.335674e+001
7.731523e+002, 7.309319e+001
7.736345e+002, 7.335424e+001
7.741166e+002, 7.389063e+001
7.745987e+002, 7.419225e+001
7.750808e+002, 7.411761e+001
7.755629e+002, 7.384975e+001
7.760450e+002, 7.352116e+001
7.765272e+002, 7.318005e+001
7.770093e+002, 7.310037e+001
7.774914e+002, 7.334883e+001
7.779735e+002, 7.348837e+001
7.784556e+002, 7.335393e+001
7.789377e+002, 7.318480e+001
7.794199e+002, 7.321242e+001
7.799020e+002, 7.339256e+001
7.803841e+002, 7.350082e+001
7.808662e+002, 7.343615e+001
7.813483e+002, 7.343724e+001
7.818304e+002, 7.355955e+001
7.823126e+002, 7.376981e+001
7.827947e+002, 7.416558e+001
7.832768e+002, 7.461385e+001
7.837589e+002, 7.477094e+001
7.842410e+002, 7.447208e+001
7.847231e+002, 7.406445e+001
7.852053e+002, 7.399129e+001
7.856874e+002, 7.416872e+001
7.861695e+002, 7.426470e+001
7.866516e+002, 7.425923e+001
7.871337e+002, 7.423478e+001
7.876158e+002, 7.421172e+001
7.880980e+002, 7.422878e+001
7.885801e+002, 7.437511e+001
7.890622e+002, 7.470260e+001
7.895443e+002, 7.481563e+001
7.900264e+002, 7.447649e+001
7.905085e+002, 7.423550e+001
7.909907e+002, 7.422009e+001
7.914728e+002, 7.434738e+001
7.919549e+002, 7.463814e+001
7.924370e+002, 7.501722e+001
7.929191e+002, 7.520118e+001
7.934012e+002, 7.489256e+001
7.938834e+002, 7.457659e+001
7.943655e+002, 7.484502e+001
7.948476e+002, 7.542979e+001
7.953297e+002, 7.575529e+001
7.958118e+002, 7.575164e+001
7.962939e+002, 7.566660e+001
7.967761e+002, 7.566444e+001
7.972582e+002, 7.567031e+001
7.977403e+002, 7.546242e+001
7.982224e+002, 7.492827e+001
7.987045e+002, 7.466553e+001
7.991866e+002, 7.484026e+001
7.996688e+002, 7.504617e+001
8.001509e+002, 7.509052e+001
8.006330e+002, 7.506987e+001
8.011151e+002, 7.506210e+001
8.015972e+002, 7.506215e+001
8.020793e+002, 7.522958e+001
8.025615e+002, 7.579524e+001
8.030436e+002, 7.634660e+001
8.035257e+002, 7.660024e+001
8.040078e+002, 7.668631e+001
8.044899e+002, 7.676503e+001
8.049720e+002, 7.689133e+001
8.054542e+002, 7.713614e+001
8.059363e+002, 7.763152e+001
8.064184e+002, 7.814017e+001
8.069005e+002, 7.801110e+001
8.073826e+002, 7.728062e+001
8.078647e+002, 7.681518e+001
8.083469e+002, 7.679135e+001
8.088290e+002, 7.687882e+001
8.093111e+002, 7.683869e+001
8.097932e+002, 7.674703e+001
8.102753e+002, 7.684129e+001
8.107574e+002, 7.723118e+001
8.112396e+002, 7.759016e+001
8.117217e+002, 7.797473e+001
8.122038e+002, 7.826860e+001
8.126859e+002, 7.836962e+001
8.131680e+002, 7.837827e+001
8.136501e+002, 7.845200e+001
8.141323e+002, 7.861397e+001
8.146144e+002, 7.869660e+001
8.150965e+002, 7.854907e+001
8.155786e+002, 7.830611e+001
8.160607e+002, 7.812369e+001
8.165428e+002, 7.797354e+001
8.170250e+002, 7.767954e+001
8.175071e+002, 7.723734e+001
8.179892e+002, 7.707914e+001
8.184713e+002, 7.761821e+001
8.189534e+002, 7.863223e+001
8.194355e+002, 7.938170e+001
8.199177e+002, 7.992700e+001
8.203998e+002, 7.987437e+001
8.208819e+002, 7.878775e+001
8.213640e+002, 7.775272e+001
8.218461e+002, 7.742834e+001
8.223282e+002, 7.760374e+001
8.228104e+002, 7.789816e+001
8.232925e+002, 7.837440e+001
8.237746e+002, 7.869775e+001
8.242567e+002, 7.862434e+001
8.247388e+002, 7.857347e+001
8.252209e+002, 7.894951e+001
8.257031e+002, 7.942663e+001
8.261852e+002, 7.945420e+001
8.266673e+002, 7.897626e+001
8.271494e+002, 7.848886e+001
8.276315e+002, 7.838794e+001
8.281136e+002, 7.848629e+001
8.285958e+002, 7.847970e+001
8.290779e+002, 7.838657e+001
8.295600e+002, 7.828850e+001
8.300421e+002, 7.820016e+001
8.305242e+002, 7.813187e+001
8.310063e+002, 7.808038e+001
8.314885e+002, 7.807185e+001
8.319706e+002, 7.820422e+001
8.324527e+002, 7.857524e+001
8.329348e+002, 7.882764e+001
8.334169e+002, 7.892868e+001
8.338990e+002, 7.894421e+001
8.343812e+002, 7.881799e+001
8.348633e+002, 7.867098e+001
8.353454e+002, 7.870223e+001
8.358275e+002, 7.893644e+001
8.363096e+002, 7.902764e+001
8.367917e+002, 7.873508e+001
8.372739e+002, 7.840308e+001
8.377560e+002, 7.816866e+001
8.382381e+002, 7.806763e+001
8.387202e+002, 7.820077e+001
8.392023e+002, 7.853006e+001
8.396844e+002, 7.886963e+001
8.401666e+002, 7.912932e+001
8.406487e+002, 7.921066e+001
8.411308e+002, 7.876565e+001
8.416129e+002, 7.791431e+001
8.420950e+002, 7.755444e+001
8.425771e+002, 7.780968e+001
8.430593e+002, 7.818474e+001
8.435414e+002, 7.845408e+001
8.440235e+002, 7.860251e+001
8.445056e+002, 7.860108e+001
8.449877e+002, 7.844112e+001
8.454698e+002, 7.817392e+001
8.459520e+002, 7.759761e+001
8.464341e+002, 7.718397e+001
8.469162e+002, 7.709889e+001
8.473983e+002, 7.717112e+001
8.478804e+002, 7.728252e+001
8.483625e+002, 7.741655e+001
8.488447e+002, 7.756731e+001
8.493268e+002, 7.787592e+001
8.498089e+002, 7.797697e+001
8.502910e+002, 7.747778e+001
8.507731e+002, 7.678519e+001
8.512552e+002, 7.630772e+001
8.517374e+002, 7.609074e+001
8.522195e+002, 7.612907e+001
8.527016e+002, 7.642082e+001
8.531837e+002, 7.671257e+001
8.536658e+002, 7.661582e+001
8.541479e+002, 7.622608e+001
8.546301e+002, 7.601934e+001
8.551122e+002, 7.600677e+001
8.555943e+002, 7.593640e+001
8.560764e+002, 7.569759e+001
8.565585e+002, 7.547665e+001
8.570406e+002, 7.548843e+001
8.575228e+002, 7.570957e+001
8.580049e+002, 7.586106e+001
8.584870e+002, 7.584277e+001
8.589691e+002, 7.592587e+001
8.594512e+002, 7.646280e+001
8.599333e+002, 7.677010e+001
8.604155e+002, 7.622430e+001
8.608976e+002, 7.527158e+001
8.613797e+002, 7.480299e+001
8.618618e+002, 7.506236e+001
8.623439e+002, 7.527180e+001
8.628260e+002, 7.498830e+001
8.633082e+002, 7.464429e+001
8.637903e+002, 7.462894e+001
8.642724e+002, 7.478000e+001
8.647545e+002, 7.477978e+001
8.652366e+002, 7.457365e+001
8.657188e+002, 7.435117e+001
8.662009e+002, 7.426175e+001
8.666830e+002, 7.423970e+001
8.671651e+002, 7.417716e+001
8.676472e+002, 7.407067e+001
8.681293e+002, 7.386390e+001
8.686115e+002, 7.354057e+001
8.690936e+002, 7.329793e+001
8.695757e+002, 7.325631e+001
8.700578e+002, 7.336623e+001
8.705399e+002, 7.356994e+001
8.710220e+002, 7.396017e+001
8.715042e+002, 7.395470e+001
8.719863e+002, 7.330254e+001
8.724684e+002, 7.266015e+001
8.729505e+002, 7.218497e+001
8.734326e+002, 7.183676e+001
8.739147e+002, 7.158980e+001
8.743969e+002, 7.144360e+001
8.748790e+002, 7.140596e+001
8.753611e+002, 7.156895e+001
8.758432e+002, 7.171373e+001
8.763253e+002, 7.172701e+001
8.768074e+002, 7.172238e+001
8.772896e+002, 7.185949e+001
8.777717e+002, 7.205209e+001
8.782538e+002, 7.206380e+001
8.787359e+002, 7.181046e+001
8.792180e+002, 7.151522e+001
8.797001e+002, 7.140672e+001
8.801823e+002, 7.138270e+001
8.806644e+002, 7.118020e+001
8.811465e+002, 7.087496e+001
8.816286e+002, 7.087326e+001
8.821107e+002, 7.127026e+001
8.825928e+002, 7.164962e+001
8.830750e+002, 7.164259e+001
8.835571e+002, 7.134178e+001
8.840392e+002, 7.102032e+001
8.845213e+002, 7.064078e+001
8.850034e+002, 7.048975e+001
8.854855e+002, 7.069870e+001
8.859677e+002, 7.089861e+001
8.864498e+002, 7.093639e+001
8.869319e+002, 7.082746e+001
8.874140e+002, 7.050557e+001
8.878961e+002, 6.987440e+001
8.883782e+002, 6.968677e+001
8.888604e+002, 7.045900e+001
8.893425e+002, 7.103715e+001
8.898246e+002, 7.093973e+001
8.903067e+002, 7.065359e+001
8.907888e+002, 7.064343e+001
8.912709e+002, 7.083846e+001
8.917531e+002, 7.085145e+001
8.922352e+002, 7.047379e+001
8.927173e+002, 7.013060e+001
8.931994e+002, 7.012638e+001
8.936815e+002, 7.030272e+001
8.941636e+002, 7.052676e+001
8.946458e+002, 7.076424e+001
8.951279e+002, 7.099153e+001
8.956100e+002, 7.119268e+001
8.960921e+002, 7.129272e+001
8.965742e+002, 7.118897e+001
8.970563e+002, 7.096302e+001
8.975385e+002, 7.079897e+001
8.980206e+002, 7.070192e+001
8.985027e+002, 7.079620e+001
8.989848e+002, 7.112946e+001
8.994669e+002, 7.134933e+001
8.999490e+002, 7.118764e+001
9.004312e+002, 7.084242e+001
9.009133e+002, 7.077145e+001
9.013954e+002, 7.102917e+001
9.018775e+002, 7.132552e+001
9.023596e+002, 7.179085e+001
9.028417e+002, 7.207030e+001
9.033239e+002, 7.181286e+001
9.038060e+002, 7.152116e+001
9.042881e+002, 7.176415e+001
9.047702e+002, 7.243995e+001
9.052523e+002, 7.287785e+001
9.057344e+002, 7.278683e+001
9.062166e+002, 7.276492e+001
9.066987e+002, 7.304581e+001
9.071808e+002, 7.335878e+001
9.076629e+002, 7.344791e+001
9.081450e+002, 7.344585e+001
9.086271e+002, 7.363889e+001
9.091093e+002, 7.409402e+001
9.095914e+002, 7.456957e+001
9.100735e+002, 7.481013e+001
9.105556e+002, 7.505911e+001
9.110377e+002, 7.567423e+001
9.115198e+002, 7.647718e+001
9.120020e+002, 7.708633e+001
9.124841e+002, 7.745549e+001
9.129662e+002, 7.771892e+001
9.134483e+002, 7.793215e+001
9.139304e+002, 7.830008e+001
9.144125e+002, 7.933034e+001
9.148947e+002, 8.090559e+001
9.153768e+002, 8.199282e+001
9.158589e+002, 8.251511e+001
9.163410e+002, 8.331643e+001
9.168231e+002, 8.475900e+001
9.173052e+002, 8.636514e+001
9.177874e+002, 8.757805e+001
9.182695e+002, 8.845776e+001
9.187516e+002, 8.952299e+001
9.192337e+002, 9.074374e+001
9.197158e+002, 9.223842e+001
9.201979e+002, 9.413102e+001
9.206801e+002, 9.616553e+001
9.211622e+002, 9.838887e+001
9.216443e+002, 1.005916e+002
9.221264e+002, 1.022682e+002
9.226085e+002, 1.032496e+002
9.230906e+002, 1.048506e+002
9.235728e+002, 1.081338e+002
9.240549e+002, 1.109684e+002
9.245370e+002, 1.122322e+002
9.250191e+002, 1.129200e+002
9.255012e+002, 1.140157e+002
9.259833e+002, 1.154125e+002
9.264655e+002, 1.164827e+002
9.269476e+002, 1.170113e+002
9.274297e+002, 1.170811e+002
9.279118e+002, 1.167016e+002
9.283939e+002, 1.159347e+002
9.288760e+002, 1.148052e+002
9.293582e+002, 1.133531e+002
9.298403e+002, 1.116305e+002
9.303224e+002, 1.096676e+002
9.308045e+002, 1.075312e+002
9.312866e+002, 1.052624e+002
9.317687e+002, 1.028840e+002
9.322509e+002, 1.003152e+002
9.327330e+002, 9.767270e+001
9.332151e+002, 9.555893e+001
9.336972e+002, 9.402333e+001
9.341793e+002, 9.252236e+001
9.346614e+002, 9.077821e+001
9.351436e+002, 8.906482e+001
9.356257e+002, 8.779919e+001
9.361078e+002, 8.696278e+001
9.365899e+002, 8.619849e+001
9.370720e+002, 8.549788e+001
9.375541e+002, 8.491894e+001
9.380363e+002, 8.446903e+001
9.385184e+002, 8.416353e+001
9.390005e+002, 8.407437e+001
9.394826e+002, 8.411002e+001
9.399647e+002, 8.398746e+001
9.404468e+002, 8.353460e+001
9.409290e+002, 8.339609e+001
9.414111e+002, 8.363685e+001
9.418932e+002, 8.409535e+001
9.423753e+002, 8.490745e+001
9.428574e+002, 8.577950e+001
9.433395e+002, 8.645666e+001
9.438217e+002, 8.694671e+001
9.443038e+002, 8.735186e+001
9.447859e+002, 8.763174e+001
9.452680e+002, 8.795460e+001
9.457501e+002, 8.831631e+001
9.462322e+002, 8.880561e+001
9.467144e+002, 8.966404e+001
9.471965e+002, 9.062458e+001
9.476786e+002, 9.117783e+001
9.481607e+002, 9.126909e+001
9.486428e+002, 9.144808e+001
9.491249e+002, 9.199257e+001
9.496071e+002, 9.286864e+001
9.500892e+002, 9.439413e+001
9.505713e+002, 9.605464e+001
9.510534e+002, 9.681104e+001
9.515355e+002, 9.679045e+001
9.520176e+002, 9.692686e+001
9.524998e+002, 9.763968e+001
9.529819e+002, 9.865909e+001
9.534640e+002, 9.979104e+001
9.539461e+002, 1.009400e+002
9.544282e+002, 1.017494e+002
9.549103e+002, 1.022735e+002
9.553925e+002, 1.028824e+002
9.558746e+002, 1.036573e+002
9.563567e+002, 1.047095e+002
9.568388e+002, 1.061708e+002
9.573209e+002, 1.077705e+002
9.578030e+002, 1.088315e+002
9.582852e+002, 1.092606e+002
9.587673e+002, 1.102832e+002
9.592494e+002, 1.120351e+002
9.597315e+002, 1.138556e+002
9.602136e+002, 1.156166e+002
9.606957e+002, 1.172266e+002
9.611779e+002, 1.184882e+002
9.616600e+002, 1.195300e+002
9.621421e+002, 1.210166e+002
9.626242e+002, 1.230924e+002
9.631063e+002, 1.253213e+002
9.635884e+002, 1.275012e+002
9.640706e+002, 1.300846e+002
9.645527e+002, 1.334893e+002
9.650348e+002, 1.372018e+002
9.655169e+002, 1.404782e+002
9.659990e+002, 1.433832e+002
9.664811e+002, 1.470567e+002
9.669633e+002, 1.519090e+002
9.674454e+002, 1.571473e+002
9.679275e+002, 1.630162e+002
9.684096e+002, 1.688261e+002
9.688917e+002, 1.745839e+002
9.693738e+002, 1.797936e+002
9.698560e+002, 1.838706e+002
9.703381e+002, 1.866859e+002
9.708202e+002, 1.881370e+002
9.713023e+002, 1.882807e+002
9.717844e+002, 1.869320e+002
9.722665e+002, 1.836601e+002
9.727487e+002, 1.790363e+002
9.732308e+002, 1.734909e+002
9.737129e+002, 1.672641e+002
9.741950e+002, 1.605112e+002
9.746771e+002, 1.533086e+002
9.751592e+002, 1.464290e+002
9.756414e+002, 1.405900e+002
9.761235e+002, 1.355149e+002
9.766056e+002, 1.307555e+002
9.770877e+002, 1.264114e+002
9.775698e+002, 1.228349e+002
9.780519e+002, 1.199997e+002
9.785341e+002, 1.174193e+002
9.790162e+002, 1.148103e+002
9.794983e+002, 1.123767e+002
9.799804e+002, 1.104894e+002
9.804625e+002, 1.090176e+002
9.809446e+002, 1.074365e+002
9.814268e+002, 1.057623e+002
9.819089e+002, 1.042220e+002
9.823910e+002, 1.028776e+002
9.828731e+002, 1.017160e+002
9.833552e+002, 1.007385e+002
9.838373e+002, 9.992400e+001
9.843195e+002, 9.924576e+001
9.848016e+002, 9.871209e+001
9.852837e+002, 9.815180e+001
9.857658e+002, 9.755651e+001
9.862479e+002, 9.695992e+001
9.867300e+002, 9.637309e+001
9.872122e+002, 9.578770e+001
9.876943e+002, 9.518503e+001
9.881764e+002, 9.457191e+001
9.886585e+002, 9.397366e+001
9.891406e+002, 9.332542e+001
9.896227e+002, 9.288624e+001
9.901049e+002, 9.276729e+001
9.905870e+002, 9.267705e+001
9.910691e+002, 9.253830e+001
9.915512e+002, 9.233159e+001
9.920333e+002, 9.201722e+001
9.925154e+002, 9.159905e+001
9.929976e+002, 9.117030e+001
9.934797e+002, 9.068574e+001
9.939618e+002, 9.026006e+001
9.944439e+002, 9.001639e+001
9.949260e+002, 8.969978e+001
9.954081e+002, 8.903034e+001
9.958903e+002, 8.830334e+001
9.963724e+002, 8.800375e+001
9.968545e+002, 8.814796e+001
9.973366e+002, 8.805405e+001
9.978187e+002, 8.736295e+001
9.983008e+002, 8.673405e+001
9.987830e+002, 8.645992e+001
9.992651e+002, 8.620615e+001
9.997472e+002, 8.564086e+001
1.000229e+003, 8.495828e+001
1.000711e+003, 8.455927e+001
1.001194e+003, 8.451397e+001
1.001676e+003, 8.438860e+001
1.002158e+003, 8.381880e+001
1.002640e+003, 8.332837e+001
1.003122e+003, 8.329673e+001
1.003604e+003, 8.343591e+001
1.004086e+003, 8.355883e+001
1.004568e+003, 8.356742e+001
1.005050e+003, 8.328217e+001
1.005533e+003, 8.265414e+001
1.006015e+003, 8.202492e+001
1.006497e+003, 8.151125e+001
1.006979e+003, 8.122404e+001
1.007461e+003, 8.152705e+001
1.007943e+003, 8.199022e+001
1.008425e+003, 8.190449e+001
1.008907e+003, 8.131178e+001
1.009390e+003, 8.065137e+001
1.009872e+003, 8.010951e+001
1.010354e+003, 7.967490e+001
1.010836e+003, 7.925819e+001
1.011318e+003, 7.898969e+001
1.011800e+003, 7.921889e+001
1.012282e+003, 7.973745e+001
1.012764e+003, 8.002056e+001
1.013246e+003, 8.001717e+001
1.013729e+003, 8.000597e+001
1.014211e+003, 8.013663e+001
1.014693e+003, 8.023611e+001
1.015175e+003, 8.002302e+001
1.015657e+003, 7.961478e+001
1.016139e+003, 7.926974e+001
1.016621e+003, 7.903136e+001
1.017103e+003, 7.925699e+001
1.017586e+003, 7.996337e+001
1.018068e+003, 8.040365e+001
1.018550e+003, 8.008897e+001
1.019032e+003, 7.951348e+001
1.019514e+003, 7.957350e+001
1.019996e+003, 8.014414e+001
1.020478e+003, 8.026081e+001
1.020960e+003, 7.993961e+001
1.021442e+003, 7.977434e+001
1.021925e+003, 7.990165e+001
1.022407e+003, 8.018070e+001
1.022889e+003, 8.053381e+001
1.023371e+003, 8.090246e+001
1.023853e+003, 8.115227e+001
1.024335e+003, 8.128072e+001
1.024817e+003, 8.149970e+001
1.025299e+003, 8.181203e+001
1.025781e+003, 8.224561e+001
1.026264e+003, 8.289139e+001
1.026746e+003, 8.325918e+001
1.027228e+003, 8.286266e+001
1.027710e+003, 8.215530e+001
1.028192e+003, 8.228771e+001
1.028674e+003, 8.340883e+001
1.029156e+003, 8.416980e+001
1.029638e+003, 8.448314e+001
1.030120e+003, 8.471954e+001
1.030603e+003, 8.497257e+001
1.031085e+003, 8.515505e+001
1.031567e+003, 8.512888e+001
1.032049e+003, 8.504318e+001
1.032531e+003, 8.533109e+001
1.033013e+003, 8.613326e+001
1.033495e+003, 8.668317e+001
1.033977e+003, 8.696329e+001
1.034460e+003, 8.701077e+001
1.034942e+003, 8.665969e+001
1.035424e+003, 8.632577e+001
1.035906e+003, 8.631558e+001
1.036388e+003, 8.657967e+001
1.036870e+003, 8.701765e+001
1.037352e+003, 8.777288e+001
1.037834e+003, 8.819955e+001
1.038317e+003, 8.828052e+001
1.038799e+003, 8.804875e+001
1.039281e+003, 8.718467e+001
1.039763e+003, 8.633961e+001
1.040245e+003, 8.608108e+001
1.040727e+003, 8.621313e+001
1.041209e+003, 8.614985e+001
1.041691e+003, 8.575749e+001
1.042173e+003, 8.559634e+001
1.042656e+003, 8.589894e+001
1.043138e+003, 8.612988e+001
1.043620e+003, 8.613232e+001
1.044102e+003, 8.604208e+001
1.044584e+003, 8.589289e+001
1.045066e+003, 8.574240e+001
1.045548e+003, 8.576531e+001
1.046030e+003, 8.606637e+001
1.046512e+003, 8.616439e+001
1.046995e+003, 8.591162e+001
1.047477e+003, 8.557686e+001
1.047959e+003, 8.511947e+001
1.048441e+003, 8.471741e+001
1.048923e+003, 8.455998e+001
1.049405e+003, 8.455584e+001
1.049887e+003, 8.447846e+001
1.050369e+003, 8.428726e+001
1.050852e+003, 8.409557e+001
1.051334e+003, 8.387723e+001
1.051816e+003, 8.372375e+001
1.052298e+003, 8.380177e+001
1.052780e+003, 8.383427e+001
1.053262e+003, 8.355159e+001
1.053744e+003, 8.305859e+001
1.054226e+003, 8.256969e+001
1.054708e+003, 8.208863e+001
1.055191e+003, 8.185388e+001
1.055673e+003, 8.212508e+001
1.056155e+003, 8.239803e+001
1.056637e+003, 8.245511e+001
1.057119e+003, 8.245445e+001
1.057601e+003, 8.252305e+001
1.058083e+003, 8.264146e+001
1.058565e+003, 8.273902e+001
1.059047e+003, 8.279874e+001
1.059530e+003, 8.290192e+001
1.060012e+003, 8.321960e+001
1.060494e+003, 8.339746e+001
1.060976e+003, 8.309560e+001
1.061458e+003, 8.276649e+001
1.061940e+003, 8.272236e+001
1.062422e+003, 8.295821e+001
1.062904e+003, 8.346793e+001
1.063387e+003, 8.424429e+001
1.063869e+003, 8.491447e+001
1.064351e+003, 8.520890e+001
1.064833e+003, 8.554021e+001
1.065315e+003, 8.622606e+001
1.065797e+003, 8.690244e+001
1.066279e+003, 8.709486e+001
1.066761e+003, 8.712263e+001
1.067244e+003, 8.761154e+001
1.067726e+003, 8.865036e+001
1.068208e+003, 8.971288e+001
1.068690e+003, 9.070139e+001
1.069172e+003, 9.151660e+001
1.069654e+003, 9.214133e+001
1.070136e+003, 9.254362e+001
1.070618e+003, 9.271989e+001
1.071100e+003, 9.264129e+001
1.071583e+003, 9.224786e+001
1.072065e+003, 9.154188e+001
1.072547e+003, 9.059966e+001
1.073029e+003, 8.930005e+001
1.073511e+003, 8.803425e+001
1.073993e+003, 8.707442e+001
1.074475e+003, 8.613819e+001
1.074957e+003, 8.496390e+001
1.075439e+003, 8.369549e+001
1.075922e+003, 8.255312e+001
1.076404e+003, 8.155717e+001
1.076886e+003, 8.057581e+001
1.077368e+003, 7.952348e+001
1.077850e+003, 7.856210e+001
1.078332e+003, 7.769096e+001
1.078814e+003, 7.700547e+001
1.079297e+003, 7.677877e+001
1.079779e+003, 7.665298e+001
1.080261e+003, 7.600977e+001
1.080743e+003, 7.497665e+001
1.081225e+003, 7.442027e+001
1.081707e+003, 7.478990e+001
1.082189e+003, 7.511437e+001
1.082671e+003, 7.485886e+001
1.083153e+003, 7.451914e+001
1.083635e+003, 7.448205e+001
1.084118e+003, 7.449197e+001
1.084600e+003, 7.420278e+001
1.085082e+003, 7.367167e+001
1.085564e+003, 7.314897e+001
1.086046e+003, 7.265202e+001
1.086528e+003, 7.246862e+001
1.087010e+003, 7.313721e+001
1.087492e+003, 7.365347e+001
1.087975e+003, 7.323654e+001
1.088457e+003, 7.257190e+001
1.088939e+003, 7.237566e+001
1.089421e+003, 7.253181e+001
1.089903e+003, 7.258303e+001
1.090385e+003, 7.241804e+001
1.090867e+003, 7.224410e+001
1.091349e+003, 7.205603e+001
1.091832e+003, 7.198479e+001
1.092314e+003, 7.232056e+001
1.092796e+003, 7.258830e+001
1.093278e+003, 7.220084e+001
1.093760e+003, 7.151012e+001
1.094242e+003, 7.125549e+001
1.094724e+003, 7.155540e+001
1.095206e+003, 7.180901e+001
1.095688e+003, 7.160275e+001
1.096171e+003, 7.162697e+001
1.096653e+003, 7.252390e+001
1.097135e+003, 7.331664e+001
1.097617e+003, 7.317063e+001
1.098099e+003, 7.256991e+001
1.098581e+003, 7.226479e+001
1.099063e+003, 7.231655e+001
1.099545e+003, 7.234747e+001
1.100027e+003, 7.232565e+001
1.100510e+003, 7.217332e+001
1.100992e+003, 7.170125e+001
1.101474e+003, 7.128691e+001
1.101956e+003, 7.117989e+001
1.102438e+003, 7.120943e+001
1.102920e+003, 7.115040e+001
1.103402e+003, 7.102843e+001
1.103884e+003, 7.105806e+001
1.104367e+003, 7.135369e+001
1.104849e+003, 7.159856e+001
1.105331e+003, 7.186660e+001
1.105813e+003, 7.191094e+001
1.106295e+003, 7.132962e+001
1.106777e+003, 7.074583e+001
1.107259e+003, 7.091028e+001
1.107741e+003, 7.151067e+001
1.108224e+003, 7.153920e+001
1.108706e+003, 7.069326e+001
1.109188e+003, 7.018444e+001
1.109670e+003, 7.030347e+001
1.110152e+003, 7.051196e+001
1.110634e+003, 7.084101e+001
1.111116e+003, 7.106528e+001
1.111598e+003, 7.091406e+001
1.112080e+003, 7.060442e+001
1.112563e+003, 7.059807e+001
1.113045e+003, 7.095912e+001
1.113527e+003, 7.107142e+001
1.114009e+003, 7.066030e+001
1.114491e+003, 7.045386e+001
1.114973e+003, 7.075168e+001
1.115455e+003, 7.095605e+001
1.115937e+003, 7.070286e+001
1.116419e+003, 7.027592e+001
1.116902e+003, 7.002781e+001
1.117384e+003, 6.994756e+001
1.117866e+003, 6.989712e+001
1.118348e+003, 6.992435e+001
1.118830e+003, 6.986761e+001
1.119312e+003, 6.969205e+001
1.119794e+003, 6.948067e+001
1.120276e+003, 6.919871e+001
1.120759e+003, 6.900233e+001
1.121241e+003, 6.909750e+001
1.121723e+003, 6.936380e+001
1.122205e+003, 6.936718e+001
1.122687e+003, 6.905351e+001
1.123169e+003, 6.869610e+001
1.123651e+003, 6.822237e+001
1.124133e+003, 6.796404e+001
1.124615e+003, 6.806892e+001
1.125098e+003, 6.819814e+001
1.125580e+003, 6.809188e+001
1.126062e+003, 6.791740e+001
1.126544e+003, 6.803770e+001
1.127026e+003, 6.844107e+001
1.127508e+003, 6.856504e+001
1.127990e+003, 6.839066e+001
1.128472e+003, 6.807666e+001
1.128954e+003, 6.762768e+001
1.129437e+003, 6.714142e+001
1.129919e+003, 6.663047e+001
1.130401e+003, 6.630159e+001
1.130883e+003, 6.647176e+001
1.131365e+003, 6.696109e+001
1.131847e+003, 6.701405e+001
1.132329e+003, 6.665440e+001
1.132811e+003, 6.635423e+001
1.133294e+003, 6.614503e+001
1.133776e+003, 6.583595e+001
1.134258e+003, 6.536277e+001
1.134740e+003, 6.493201e+001
1.135222e+003, 6.472983e+001
1.135704e+003, 6.462356e+001
1.136186e+003, 6.430534e+001
1.136668e+003, 6.386425e+001
1.137151e+003, 6.372167e+001
1.137633e+003, 6.380811e+001
1.138115e+003, 6.370621e+001
1.138597e+003, 6.335719e+001
1.139079e+003, 6.303276e+001
1.139561e+003, 6.288542e+001
1.140043e+003, 6.278703e+001
1.140525e+003, 6.258115e+001
1.141007e+003, 6.232180e+001
1.141490e+003, 6.208824e+001
1.141972e+003, 6.189258e+001
1.142454e+003, 6.178811e+001
1.142936e+003, 6.174797e+001
1.143418e+003, 6.166585e+001
1.143900e+003, 6.150835e+001
1.144382e+003, 6.134256e+001
1.144864e+003, 6.125736e+001
1.145346e+003, 6.110973e+001
1.145829e+003, 6.068993e+001
1.146311e+003, 6.016447e+001
1.146793e+003, 5.963680e+001
1.147275e+003, 5.921582e+001
1.147757e+003, 5.918028e+001
1.148239e+003, 5.946064e+001
1.148721e+003, 5.955033e+001
1.149203e+003, 5.919384e+001
1.149686e+003, 5.875585e+001
1.150168e+003, 5.844876e+001
1.150650e+003, 5.817261e+001
1.151132e+003, 5.783262e+001
1.151614e+003, 5.749779e+001
1.152096e+003, 5.727340e+001
1.152578e+003, 5.711952e+001
1.153060e+003, 5.688804e+001
1.153542e+003, 5.654065e+001
1.154025e+003, 5.634077e+001
1.154507e+003, 5.659040e+001
1.154989e+003, 5.670738e+001
1.155471e+003, 5.630128e+001
1.155953e+003, 5.589771e+001
1.156435e+003, 5.599055e+001
1.156917e+003, 5.620292e+001
1.157399e+003, 5.591108e+001
1.157881e+003, 5.515643e+001
1.158364e+003, 5.466673e+001
1.158846e+003, 5.472222e+001
1.159328e+003, 5.464268e+001
1.159810e+003, 5.422425e+001
1.160292e+003, 5.388749e+001
1.160774e+003, 5.382030e+001
1.161256e+003, 5.380285e+001
1.161738e+003, 5.365146e+001
1.162221e+003, 5.343277e+001
1.162703e+003, 5.333750e+001
1.163185e+003, 5.341549e+001
1.163667e+003, 5.316881e+001
1.164149e+003, 5.237909e+001
1.164631e+003, 5.192125e+001
1.165113e+003, 5.199708e+001
1.165595e+003, 5.222029e+001
1.166078e+003, 5.244300e+001
1.166560e+003, 5.261168e+001
1.167042e+003, 5.265947e+001
1.167524e+003, 5.259864e+001
1.168006e+003, 5.244730e+001
1.168488e+003, 5.219479e+001
1.168970e+003, 5.218281e+001
1.169452e+003, 5.243928e+001
1.169934e+003, 5.254805e+001
1.170417e+003, 5.238564e+001
1.170899e+003, 5.219961e+001
1.171381e+003, 5.217949e+001
1.171863e+003, 5.218424e+001
1.172345e+003, 5.188799e+001
1.172827e+003, 5.143814e+001
1.173309e+003, 5.137594e+001
1.173791e+003, 5.163396e+001
1.174273e+003, 5.205889e+001
1.174756e+003, 5.254781e+001
1.175238e+003, 5.274514e+001
1.175720e+003, 5.252681e+001
1.176202e+003, 5.222147e+001
1.176684e+003, 5.212265e+001
1.177166e+003, 5.205950e+001
1.177648e+003, 5.174867e+001
1.178130e+003, 5.138251e+001
1.178613e+003, 5.124946e+001
1.179095e+003, 5.128426e+001
1.179577e+003, 5.131519e+001
1.180059e+003, 5.132424e+001
1.180541e+003, 5.142850e+001
1.181023e+003, 5.171164e+001
1.181505e+003, 5.188041e+001
1.181987e+003, 5.165746e+001
1.182469e+003, 5.137918e+001
1.182952e+003, 5.118894e+001
1.183434e+003, 5.112293e+001
1.183916e+003, 5.134339e+001
1.184398e+003, 5.165667e+001
1.184880e+003, 5.165650e+001
1.185362e+003, 5.129557e+001
1.185844e+003, 5.100194e+001
1.186326e+003, 5.091627e+001
1.186808e+003, 5.084096e+001
1.187291e+003, 5.066837e+001
1.187773e+003, 5.059148e+001
1.188255e+003, 5.077431e+001
1.188737e+003, 5.102198e+001
1.189219e+003, 5.112400e+001
1.189701e+003, 5.114959e+001
1.190183e+003, 5.136097e+001
1.190665e+003, 5.188903e+001
1.191148e+003, 5.187807e+001
1.191630e+003, 5.104538e+001
1.192112e+003, 5.047886e+001
1.192594e+003, 5.043103e+001
1.193076e+003, 5.045449e+001
1.193558e+003, 5.031363e+001
1.194040e+003, 5.014841e+001
1.194522e+003, 5.014758e+001
1.195005e+003, 5.026252e+001
1.195487e+003, 5.029591e+001
1.195969e+003, 5.024932e+001
1.196451e+003, 5.011950e+001
1.196933e+003, 4.991817e+001
1.197415e+003, 4.992139e+001
1.197897e+003, 5.018947e+001
1.198379e+003, 5.045708e+001
1.198861e+003, 5.056107e+001
1.199344e+003, 5.052875e+001
1.199826e+003, 5.027981e+001
1.200308e+003, 5.000069e+001
1.200790e+003, 5.018194e+001
1.201272e+003, 5.059000e+001
1.201754e+003, 5.068215e+001
1.202236e+003, 5.050707e+001
1.202718e+003, 5.043353e+001
1.203200e+003, 5.054212e+001
1.203683e+003, 5.055045e+001
1.204165e+003, 5.023635e+001
1.204647e+003, 4.992307e+001
1.205129e+003, 4.980151e+001
1.205611e+003, 4.983892e+001
1.206093e+003, 5.018548e+001
1.206575e+003, 5.054364e+001
1.207057e+003, 5.045937e+001
1.207540e+003, 5.009087e+001
1.208022e+003, 4.997237e+001
1.208504e+003, 5.023257e+001
1.208986e+003, 5.044975e+001
1.209468e+003, 5.053556e+001
1.209950e+003, 5.055259e+001
1.210432e+003, 5.042958e+001
1.210914e+003, 5.034149e+001
1.211396e+003, 5.048462e+001
1.211879e+003, 5.061168e+001
1.212361e+003, 5.040993e+001
1.212843e+003, 4.998408e+001
1.213325e+003, 4.976270e+001
1.213807e+003, 4.978910e+001
1.214289e+003, 4.981211e+001
1.214771e+003, 4.981429e+001
1.215253e+003, 4.991380e+001
1.215735e+003, 5.018015e+001
1.216218e+003, 5.029000e+001
1.216700e+003, 5.003709e+001
1.217182e+003, 4.970411e+001
1.217664e+003, 4.963400e+001
1.218146e+003, 4.977502e+001
1.218628e+003, 5.004253e+001
1.219110e+003, 5.037605e+001
1.219592e+003, 5.044269e+001
1.220075e+003, 5.026511e+001
1.220557e+003, 4.999979e+001
1.221039e+003, 4.972461e+001
1.221521e+003, 4.966762e+001
1.222003e+003, 4.996698e+001
1.222485e+003, 5.025993e+001
1.222967e+003, 5.007214e+001
1.223449e+003, 4.979165e+001
1.223932e+003, 4.994875e+001
1.224414e+003, 5.022172e+001
1.224896e+003, 5.013232e+001
1.225378e+003, 4.983912e+001
1.225860e+003, 4.972353e+001
1.226342e+003, 4.983739e+001
1.226824e+003, 5.001360e+001
1.227306e+003, 5.026348e+001
1.227788e+003, 5.037288e+001
1.228271e+003, 5.021922e+001
1.228753e+003, 4.997677e+001
1.229235e+003, 4.954200e+001
1.229717e+003, 4.922145e+001
1.230199e+003, 4.940416e+001
1.230681e+003, 4.979497e+001
1.231163e+003, 4.982817e+001
1.231645e+003, 4.951318e+001
1.232127e+003, 4.932804e+001
1.232610e+003, 4.934033e+001
1.233092e+003, 4.925573e+001
1.233574e+003, 4.899500e+001
1.234056e+003, 4.889862e+001
1.234538e+003, 4.911596e+001
1.235020e+003, 4.926765e+001
1.235502e+003, 4.902545e+001
1.235984e+003, 4.877110e+001
1.236467e+003, 4.930777e+001
1.236949e+003, 5.033241e+001
1.237431e+003, 5.040286e+001
1.237913e+003, 4.977588e+001
1.238395e+003, 4.965718e+001
1.238877e+003, 5.003738e+001
1.239359e+003, 5.016809e+001
1.239841e+003, 4.986950e+001
1.240323e+003, 4.965871e+001
1.240806e+003, 4.989309e+001
1.241288e+003, 5.018941e+001
1.241770e+003, 5.017835e+001
1.242252e+003, 5.005495e+001
1.242734e+003, 5.002826e+001
1.243216e+003, 4.998971e+001
1.243698e+003, 4.970563e+001
1.244180e+003, 4.932870e+001
1.244662e+003, 4.921168e+001
1.245145e+003, 4.940036e+001
1.245627e+003, 4.962635e+001
1.246109e+003, 4.992926e+001
1.246591e+003, 5.006652e+001
1.247073e+003, 4.985863e+001
1.247555e+003, 4.966658e+001
1.248037e+003, 4.966119e+001
1.248519e+003, 4.964601e+001
1.249002e+003, 4.941446e+001
1.249484e+003, 4.915497e+001
1.249966e+003, 4.925968e+001
1.250448e+003, 4.969133e+001
1.250930e+003, 4.977055e+001
1.251412e+003, 4.945705e+001
1.251894e+003, 4.923722e+001
1.252376e+003, 4.915108e+001
1.252859e+003, 4.900652e+001
1.253341e+003, 4.874721e+001
1.253823e+003, 4.859727e+001
1.254305e+003, 4.871625e+001
1.254787e+003, 4.896024e+001
1.255269e+003, 4.920192e+001
1.255751e+003, 4.937787e+001
1.256233e+003, 4.928759e+001
1.256715e+003, 4.909305e+001
1.257198e+003, 4.916993e+001
1.257680e+003, 4.939046e+001
1.258162e+003, 4.929103e+001
1.258644e+003, 4.886378e+001
1.259126e+003, 4.866151e+001
1.259608e+003, 4.896852e+001
1.260090e+003, 4.932729e+001
1.260572e+003, 4.966420e+001
1.261054e+003, 4.982082e+001
1.261537e+003, 4.949709e+001
1.262019e+003, 4.919157e+001
1.262501e+003, 4.941457e+001
1.262983e+003, 4.982678e+001
1.263465e+003, 4.984077e+001
1.263947e+003, 4.951400e+001
1.264429e+003, 4.932640e+001
1.264911e+003, 4.932254e+001
1.265394e+003, 4.929323e+001
1.265876e+003, 4.920242e+001
1.266358e+003, 4.927681e+001
1.266840e+003, 4.959925e+001
1.267322e+003, 4.985992e+001
1.267804e+003, 4.989013e+001
1.268286e+003, 4.975460e+001
1.268768e+003, 4.948490e+001
1.269250e+003, 4.919942e+001
1.269733e+003, 4.916610e+001
1.270215e+003, 4.933084e+001
1.270697e+003, 4.964849e+001
1.271179e+003, 5.002047e+001
1.271661e+003, 5.023173e+001
1.272143e+003, 5.025514e+001
1.272625e+003, 5.013169e+001
1.273107e+003, 4.987768e+001
1.273589e+003, 4.968083e+001
1.274072e+003, 4.968876e+001
1.274554e+003, 4.973333e+001
1.275036e+003, 4.983597e+001
1.275518e+003, 4.982786e+001
1.276000e+003, 4.942805e+001
1.276482e+003, 4.899028e+001
1.276964e+003, 4.898054e+001
1.277446e+003, 4.926618e+001
1.277929e+003, 4.934313e+001
1.278411e+003, 4.918031e+001
1.278893e+003, 4.910601e+001
1.279375e+003, 4.906475e+001
1.279857e+003, 4.941456e+001
1.280339e+003, 5.033973e+001
1.280821e+003, 5.078382e+001
1.281303e+003, 5.032817e+001
1.281786e+003, 4.972980e+001
1.282268e+003, 4.954189e+001
##END=



