##NAMES=Linekite
##RRUFFID=R141026
##IDEAL CHEMISTRY=K_2_Ca_3_[(U^6+^O_2_)(CO_3_)_3_]_2_&#183;8H_2_O
##LOCALITY=Svornost Mine, Jáchymov, Krušné Hory Mts, Karlovy Vary, Bohemia, Czech Republic
##OWNER=RRUFF
##SOURCE=William W. Pinch
##DESCRIPTION=Light green tabular crystals
##STATUS=The identification of this mineral has been confirmed only by single crystal X-ray diffraction.
##URL=rruff.info/R141026
8.813672e+001, 1.245889e+003
8.861884e+001, 1.258051e+003
8.910095e+001, 1.272330e+003
8.958307e+001, 1.295915e+003
9.006519e+001, 1.325002e+003
9.054730e+001, 1.350965e+003
9.102942e+001, 1.374103e+003
9.151154e+001, 1.394659e+003
9.199365e+001, 1.412774e+003
9.247577e+001, 1.429046e+003
9.295789e+001, 1.444355e+003
9.344000e+001, 1.459199e+003
9.392212e+001, 1.472334e+003
9.440424e+001, 1.484217e+003
9.488635e+001, 1.497203e+003
9.536847e+001, 1.510889e+003
9.585059e+001, 1.522646e+003
9.633270e+001, 1.532179e+003
9.681482e+001, 1.542568e+003
9.729694e+001, 1.556948e+003
9.777905e+001, 1.575245e+003
9.826117e+001, 1.593902e+003
9.874329e+001, 1.612014e+003
9.922540e+001, 1.629471e+003
9.970752e+001, 1.646194e+003
1.001896e+002, 1.661618e+003
1.006718e+002, 1.676757e+003
1.011539e+002, 1.692430e+003
1.016360e+002, 1.708349e+003
1.021181e+002, 1.726234e+003
1.026002e+002, 1.747154e+003
1.030823e+002, 1.771898e+003
1.035645e+002, 1.794570e+003
1.040466e+002, 1.814527e+003
1.045287e+002, 1.833161e+003
1.050108e+002, 1.853475e+003
1.054929e+002, 1.875673e+003
1.059750e+002, 1.899279e+003
1.064572e+002, 1.924338e+003
1.069393e+002, 1.953363e+003
1.074214e+002, 1.979660e+003
1.079035e+002, 2.002668e+003
1.083856e+002, 2.023257e+003
1.088677e+002, 2.043269e+003
1.093499e+002, 2.062164e+003
1.098320e+002, 2.081328e+003
1.103141e+002, 2.101334e+003
1.107962e+002, 2.123147e+003
1.112783e+002, 2.145210e+003
1.117604e+002, 2.167692e+003
1.122426e+002, 2.190734e+003
1.127247e+002, 2.213624e+003
1.132068e+002, 2.235862e+003
1.136889e+002, 2.258209e+003
1.141710e+002, 2.280958e+003
1.146531e+002, 2.306103e+003
1.151353e+002, 2.329723e+003
1.156174e+002, 2.350479e+003
1.160995e+002, 2.368241e+003
1.165816e+002, 2.385911e+003
1.170637e+002, 2.404884e+003
1.175458e+002, 2.424057e+003
1.180280e+002, 2.442485e+003
1.185101e+002, 2.459800e+003
1.189922e+002, 2.476004e+003
1.194743e+002, 2.490092e+003
1.199564e+002, 2.501701e+003
1.204385e+002, 2.514274e+003
1.209207e+002, 2.530011e+003
1.214028e+002, 2.548136e+003
1.218849e+002, 2.567210e+003
1.223670e+002, 2.588186e+003
1.228491e+002, 2.609276e+003
1.233312e+002, 2.628389e+003
1.238134e+002, 2.645194e+003
1.242955e+002, 2.660734e+003
1.247776e+002, 2.675509e+003
1.252597e+002, 2.689679e+003
1.257418e+002, 2.703805e+003
1.262239e+002, 2.717396e+003
1.267061e+002, 2.731406e+003
1.271882e+002, 2.747360e+003
1.276703e+002, 2.766133e+003
1.281524e+002, 2.786141e+003
1.286345e+002, 2.805157e+003
1.291166e+002, 2.823257e+003
1.295988e+002, 2.841410e+003
1.300809e+002, 2.860402e+003
1.305630e+002, 2.880034e+003
1.310451e+002, 2.899598e+003
1.315272e+002, 2.918651e+003
1.320093e+002, 2.937416e+003
1.324915e+002, 2.956636e+003
1.329736e+002, 2.976243e+003
1.334557e+002, 2.996368e+003
1.339378e+002, 3.017684e+003
1.344199e+002, 3.040134e+003
1.349020e+002, 3.060010e+003
1.353842e+002, 3.075172e+003
1.358663e+002, 3.086645e+003
1.363484e+002, 3.102064e+003
1.368305e+002, 3.122206e+003
1.373126e+002, 3.143924e+003
1.377947e+002, 3.163919e+003
1.382769e+002, 3.182172e+003
1.387590e+002, 3.198934e+003
1.392411e+002, 3.214288e+003
1.397232e+002, 3.228406e+003
1.402053e+002, 3.239677e+003
1.406874e+002, 3.248019e+003
1.411696e+002, 3.254014e+003
1.416517e+002, 3.257746e+003
1.421338e+002, 3.257663e+003
1.426159e+002, 3.259387e+003
1.430980e+002, 3.265818e+003
1.435801e+002, 3.279027e+003
1.440623e+002, 3.286977e+003
1.445444e+002, 3.287226e+003
1.450265e+002, 3.283846e+003
1.455086e+002, 3.283748e+003
1.459907e+002, 3.289293e+003
1.464728e+002, 3.295214e+003
1.469550e+002, 3.299965e+003
1.474371e+002, 3.303242e+003
1.479192e+002, 3.306067e+003
1.484013e+002, 3.307896e+003
1.488834e+002, 3.309323e+003
1.493655e+002, 3.311702e+003
1.498477e+002, 3.315957e+003
1.503298e+002, 3.320323e+003
1.508119e+002, 3.324155e+003
1.512940e+002, 3.327546e+003
1.517761e+002, 3.330216e+003
1.522583e+002, 3.331686e+003
1.527404e+002, 3.332307e+003
1.532225e+002, 3.333104e+003
1.537046e+002, 3.334042e+003
1.541867e+002, 3.335238e+003
1.546688e+002, 3.336749e+003
1.551510e+002, 3.338849e+003
1.556331e+002, 3.340982e+003
1.561152e+002, 3.343872e+003
1.565973e+002, 3.347007e+003
1.570794e+002, 3.348237e+003
1.575615e+002, 3.345287e+003
1.580437e+002, 3.341438e+003
1.585258e+002, 3.338727e+003
1.590079e+002, 3.339316e+003
1.594900e+002, 3.339311e+003
1.599721e+002, 3.337208e+003
1.604542e+002, 3.333366e+003
1.609364e+002, 3.329840e+003
1.614185e+002, 3.327624e+003
1.619006e+002, 3.325907e+003
1.623827e+002, 3.324036e+003
1.628648e+002, 3.321680e+003
1.633469e+002, 3.319234e+003
1.638291e+002, 3.317389e+003
1.643112e+002, 3.315981e+003
1.647933e+002, 3.313205e+003
1.652754e+002, 3.306580e+003
1.657575e+002, 3.298679e+003
1.662396e+002, 3.292206e+003
1.667218e+002, 3.289289e+003
1.672039e+002, 3.287216e+003
1.676860e+002, 3.284336e+003
1.681681e+002, 3.280673e+003
1.686502e+002, 3.276860e+003
1.691323e+002, 3.272860e+003
1.696145e+002, 3.269094e+003
1.700966e+002, 3.266160e+003
1.705787e+002, 3.265200e+003
1.710608e+002, 3.264651e+003
1.715429e+002, 3.262813e+003
1.720250e+002, 3.259577e+003
1.725072e+002, 3.256853e+003
1.729893e+002, 3.256371e+003
1.734714e+002, 3.257384e+003
1.739535e+002, 3.258495e+003
1.744356e+002, 3.260105e+003
1.749177e+002, 3.261034e+003
1.753999e+002, 3.258891e+003
1.758820e+002, 3.253185e+003
1.763641e+002, 3.248275e+003
1.768462e+002, 3.249368e+003
1.773283e+002, 3.254470e+003
1.778104e+002, 3.258492e+003
1.782926e+002, 3.257474e+003
1.787747e+002, 3.254152e+003
1.792568e+002, 3.253239e+003
1.797389e+002, 3.255161e+003
1.802210e+002, 3.257881e+003
1.807031e+002, 3.259328e+003
1.811853e+002, 3.259666e+003
1.816674e+002, 3.259470e+003
1.821495e+002, 3.258890e+003
1.826316e+002, 3.258004e+003
1.831137e+002, 3.256969e+003
1.835958e+002, 3.255780e+003
1.840780e+002, 3.254642e+003
1.845601e+002, 3.254370e+003
1.850422e+002, 3.254757e+003
1.855243e+002, 3.254080e+003
1.860064e+002, 3.249810e+003
1.864885e+002, 3.243516e+003
1.869707e+002, 3.241553e+003
1.874528e+002, 3.245223e+003
1.879349e+002, 3.250689e+003
1.884170e+002, 3.251815e+003
1.888991e+002, 3.248824e+003
1.893812e+002, 3.245554e+003
1.898634e+002, 3.243810e+003
1.903455e+002, 3.243462e+003
1.908276e+002, 3.244139e+003
1.913097e+002, 3.246336e+003
1.917918e+002, 3.248319e+003
1.922739e+002, 3.245878e+003
1.927561e+002, 3.238710e+003
1.932382e+002, 3.232990e+003
1.937203e+002, 3.233356e+003
1.942024e+002, 3.239214e+003
1.946845e+002, 3.242614e+003
1.951666e+002, 3.242547e+003
1.956488e+002, 3.240457e+003
1.961309e+002, 3.238954e+003
1.966130e+002, 3.238055e+003
1.970951e+002, 3.237562e+003
1.975772e+002, 3.237415e+003
1.980593e+002, 3.237630e+003
1.985415e+002, 3.238109e+003
1.990236e+002, 3.239008e+003
1.995057e+002, 3.240000e+003
1.999878e+002, 3.240309e+003
2.004699e+002, 3.239891e+003
2.009520e+002, 3.239035e+003
2.014342e+002, 3.237330e+003
2.019163e+002, 3.234522e+003
2.023984e+002, 3.234250e+003
2.028805e+002, 3.237893e+003
2.033626e+002, 3.243185e+003
2.038447e+002, 3.243896e+003
2.043269e+002, 3.238891e+003
2.048090e+002, 3.233339e+003
2.052911e+002, 3.230052e+003
2.057732e+002, 3.229171e+003
2.062553e+002, 3.229526e+003
2.067374e+002, 3.231344e+003
2.072196e+002, 3.234176e+003
2.077017e+002, 3.236885e+003
2.081838e+002, 3.239529e+003
2.086659e+002, 3.241935e+003
2.091480e+002, 3.244045e+003
2.096301e+002, 3.245954e+003
2.101123e+002, 3.247167e+003
2.105944e+002, 3.247287e+003
2.110765e+002, 3.246911e+003
2.115586e+002, 3.247737e+003
2.120407e+002, 3.249937e+003
2.125228e+002, 3.252974e+003
2.130050e+002, 3.256636e+003
2.134871e+002, 3.261038e+003
2.139692e+002, 3.265740e+003
2.144513e+002, 3.271466e+003
2.149334e+002, 3.277154e+003
2.154155e+002, 3.279153e+003
2.158977e+002, 3.275303e+003
2.163798e+002, 3.271906e+003
2.168619e+002, 3.272697e+003
2.173440e+002, 3.279219e+003
2.178261e+002, 3.284910e+003
2.183082e+002, 3.289159e+003
2.187904e+002, 3.292402e+003
2.192725e+002, 3.296230e+003
2.197546e+002, 3.301645e+003
2.202367e+002, 3.305778e+003
2.207188e+002, 3.306353e+003
2.212009e+002, 3.300531e+003
2.216831e+002, 3.299310e+003
2.221652e+002, 3.305228e+003
2.226473e+002, 3.315411e+003
2.231294e+002, 3.320817e+003
2.236115e+002, 3.318836e+003
2.240936e+002, 3.316648e+003
2.245758e+002, 3.318114e+003
2.250579e+002, 3.325720e+003
2.255400e+002, 3.330816e+003
2.260221e+002, 3.332230e+003
2.265042e+002, 3.331375e+003
2.269863e+002, 3.332080e+003
2.274685e+002, 3.335001e+003
2.279506e+002, 3.338486e+003
2.284327e+002, 3.341778e+003
2.289148e+002, 3.344708e+003
2.293969e+002, 3.347786e+003
2.298790e+002, 3.350743e+003
2.303612e+002, 3.353868e+003
2.308433e+002, 3.358059e+003
2.313254e+002, 3.364150e+003
2.318075e+002, 3.370005e+003
2.322896e+002, 3.374668e+003
2.327717e+002, 3.377680e+003
2.332539e+002, 3.380399e+003
2.337360e+002, 3.382346e+003
2.342181e+002, 3.384054e+003
2.347002e+002, 3.386781e+003
2.351823e+002, 3.390490e+003
2.356644e+002, 3.395180e+003
2.361466e+002, 3.401314e+003
2.366287e+002, 3.410501e+003
2.371108e+002, 3.416475e+003
2.375929e+002, 3.417737e+003
2.380750e+002, 3.416323e+003
2.385571e+002, 3.416529e+003
2.390393e+002, 3.419743e+003
2.395214e+002, 3.422426e+003
2.400035e+002, 3.423042e+003
2.404856e+002, 3.420467e+003
2.409677e+002, 3.419543e+003
2.414498e+002, 3.421276e+003
2.419320e+002, 3.424247e+003
2.424141e+002, 3.425916e+003
2.428962e+002, 3.425838e+003
2.433783e+002, 3.425349e+003
2.438604e+002, 3.424948e+003
2.443425e+002, 3.424816e+003
2.448247e+002, 3.424213e+003
2.453068e+002, 3.422604e+003
2.457889e+002, 3.420902e+003
2.462710e+002, 3.420614e+003
2.467531e+002, 3.422485e+003
2.472352e+002, 3.424428e+003
2.477174e+002, 3.425635e+003
2.481995e+002, 3.425714e+003
2.486816e+002, 3.426974e+003
2.491637e+002, 3.430630e+003
2.496458e+002, 3.434477e+003
2.501279e+002, 3.435109e+003
2.506101e+002, 3.430609e+003
2.510922e+002, 3.426417e+003
2.515743e+002, 3.424170e+003
2.520564e+002, 3.424155e+003
2.525385e+002, 3.423676e+003
2.530206e+002, 3.422641e+003
2.535028e+002, 3.421209e+003
2.539849e+002, 3.419534e+003
2.544670e+002, 3.417304e+003
2.549491e+002, 3.415476e+003
2.554312e+002, 3.414296e+003
2.559133e+002, 3.413801e+003
2.563955e+002, 3.413799e+003
2.568776e+002, 3.414957e+003
2.573597e+002, 3.415855e+003
2.578418e+002, 3.414823e+003
2.583239e+002, 3.410977e+003
2.588061e+002, 3.407145e+003
2.592882e+002, 3.403470e+003
2.597703e+002, 3.399962e+003
2.602524e+002, 3.398717e+003
2.607345e+002, 3.400914e+003
2.612166e+002, 3.403699e+003
2.616988e+002, 3.404375e+003
2.621809e+002, 3.402133e+003
2.626630e+002, 3.400147e+003
2.631451e+002, 3.399207e+003
2.636272e+002, 3.399118e+003
2.641093e+002, 3.397884e+003
2.645915e+002, 3.394824e+003
2.650736e+002, 3.391874e+003
2.655557e+002, 3.391033e+003
2.660378e+002, 3.393505e+003
2.665199e+002, 3.393800e+003
2.670020e+002, 3.390333e+003
2.674842e+002, 3.384099e+003
2.679663e+002, 3.380369e+003
2.684484e+002, 3.379706e+003
2.689305e+002, 3.380203e+003
2.694126e+002, 3.380514e+003
2.698947e+002, 3.380394e+003
2.703769e+002, 3.381203e+003
2.708590e+002, 3.383419e+003
2.713411e+002, 3.386464e+003
2.718232e+002, 3.388325e+003
2.723053e+002, 3.388664e+003
2.727874e+002, 3.388798e+003
2.732696e+002, 3.389341e+003
2.737517e+002, 3.390229e+003
2.742338e+002, 3.392266e+003
2.747159e+002, 3.396304e+003
2.751980e+002, 3.400757e+003
2.756801e+002, 3.401033e+003
2.761623e+002, 3.396082e+003
2.766444e+002, 3.391771e+003
2.771265e+002, 3.391752e+003
2.776086e+002, 3.396477e+003
2.780907e+002, 3.399444e+003
2.785728e+002, 3.399960e+003
2.790550e+002, 3.399597e+003
2.795371e+002, 3.401177e+003
2.800192e+002, 3.404879e+003
2.805013e+002, 3.409061e+003
2.809834e+002, 3.413471e+003
2.814655e+002, 3.418052e+003
2.819477e+002, 3.420575e+003
2.824298e+002, 3.420351e+003
2.829119e+002, 3.419691e+003
2.833940e+002, 3.422523e+003
2.838761e+002, 3.428916e+003
2.843582e+002, 3.434005e+003
2.848404e+002, 3.434666e+003
2.853225e+002, 3.432017e+003
2.858046e+002, 3.433888e+003
2.862867e+002, 3.441037e+003
2.867688e+002, 3.448913e+003
2.872509e+002, 3.452283e+003
2.877331e+002, 3.451399e+003
2.882152e+002, 3.449628e+003
2.886973e+002, 3.447723e+003
2.891794e+002, 3.445825e+003
2.896615e+002, 3.444448e+003
2.901436e+002, 3.443655e+003
2.906258e+002, 3.443080e+003
2.911079e+002, 3.441936e+003
2.915900e+002, 3.440568e+003
2.920721e+002, 3.440872e+003
2.925542e+002, 3.444142e+003
2.930363e+002, 3.448701e+003
2.935185e+002, 3.450726e+003
2.940006e+002, 3.450283e+003
2.944827e+002, 3.449718e+003
2.949648e+002, 3.450848e+003
2.954469e+002, 3.453297e+003
2.959290e+002, 3.455878e+003
2.964112e+002, 3.458343e+003
2.968933e+002, 3.460845e+003
2.973754e+002, 3.463866e+003
2.978575e+002, 3.467225e+003
2.983396e+002, 3.470052e+003
2.988217e+002, 3.471108e+003
2.993039e+002, 3.471256e+003
2.997860e+002, 3.472194e+003
3.002681e+002, 3.474168e+003
3.007502e+002, 3.476804e+003
3.012323e+002, 3.480375e+003
3.017144e+002, 3.484439e+003
3.021966e+002, 3.487324e+003
3.026787e+002, 3.486747e+003
3.031608e+002, 3.485043e+003
3.036429e+002, 3.485885e+003
3.041250e+002, 3.489890e+003
3.046071e+002, 3.493929e+003
3.050893e+002, 3.494473e+003
3.055714e+002, 3.492937e+003
3.060535e+002, 3.492253e+003
3.065356e+002, 3.495257e+003
3.070177e+002, 3.498824e+003
3.074998e+002, 3.499364e+003
3.079820e+002, 3.496789e+003
3.084641e+002, 3.494468e+003
3.089462e+002, 3.495111e+003
3.094283e+002, 3.497441e+003
3.099104e+002, 3.499719e+003
3.103925e+002, 3.501792e+003
3.108747e+002, 3.503257e+003
3.113568e+002, 3.503440e+003
3.118389e+002, 3.502545e+003
3.123210e+002, 3.501919e+003
3.128031e+002, 3.501964e+003
3.132852e+002, 3.502804e+003
3.137674e+002, 3.504537e+003
3.142495e+002, 3.506969e+003
3.147316e+002, 3.510548e+003
3.152137e+002, 3.516545e+003
3.156958e+002, 3.524094e+003
3.161779e+002, 3.530311e+003
3.166601e+002, 3.533518e+003
3.171422e+002, 3.535243e+003
3.176243e+002, 3.536192e+003
3.181064e+002, 3.535741e+003
3.185885e+002, 3.536001e+003
3.190706e+002, 3.537534e+003
3.195528e+002, 3.540230e+003
3.200349e+002, 3.543897e+003
3.205170e+002, 3.551265e+003
3.209991e+002, 3.557275e+003
3.214812e+002, 3.559007e+003
3.219633e+002, 3.554687e+003
3.224455e+002, 3.551786e+003
3.229276e+002, 3.552242e+003
3.234097e+002, 3.554753e+003
3.238918e+002, 3.557721e+003
3.243739e+002, 3.562352e+003
3.248560e+002, 3.566047e+003
3.253382e+002, 3.567451e+003
3.258203e+002, 3.566145e+003
3.263024e+002, 3.566761e+003
3.267845e+002, 3.572806e+003
3.272666e+002, 3.579231e+003
3.277487e+002, 3.582011e+003
3.282309e+002, 3.577325e+003
3.287130e+002, 3.573423e+003
3.291951e+002, 3.570861e+003
3.296772e+002, 3.569642e+003
3.301593e+002, 3.569906e+003
3.306414e+002, 3.573332e+003
3.311236e+002, 3.576602e+003
3.316057e+002, 3.577664e+003
3.320878e+002, 3.573587e+003
3.325699e+002, 3.572669e+003
3.330520e+002, 3.577241e+003
3.335341e+002, 3.584694e+003
3.340163e+002, 3.587194e+003
3.344984e+002, 3.580873e+003
3.349805e+002, 3.576012e+003
3.354626e+002, 3.577892e+003
3.359447e+002, 3.589587e+003
3.364268e+002, 3.595909e+003
3.369090e+002, 3.595374e+003
3.373911e+002, 3.591124e+003
3.378732e+002, 3.587734e+003
3.383553e+002, 3.585043e+003
3.388374e+002, 3.584005e+003
3.393195e+002, 3.585735e+003
3.398017e+002, 3.590076e+003
3.402838e+002, 3.591664e+003
3.407659e+002, 3.589829e+003
3.412480e+002, 3.587055e+003
3.417301e+002, 3.586163e+003
3.422122e+002, 3.587334e+003
3.426944e+002, 3.587497e+003
3.431765e+002, 3.585154e+003
3.436586e+002, 3.581659e+003
3.441407e+002, 3.582397e+003
3.446228e+002, 3.587683e+003
3.451049e+002, 3.593230e+003
3.455871e+002, 3.595234e+003
3.460692e+002, 3.594283e+003
3.465513e+002, 3.594262e+003
3.470334e+002, 3.595708e+003
3.475155e+002, 3.598203e+003
3.479977e+002, 3.602163e+003
3.484798e+002, 3.607231e+003
3.489619e+002, 3.610173e+003
3.494440e+002, 3.607121e+003
3.499261e+002, 3.600828e+003
3.504082e+002, 3.597332e+003
3.508904e+002, 3.597032e+003
3.513725e+002, 3.599345e+003
3.518546e+002, 3.605731e+003
3.523367e+002, 3.614486e+003
3.528188e+002, 3.621187e+003
3.533009e+002, 3.623073e+003
3.537831e+002, 3.622321e+003
3.542652e+002, 3.620587e+003
3.547473e+002, 3.617977e+003
3.552294e+002, 3.616536e+003
3.557115e+002, 3.619409e+003
3.561936e+002, 3.623849e+003
3.566758e+002, 3.626049e+003
3.571579e+002, 3.622962e+003
3.576400e+002, 3.619849e+003
3.581221e+002, 3.621232e+003
3.586042e+002, 3.625987e+003
3.590863e+002, 3.630057e+003
3.595685e+002, 3.630051e+003
3.600506e+002, 3.629464e+003
3.605327e+002, 3.631119e+003
3.610148e+002, 3.636353e+003
3.614969e+002, 3.641583e+003
3.619790e+002, 3.645669e+003
3.624612e+002, 3.648723e+003
3.629433e+002, 3.651000e+003
3.634254e+002, 3.651103e+003
3.639075e+002, 3.651688e+003
3.643896e+002, 3.654526e+003
3.648717e+002, 3.660241e+003
3.653539e+002, 3.663872e+003
3.658360e+002, 3.661887e+003
3.663181e+002, 3.658533e+003
3.668002e+002, 3.657663e+003
3.672823e+002, 3.662625e+003
3.677644e+002, 3.666804e+003
3.682466e+002, 3.668460e+003
3.687287e+002, 3.667912e+003
3.692108e+002, 3.669036e+003
3.696929e+002, 3.673638e+003
3.701750e+002, 3.678368e+003
3.706571e+002, 3.681502e+003
3.711393e+002, 3.682340e+003
3.716214e+002, 3.682893e+003
3.721035e+002, 3.683062e+003
3.725856e+002, 3.683044e+003
3.730677e+002, 3.683086e+003
3.735498e+002, 3.682583e+003
3.740320e+002, 3.683394e+003
3.745141e+002, 3.686789e+003
3.749962e+002, 3.693292e+003
3.754783e+002, 3.697519e+003
3.759604e+002, 3.698782e+003
3.764425e+002, 3.698846e+003
3.769247e+002, 3.699911e+003
3.774068e+002, 3.702217e+003
3.778889e+002, 3.703894e+003
3.783710e+002, 3.704186e+003
3.788531e+002, 3.703520e+003
3.793352e+002, 3.703847e+003
3.798174e+002, 3.705281e+003
3.802995e+002, 3.706875e+003
3.807816e+002, 3.707196e+003
3.812637e+002, 3.706619e+003
3.817458e+002, 3.708633e+003
3.822279e+002, 3.714508e+003
3.827101e+002, 3.721585e+003
3.831922e+002, 3.725380e+003
3.836743e+002, 3.726334e+003
3.841564e+002, 3.727205e+003
3.846385e+002, 3.730161e+003
3.851206e+002, 3.733967e+003
3.856028e+002, 3.735868e+003
3.860849e+002, 3.735623e+003
3.865670e+002, 3.735000e+003
3.870491e+002, 3.735215e+003
3.875312e+002, 3.736273e+003
3.880133e+002, 3.738201e+003
3.884955e+002, 3.741471e+003
3.889776e+002, 3.745199e+003
3.894597e+002, 3.749040e+003
3.899418e+002, 3.752804e+003
3.904239e+002, 3.755421e+003
3.909060e+002, 3.753623e+003
3.913882e+002, 3.751732e+003
3.918703e+002, 3.754536e+003
3.923524e+002, 3.766360e+003
3.928345e+002, 3.775885e+003
3.933166e+002, 3.774413e+003
3.937987e+002, 3.766937e+003
3.942809e+002, 3.763496e+003
3.947630e+002, 3.772485e+003
3.952451e+002, 3.781778e+003
3.957272e+002, 3.784989e+003
3.962093e+002, 3.780122e+003
3.966914e+002, 3.778681e+003
3.971736e+002, 3.786773e+003
3.976557e+002, 3.797420e+003
3.981378e+002, 3.804226e+003
3.986199e+002, 3.802376e+003
3.991020e+002, 3.801189e+003
3.995841e+002, 3.802371e+003
4.000663e+002, 3.805421e+003
4.005484e+002, 3.806927e+003
4.010305e+002, 3.804597e+003
4.015126e+002, 3.803215e+003
4.019947e+002, 3.805650e+003
4.024768e+002, 3.815137e+003
4.029590e+002, 3.820714e+003
4.034411e+002, 3.821310e+003
4.039232e+002, 3.818904e+003
4.044053e+002, 3.816722e+003
4.048874e+002, 3.814712e+003
4.053695e+002, 3.813266e+003
4.058517e+002, 3.812332e+003
4.063338e+002, 3.812012e+003
4.068159e+002, 3.813511e+003
4.072980e+002, 3.817144e+003
4.077801e+002, 3.821608e+003
4.082622e+002, 3.825997e+003
4.087444e+002, 3.830280e+003
4.092265e+002, 3.833242e+003
4.097086e+002, 3.833873e+003
4.101907e+002, 3.833998e+003
4.106728e+002, 3.838456e+003
4.111549e+002, 3.846761e+003
4.116371e+002, 3.853769e+003
4.121192e+002, 3.854691e+003
4.126013e+002, 3.852180e+003
4.130834e+002, 3.852211e+003
4.135655e+002, 3.855423e+003
4.140476e+002, 3.859467e+003
4.145298e+002, 3.862208e+003
4.150119e+002, 3.864102e+003
4.154940e+002, 3.866162e+003
4.159761e+002, 3.869863e+003
4.164582e+002, 3.873080e+003
4.169403e+002, 3.872802e+003
4.174225e+002, 3.869761e+003
4.179046e+002, 3.868369e+003
4.183867e+002, 3.873350e+003
4.188688e+002, 3.879919e+003
4.193509e+002, 3.883950e+003
4.198330e+002, 3.883835e+003
4.203152e+002, 3.883048e+003
4.207973e+002, 3.882696e+003
4.212794e+002, 3.882645e+003
4.217615e+002, 3.882625e+003
4.222436e+002, 3.881553e+003
4.227257e+002, 3.881517e+003
4.232079e+002, 3.883608e+003
4.236900e+002, 3.888179e+003
4.241721e+002, 3.892433e+003
4.246542e+002, 3.895543e+003
4.251363e+002, 3.898652e+003
4.256184e+002, 3.902751e+003
4.261006e+002, 3.909686e+003
4.265827e+002, 3.914458e+003
4.270648e+002, 3.915559e+003
4.275469e+002, 3.914207e+003
4.280290e+002, 3.914734e+003
4.285111e+002, 3.917710e+003
4.289933e+002, 3.921279e+003
4.294754e+002, 3.924985e+003
4.299575e+002, 3.929085e+003
4.304396e+002, 3.930481e+003
4.309217e+002, 3.928045e+003
4.314038e+002, 3.925193e+003
4.318860e+002, 3.927301e+003
4.323681e+002, 3.934635e+003
4.328502e+002, 3.939799e+003
4.333323e+002, 3.940402e+003
4.338144e+002, 3.937936e+003
4.342965e+002, 3.935451e+003
4.347787e+002, 3.933034e+003
4.352608e+002, 3.932648e+003
4.357429e+002, 3.937899e+003
4.362250e+002, 3.946216e+003
4.367071e+002, 3.950645e+003
4.371892e+002, 3.949812e+003
4.376714e+002, 3.947696e+003
4.381535e+002, 3.947772e+003
4.386356e+002, 3.949811e+003
4.391177e+002, 3.953299e+003
4.395998e+002, 3.960367e+003
4.400819e+002, 3.967080e+003
4.405641e+002, 3.969128e+003
4.410462e+002, 3.966910e+003
4.415283e+002, 3.965298e+003
4.420104e+002, 3.967203e+003
4.424925e+002, 3.970642e+003
4.429746e+002, 3.973915e+003
4.434568e+002, 3.976323e+003
4.439389e+002, 3.979070e+003
4.444210e+002, 3.982535e+003
4.449031e+002, 3.986560e+003
4.453852e+002, 3.990885e+003
4.458673e+002, 3.996754e+003
4.463495e+002, 4.001655e+003
4.468316e+002, 4.004613e+003
4.473137e+002, 4.005340e+003
4.477958e+002, 4.006343e+003
4.482779e+002, 4.007567e+003
4.487600e+002, 4.009204e+003
4.492422e+002, 4.011460e+003
4.497243e+002, 4.014764e+003
4.502064e+002, 4.018015e+003
4.506885e+002, 4.021629e+003
4.511706e+002, 4.024975e+003
4.516527e+002, 4.025778e+003
4.521349e+002, 4.023119e+003
4.526170e+002, 4.021102e+003
4.530991e+002, 4.021644e+003
4.535812e+002, 4.024647e+003
4.540633e+002, 4.027937e+003
4.545454e+002, 4.031565e+003
4.550276e+002, 4.035185e+003
4.555097e+002, 4.038441e+003
4.559918e+002, 4.041347e+003
4.564739e+002, 4.043884e+003
4.569560e+002, 4.046009e+003
4.574381e+002, 4.047850e+003
4.579203e+002, 4.049440e+003
4.584024e+002, 4.050873e+003
4.588845e+002, 4.052620e+003
4.593666e+002, 4.054877e+003
4.598488e+002, 4.057660e+003
4.603309e+002, 4.061286e+003
4.608130e+002, 4.065883e+003
4.612951e+002, 4.070021e+003
4.617772e+002, 4.073122e+003
4.622593e+002, 4.075019e+003
4.627415e+002, 4.075427e+003
4.632236e+002, 4.072122e+003
4.637057e+002, 4.069540e+003
4.641878e+002, 4.069701e+003
4.646699e+002, 4.072085e+003
4.651520e+002, 4.074868e+003
4.656342e+002, 4.078261e+003
4.661163e+002, 4.081369e+003
4.665984e+002, 4.083690e+003
4.670805e+002, 4.084661e+003
4.675626e+002, 4.086417e+003
4.680447e+002, 4.090182e+003
4.685269e+002, 4.094033e+003
4.690090e+002, 4.095744e+003
4.694911e+002, 4.092867e+003
4.699732e+002, 4.092633e+003
4.704553e+002, 4.097158e+003
4.709374e+002, 4.105013e+003
4.714196e+002, 4.109896e+003
4.719017e+002, 4.110898e+003
4.723838e+002, 4.111461e+003
4.728659e+002, 4.113631e+003
4.733480e+002, 4.117382e+003
4.738301e+002, 4.119766e+003
4.743123e+002, 4.120330e+003
4.747944e+002, 4.120980e+003
4.752765e+002, 4.124618e+003
4.757586e+002, 4.130620e+003
4.762407e+002, 4.135943e+003
4.767228e+002, 4.140151e+003
4.772050e+002, 4.142708e+003
4.776871e+002, 4.141535e+003
4.781692e+002, 4.137452e+003
4.786513e+002, 4.134354e+003
4.791334e+002, 4.135305e+003
4.796155e+002, 4.138267e+003
4.800977e+002, 4.141492e+003
4.805798e+002, 4.144986e+003
4.810619e+002, 4.147565e+003
4.815440e+002, 4.146606e+003
4.820261e+002, 4.145056e+003
4.825082e+002, 4.146321e+003
4.829904e+002, 4.155659e+003
4.834725e+002, 4.163533e+003
4.839546e+002, 4.165932e+003
4.844367e+002, 4.164089e+003
4.849188e+002, 4.163512e+003
4.854009e+002, 4.165294e+003
4.858831e+002, 4.168162e+003
4.863652e+002, 4.171847e+003
4.868473e+002, 4.176765e+003
4.873294e+002, 4.180559e+003
4.878115e+002, 4.182780e+003
4.882936e+002, 4.184153e+003
4.887758e+002, 4.185308e+003
4.892579e+002, 4.185974e+003
4.897400e+002, 4.187189e+003
4.902221e+002, 4.189375e+003
4.907042e+002, 4.192021e+003
4.911863e+002, 4.192924e+003
4.916685e+002, 4.191786e+003
4.921506e+002, 4.192149e+003
4.926327e+002, 4.198188e+003
4.931148e+002, 4.207997e+003
4.935969e+002, 4.211057e+003
4.940790e+002, 4.206777e+003
4.945612e+002, 4.201637e+003
4.950433e+002, 4.202425e+003
4.955254e+002, 4.207167e+003
4.960075e+002, 4.211556e+003
4.964896e+002, 4.214373e+003
4.969717e+002, 4.216511e+003
4.974539e+002, 4.218012e+003
4.979360e+002, 4.219392e+003
4.984181e+002, 4.221907e+003
4.989002e+002, 4.227260e+003
4.993823e+002, 4.233052e+003
4.998644e+002, 4.238132e+003
5.003466e+002, 4.242451e+003
5.008287e+002, 4.245065e+003
5.013108e+002, 4.242120e+003
5.017929e+002, 4.239302e+003
5.022750e+002, 4.240918e+003
5.027571e+002, 4.254017e+003
5.032393e+002, 4.263111e+003
5.037214e+002, 4.265515e+003
5.042035e+002, 4.263952e+003
5.046856e+002, 4.264323e+003
5.051677e+002, 4.268131e+003
5.056498e+002, 4.271069e+003
5.061320e+002, 4.271413e+003
5.066141e+002, 4.269356e+003
5.070962e+002, 4.269478e+003
5.075783e+002, 4.272384e+003
5.080604e+002, 4.275693e+003
5.085425e+002, 4.277583e+003
5.090247e+002, 4.278175e+003
5.095068e+002, 4.278213e+003
5.099889e+002, 4.277651e+003
5.104710e+002, 4.277133e+003
5.109531e+002, 4.276709e+003
5.114352e+002, 4.276896e+003
5.119174e+002, 4.279592e+003
5.123995e+002, 4.288532e+003
5.128816e+002, 4.298409e+003
5.133637e+002, 4.302610e+003
5.138458e+002, 4.301854e+003
5.143279e+002, 4.300663e+003
5.148101e+002, 4.301304e+003
5.152922e+002, 4.302735e+003
5.157743e+002, 4.303902e+003
5.162564e+002, 4.304180e+003
5.167385e+002, 4.305627e+003
5.172206e+002, 4.310417e+003
5.177028e+002, 4.316114e+003
5.181849e+002, 4.319938e+003
5.186670e+002, 4.319308e+003
5.191491e+002, 4.319306e+003
5.196312e+002, 4.321373e+003
5.201133e+002, 4.324842e+003
5.205955e+002, 4.326731e+003
5.210776e+002, 4.326250e+003
5.215597e+002, 4.325693e+003
5.220418e+002, 4.325919e+003
5.225239e+002, 4.326984e+003
5.230060e+002, 4.329369e+003
5.234882e+002, 4.333481e+003
5.239703e+002, 4.338048e+003
5.244524e+002, 4.341792e+003
5.249345e+002, 4.344747e+003
5.254166e+002, 4.347592e+003
5.258987e+002, 4.350650e+003
5.263809e+002, 4.353238e+003
5.268630e+002, 4.353268e+003
5.273451e+002, 4.351532e+003
5.278272e+002, 4.351415e+003
5.283093e+002, 4.356307e+003
5.287914e+002, 4.362582e+003
5.292736e+002, 4.366024e+003
5.297557e+002, 4.366700e+003
5.302378e+002, 4.367171e+003
5.307199e+002, 4.367584e+003
5.312020e+002, 4.369139e+003
5.316841e+002, 4.373464e+003
5.321663e+002, 4.383631e+003
5.326484e+002, 4.390384e+003
5.331305e+002, 4.388232e+003
5.336126e+002, 4.382340e+003
5.340947e+002, 4.380119e+003
5.345768e+002, 4.385272e+003
5.350590e+002, 4.390559e+003
5.355411e+002, 4.395712e+003
5.360232e+002, 4.400435e+003
5.365053e+002, 4.402130e+003
5.369874e+002, 4.399798e+003
5.374695e+002, 4.396868e+003
5.379517e+002, 4.394568e+003
5.384338e+002, 4.392815e+003
5.389159e+002, 4.394118e+003
5.393980e+002, 4.399034e+003
5.398801e+002, 4.404742e+003
5.403622e+002, 4.407878e+003
5.408444e+002, 4.408900e+003
5.413265e+002, 4.410220e+003
5.418086e+002, 4.412553e+003
5.422907e+002, 4.414941e+003
5.427728e+002, 4.415505e+003
5.432549e+002, 4.414990e+003
5.437371e+002, 4.415573e+003
5.442192e+002, 4.420208e+003
5.447013e+002, 4.424956e+003
5.451834e+002, 4.426022e+003
5.456655e+002, 4.423650e+003
5.461476e+002, 4.422664e+003
5.466298e+002, 4.426125e+003
5.471119e+002, 4.431022e+003
5.475940e+002, 4.435438e+003
5.480761e+002, 4.439009e+003
5.485582e+002, 4.442481e+003
5.490403e+002, 4.447131e+003
5.495225e+002, 4.451209e+003
5.500046e+002, 4.452202e+003
5.504867e+002, 4.447690e+003
5.509688e+002, 4.445014e+003
5.514509e+002, 4.445691e+003
5.519330e+002, 4.448972e+003
5.524152e+002, 4.452326e+003
5.528973e+002, 4.455749e+003
5.533794e+002, 4.459023e+003
5.538615e+002, 4.461984e+003
5.543436e+002, 4.464627e+003
5.548257e+002, 4.467100e+003
5.553079e+002, 4.469356e+003
5.557900e+002, 4.471425e+003
5.562721e+002, 4.474017e+003
5.567542e+002, 4.476295e+003
5.572363e+002, 4.475988e+003
5.577184e+002, 4.471240e+003
5.582006e+002, 4.467960e+003
5.586827e+002, 4.472450e+003
5.591648e+002, 4.481322e+003
5.596469e+002, 4.488917e+003
5.601290e+002, 4.494880e+003
5.606111e+002, 4.497437e+003
5.610933e+002, 4.492951e+003
5.615754e+002, 4.483033e+003
5.620575e+002, 4.478161e+003
5.625396e+002, 4.483934e+003
5.630217e+002, 4.491248e+003
5.635038e+002, 4.497192e+003
5.639860e+002, 4.502072e+003
5.644681e+002, 4.503617e+003
5.649502e+002, 4.500055e+003
5.654323e+002, 4.495872e+003
5.659144e+002, 4.495735e+003
5.663965e+002, 4.499977e+003
5.668787e+002, 4.504441e+003
5.673608e+002, 4.508948e+003
5.678429e+002, 4.512659e+003
5.683250e+002, 4.513235e+003
5.688071e+002, 4.511272e+003
5.692892e+002, 4.509868e+003
5.697714e+002, 4.510484e+003
5.702535e+002, 4.512382e+003
5.707356e+002, 4.514434e+003
5.712177e+002, 4.516789e+003
5.716998e+002, 4.520147e+003
5.721819e+002, 4.527490e+003
5.726641e+002, 4.534300e+003
5.731462e+002, 4.535968e+003
5.736283e+002, 4.530562e+003
5.741104e+002, 4.527581e+003
5.745925e+002, 4.532715e+003
5.750746e+002, 4.539967e+003
5.755568e+002, 4.543926e+003
5.760389e+002, 4.540698e+003
5.765210e+002, 4.538807e+003
5.770031e+002, 4.538920e+003
5.774852e+002, 4.540431e+003
5.779673e+002, 4.542291e+003
5.784495e+002, 4.544889e+003
5.789316e+002, 4.546742e+003
5.794137e+002, 4.546980e+003
5.798958e+002, 4.546259e+003
5.803779e+002, 4.547868e+003
5.808600e+002, 4.551954e+003
5.813422e+002, 4.555484e+003
5.818243e+002, 4.555962e+003
5.823064e+002, 4.554453e+003
5.827885e+002, 4.552592e+003
5.832706e+002, 4.550333e+003
5.837527e+002, 4.550211e+003
5.842349e+002, 4.556807e+003
5.847170e+002, 4.565725e+003
5.851991e+002, 4.571377e+003
5.856812e+002, 4.571108e+003
5.861633e+002, 4.569400e+003
5.866454e+002, 4.566682e+003
5.871276e+002, 4.563958e+003
5.876097e+002, 4.563122e+003
5.880918e+002, 4.567623e+003
5.885739e+002, 4.570455e+003
5.890560e+002, 4.569116e+003
5.895381e+002, 4.564422e+003
5.900203e+002, 4.562476e+003
5.905024e+002, 4.564275e+003
5.909845e+002, 4.566967e+003
5.914666e+002, 4.569819e+003
5.919487e+002, 4.572933e+003
5.924308e+002, 4.572775e+003
5.929130e+002, 4.568738e+003
5.933951e+002, 4.564940e+003
5.938772e+002, 4.565885e+003
5.943593e+002, 4.570487e+003
5.948414e+002, 4.575279e+003
5.953235e+002, 4.579698e+003
5.958057e+002, 4.583897e+003
5.962878e+002, 4.588975e+003
5.967699e+002, 4.593808e+003
5.972520e+002, 4.596243e+003
5.977341e+002, 4.592469e+003
5.982162e+002, 4.588916e+003
5.986984e+002, 4.588836e+003
5.991805e+002, 4.591570e+003
5.996626e+002, 4.594627e+003
6.001447e+002, 4.598721e+003
6.006268e+002, 4.601713e+003
6.011089e+002, 4.602329e+003
6.015911e+002, 4.600278e+003
6.020732e+002, 4.599456e+003
6.025553e+002, 4.600157e+003
6.030374e+002, 4.601650e+003
6.035195e+002, 4.603306e+003
6.040016e+002, 4.605044e+003
6.044838e+002, 4.608555e+003
6.049659e+002, 4.614521e+003
6.054480e+002, 4.620298e+003
6.059301e+002, 4.621461e+003
6.064122e+002, 4.619240e+003
6.068943e+002, 4.618869e+003
6.073765e+002, 4.622796e+003
6.078586e+002, 4.627384e+003
6.083407e+002, 4.628118e+003
6.088228e+002, 4.626279e+003
6.093049e+002, 4.624996e+003
6.097870e+002, 4.625972e+003
6.102692e+002, 4.627605e+003
6.107513e+002, 4.629138e+003
6.112334e+002, 4.630544e+003
6.117155e+002, 4.631990e+003
6.121976e+002, 4.634180e+003
6.126797e+002, 4.635844e+003
6.131619e+002, 4.636132e+003
6.136440e+002, 4.634409e+003
6.141261e+002, 4.634664e+003
6.146082e+002, 4.638217e+003
6.150903e+002, 4.641739e+003
6.155724e+002, 4.641633e+003
6.160546e+002, 4.637729e+003
6.165367e+002, 4.635300e+003
6.170188e+002, 4.635057e+003
6.175009e+002, 4.636300e+003
6.179830e+002, 4.638721e+003
6.184651e+002, 4.641885e+003
6.189473e+002, 4.644157e+003
6.194294e+002, 4.643611e+003
6.199115e+002, 4.643424e+003
6.203936e+002, 4.648548e+003
6.208757e+002, 4.656824e+003
6.213578e+002, 4.661920e+003
6.218400e+002, 4.657472e+003
6.223221e+002, 4.652263e+003
6.228042e+002, 4.650806e+003
6.232863e+002, 4.653368e+003
6.237684e+002, 4.656140e+003
6.242505e+002, 4.658000e+003
6.247327e+002, 4.660750e+003
6.252148e+002, 4.665966e+003
6.256969e+002, 4.675360e+003
6.261790e+002, 4.679877e+003
6.266611e+002, 4.678171e+003
6.271432e+002, 4.674391e+003
6.276254e+002, 4.672627e+003
6.281075e+002, 4.672792e+003
6.285896e+002, 4.673644e+003
6.290717e+002, 4.675115e+003
6.295538e+002, 4.676710e+003
6.300359e+002, 4.677193e+003
6.305181e+002, 4.677219e+003
6.310002e+002, 4.678522e+003
6.314823e+002, 4.683103e+003
6.319644e+002, 4.687862e+003
6.324465e+002, 4.691003e+003
6.329286e+002, 4.692569e+003
6.334108e+002, 4.692690e+003
6.338929e+002, 4.689035e+003
6.343750e+002, 4.686178e+003
6.348571e+002, 4.686339e+003
6.353392e+002, 4.689742e+003
6.358214e+002, 4.692788e+003
6.363035e+002, 4.696165e+003
6.367856e+002, 4.698364e+003
6.372677e+002, 4.698120e+003
6.377498e+002, 4.694997e+003
6.382319e+002, 4.693360e+003
6.387141e+002, 4.693518e+003
6.391962e+002, 4.694154e+003
6.396783e+002, 4.693478e+003
6.401604e+002, 4.692052e+003
6.406425e+002, 4.692062e+003
6.411246e+002, 4.694096e+003
6.416068e+002, 4.697069e+003
6.420889e+002, 4.700583e+003
6.425710e+002, 4.704135e+003
6.430531e+002, 4.706787e+003
6.435352e+002, 4.707119e+003
6.440173e+002, 4.707559e+003
6.444995e+002, 4.709071e+003
6.449816e+002, 4.711409e+003
6.454637e+002, 4.713959e+003
6.459458e+002, 4.716881e+003
6.464279e+002, 4.719576e+003
6.469100e+002, 4.721548e+003
6.473922e+002, 4.722938e+003
6.478743e+002, 4.725880e+003
6.483564e+002, 4.731170e+003
6.488385e+002, 4.735636e+003
6.493206e+002, 4.736713e+003
6.498027e+002, 4.734914e+003
6.502849e+002, 4.734836e+003
6.507670e+002, 4.736533e+003
6.512491e+002, 4.739303e+003
6.517312e+002, 4.743517e+003
6.522133e+002, 4.748055e+003
6.526954e+002, 4.751032e+003
6.531776e+002, 4.751865e+003
6.536597e+002, 4.752143e+003
6.541418e+002, 4.752326e+003
6.546239e+002, 4.752737e+003
6.551060e+002, 4.753753e+003
6.555881e+002, 4.755101e+003
6.560703e+002, 4.757531e+003
6.565524e+002, 4.762688e+003
6.570345e+002, 4.768583e+003
6.575166e+002, 4.771450e+003
6.579987e+002, 4.770123e+003
6.584808e+002, 4.768740e+003
6.589630e+002, 4.768245e+003
6.594451e+002, 4.768363e+003
6.599272e+002, 4.767724e+003
6.604093e+002, 4.766329e+003
6.608914e+002, 4.766271e+003
6.613735e+002, 4.770434e+003
6.618557e+002, 4.776079e+003
6.623378e+002, 4.777499e+003
6.628199e+002, 4.775177e+003
6.633020e+002, 4.773355e+003
6.637841e+002, 4.776135e+003
6.642662e+002, 4.779636e+003
6.647484e+002, 4.779940e+003
6.652305e+002, 4.775741e+003
6.657126e+002, 4.774368e+003
6.661947e+002, 4.780476e+003
6.666768e+002, 4.788090e+003
6.671589e+002, 4.792842e+003
6.676411e+002, 4.792861e+003
6.681232e+002, 4.794091e+003
6.686053e+002, 4.797256e+003
6.690874e+002, 4.800499e+003
6.695695e+002, 4.800198e+003
6.700516e+002, 4.796368e+003
6.705338e+002, 4.797233e+003
6.710159e+002, 4.805807e+003
6.714980e+002, 4.816378e+003
6.719801e+002, 4.820108e+003
6.724622e+002, 4.818814e+003
6.729443e+002, 4.817384e+003
6.734265e+002, 4.817767e+003
6.739086e+002, 4.818888e+003
6.743907e+002, 4.820062e+003
6.748728e+002, 4.821441e+003
6.753549e+002, 4.823385e+003
6.758370e+002, 4.827756e+003
6.763192e+002, 4.831042e+003
6.768013e+002, 4.830468e+003
6.772834e+002, 4.826683e+003
6.777655e+002, 4.828428e+003
6.782476e+002, 4.838732e+003
6.787297e+002, 4.848318e+003
6.792119e+002, 4.852087e+003
6.796940e+002, 4.850339e+003
6.801761e+002, 4.848013e+003
6.806582e+002, 4.844905e+003
6.811403e+002, 4.843310e+003
6.816224e+002, 4.846299e+003
6.821046e+002, 4.851842e+003
6.825867e+002, 4.856079e+003
6.830688e+002, 4.858468e+003
6.835509e+002, 4.860195e+003
6.840330e+002, 4.861575e+003
6.845151e+002, 4.862964e+003
6.849973e+002, 4.864769e+003
6.854794e+002, 4.867443e+003
6.859615e+002, 4.869927e+003
6.864436e+002, 4.871745e+003
6.869257e+002, 4.873487e+003
6.874078e+002, 4.876124e+003
6.878900e+002, 4.880823e+003
6.883721e+002, 4.883102e+003
6.888542e+002, 4.881225e+003
6.893363e+002, 4.878015e+003
6.898184e+002, 4.880432e+003
6.903005e+002, 4.887909e+003
6.907827e+002, 4.893212e+003
6.912648e+002, 4.892290e+003
6.917469e+002, 4.888980e+003
6.922290e+002, 4.888729e+003
6.927111e+002, 4.890761e+003
6.931932e+002, 4.892656e+003
6.936754e+002, 4.890868e+003
6.941575e+002, 4.890581e+003
6.946396e+002, 4.896765e+003
6.951217e+002, 4.908620e+003
6.956038e+002, 4.915852e+003
6.960859e+002, 4.912386e+003
6.965681e+002, 4.908537e+003
6.970502e+002, 4.908205e+003
6.975323e+002, 4.911560e+003
6.980144e+002, 4.914391e+003
6.984965e+002, 4.916930e+003
6.989786e+002, 4.918221e+003
6.994608e+002, 4.915818e+003
6.999429e+002, 4.911258e+003
7.004250e+002, 4.912573e+003
7.009071e+002, 4.920557e+003
7.013892e+002, 4.928596e+003
7.018713e+002, 4.930212e+003
7.023535e+002, 4.928829e+003
7.028356e+002, 4.928667e+003
7.033177e+002, 4.930854e+003
7.037998e+002, 4.933417e+003
7.042819e+002, 4.935982e+003
7.047640e+002, 4.938345e+003
7.052462e+002, 4.940275e+003
7.057283e+002, 4.941699e+003
7.062104e+002, 4.942636e+003
7.066925e+002, 4.942628e+003
7.071746e+002, 4.942515e+003
7.076567e+002, 4.943643e+003
7.081389e+002, 4.946045e+003
7.086210e+002, 4.949057e+003
7.091031e+002, 4.952729e+003
7.095852e+002, 4.956593e+003
7.100673e+002, 4.960140e+003
7.105494e+002, 4.963263e+003
7.110316e+002, 4.965728e+003
7.115137e+002, 4.967437e+003
7.119958e+002, 4.968429e+003
7.124779e+002, 4.967878e+003
7.129600e+002, 4.966549e+003
7.134421e+002, 4.966757e+003
7.139243e+002, 4.970159e+003
7.144064e+002, 4.974146e+003
7.148885e+002, 4.978488e+003
7.153706e+002, 4.982953e+003
7.158527e+002, 4.985137e+003
7.163348e+002, 4.984183e+003
7.168170e+002, 4.983445e+003
7.172991e+002, 4.984310e+003
7.177812e+002, 4.986701e+003
7.182633e+002, 4.990587e+003
7.187454e+002, 4.995968e+003
7.192275e+002, 5.001430e+003
7.197097e+002, 5.005966e+003
7.201918e+002, 5.010133e+003
7.206739e+002, 5.015144e+003
7.211560e+002, 5.021063e+003
7.216381e+002, 5.025624e+003
7.221202e+002, 5.026043e+003
7.226024e+002, 5.025939e+003
7.230845e+002, 5.027887e+003
7.235666e+002, 5.032906e+003
7.240487e+002, 5.037457e+003
7.245308e+002, 5.040911e+003
7.250129e+002, 5.044852e+003
7.254951e+002, 5.050933e+003
7.259772e+002, 5.059357e+003
7.264593e+002, 5.067028e+003
7.269414e+002, 5.073679e+003
7.274235e+002, 5.079708e+003
7.279056e+002, 5.085132e+003
7.283878e+002, 5.090295e+003
7.288699e+002, 5.095976e+003
7.293520e+002, 5.102466e+003
7.298341e+002, 5.109225e+003
7.303162e+002, 5.115953e+003
7.307983e+002, 5.122704e+003
7.312805e+002, 5.129640e+003
7.317626e+002, 5.138774e+003
7.322447e+002, 5.145414e+003
7.327268e+002, 5.147477e+003
7.332089e+002, 5.147807e+003
7.336910e+002, 5.151310e+003
7.341732e+002, 5.158825e+003
7.346553e+002, 5.165907e+003
7.351374e+002, 5.171438e+003
7.356195e+002, 5.176283e+003
7.361016e+002, 5.182742e+003
7.365837e+002, 5.190146e+003
7.370659e+002, 5.195553e+003
7.375480e+002, 5.196527e+003
7.380301e+002, 5.196197e+003
7.385122e+002, 5.197020e+003
7.389943e+002, 5.198708e+003
7.394764e+002, 5.200579e+003
7.399586e+002, 5.203155e+003
7.404407e+002, 5.205026e+003
7.409228e+002, 5.205763e+003
7.414049e+002, 5.205410e+003
7.418870e+002, 5.203507e+003
7.423691e+002, 5.198671e+003
7.428513e+002, 5.196325e+003
7.433334e+002, 5.200202e+003
7.438155e+002, 5.207940e+003
7.442976e+002, 5.208519e+003
7.447797e+002, 5.202341e+003
7.452618e+002, 5.196097e+003
7.457440e+002, 5.193929e+003
7.462261e+002, 5.193977e+003
7.467082e+002, 5.195030e+003
7.471903e+002, 5.196708e+003
7.476724e+002, 5.196494e+003
7.481545e+002, 5.190433e+003
7.486367e+002, 5.184583e+003
7.491188e+002, 5.182782e+003
7.496009e+002, 5.185721e+003
7.500830e+002, 5.186550e+003
7.505651e+002, 5.184672e+003
7.510472e+002, 5.181698e+003
7.515294e+002, 5.177586e+003
7.520115e+002, 5.172430e+003
7.524936e+002, 5.172487e+003
7.529757e+002, 5.178144e+003
7.534578e+002, 5.182534e+003
7.539399e+002, 5.177008e+003
7.544221e+002, 5.167586e+003
7.549042e+002, 5.164288e+003
7.553863e+002, 5.168739e+003
7.558684e+002, 5.171856e+003
7.563505e+002, 5.166813e+003
7.568326e+002, 5.160068e+003
7.573148e+002, 5.156980e+003
7.577969e+002, 5.160552e+003
7.582790e+002, 5.160897e+003
7.587611e+002, 5.155189e+003
7.592432e+002, 5.150072e+003
7.597253e+002, 5.152895e+003
7.602075e+002, 5.163933e+003
7.606896e+002, 5.169505e+003
7.611717e+002, 5.168057e+003
7.616538e+002, 5.163790e+003
7.621359e+002, 5.160491e+003
7.626180e+002, 5.157751e+003
7.631002e+002, 5.154615e+003
7.635823e+002, 5.150299e+003
7.640644e+002, 5.147638e+003
7.645465e+002, 5.150176e+003
7.650286e+002, 5.154251e+003
7.655107e+002, 5.155897e+003
7.659929e+002, 5.151667e+003
7.664750e+002, 5.149674e+003
7.669571e+002, 5.151214e+003
7.674392e+002, 5.153792e+003
7.679213e+002, 5.153688e+003
7.684034e+002, 5.150742e+003
7.688856e+002, 5.149889e+003
7.693677e+002, 5.152154e+003
7.698498e+002, 5.155874e+003
7.703319e+002, 5.159151e+003
7.708140e+002, 5.162212e+003
7.712961e+002, 5.165710e+003
7.717783e+002, 5.170446e+003
7.722604e+002, 5.174386e+003
7.727425e+002, 5.175060e+003
7.732246e+002, 5.174625e+003
7.737067e+002, 5.176524e+003
7.741888e+002, 5.185275e+003
7.746710e+002, 5.189958e+003
7.751531e+002, 5.187979e+003
7.756352e+002, 5.182975e+003
7.761173e+002, 5.181452e+003
7.765994e+002, 5.183520e+003
7.770815e+002, 5.186291e+003
7.775637e+002, 5.189163e+003
7.780458e+002, 5.192261e+003
7.785279e+002, 5.195698e+003
7.790100e+002, 5.199489e+003
7.794921e+002, 5.203717e+003
7.799742e+002, 5.209398e+003
7.804564e+002, 5.214259e+003
7.809385e+002, 5.217250e+003
7.814206e+002, 5.218697e+003
7.819027e+002, 5.219107e+003
7.823848e+002, 5.216463e+003
7.828669e+002, 5.216599e+003
7.833491e+002, 5.221959e+003
7.838312e+002, 5.229595e+003
7.843133e+002, 5.231592e+003
7.847954e+002, 5.228128e+003
7.852775e+002, 5.225313e+003
7.857596e+002, 5.225223e+003
7.862418e+002, 5.226918e+003
7.867239e+002, 5.229843e+003
7.872060e+002, 5.233527e+003
7.876881e+002, 5.236884e+003
7.881702e+002, 5.238896e+003
7.886523e+002, 5.240968e+003
7.891345e+002, 5.243195e+003
7.896166e+002, 5.245888e+003
7.900987e+002, 5.250092e+003
7.905808e+002, 5.257003e+003
7.910629e+002, 5.262841e+003
7.915450e+002, 5.266504e+003
7.920272e+002, 5.268613e+003
7.925093e+002, 5.270236e+003
7.929914e+002, 5.271508e+003
7.934735e+002, 5.274049e+003
7.939556e+002, 5.279513e+003
7.944377e+002, 5.285572e+003
7.949199e+002, 5.289896e+003
7.954020e+002, 5.292640e+003
7.958841e+002, 5.294043e+003
7.963662e+002, 5.291248e+003
7.968483e+002, 5.290351e+003
7.973304e+002, 5.294346e+003
7.978126e+002, 5.301956e+003
7.982947e+002, 5.309334e+003
7.987768e+002, 5.316695e+003
7.992589e+002, 5.323212e+003
7.997410e+002, 5.328336e+003
8.002231e+002, 5.332796e+003
8.007053e+002, 5.338148e+003
8.011874e+002, 5.344435e+003
8.016695e+002, 5.352011e+003
8.021516e+002, 5.360678e+003
8.026337e+002, 5.370995e+003
8.031158e+002, 5.385158e+003
8.035980e+002, 5.401350e+003
8.040801e+002, 5.415180e+003
8.045622e+002, 5.419991e+003
8.050443e+002, 5.428287e+003
8.055264e+002, 5.444608e+003
8.060085e+002, 5.466389e+003
8.064907e+002, 5.484748e+003
8.069728e+002, 5.498476e+003
8.074549e+002, 5.515284e+003
8.079370e+002, 5.538339e+003
8.084191e+002, 5.565507e+003
8.089012e+002, 5.591880e+003
8.093834e+002, 5.618403e+003
8.098655e+002, 5.648463e+003
8.103476e+002, 5.686586e+003
8.108297e+002, 5.726227e+003
8.113118e+002, 5.762424e+003
8.117939e+002, 5.796714e+003
8.122761e+002, 5.833274e+003
8.127582e+002, 5.873415e+003
8.132403e+002, 5.915068e+003
8.137224e+002, 5.957920e+003
8.142045e+002, 6.002036e+003
8.146866e+002, 6.047475e+003
8.151688e+002, 6.093488e+003
8.156509e+002, 6.142913e+003
8.161330e+002, 6.198173e+003
8.166151e+002, 6.255378e+003
8.170972e+002, 6.307487e+003
8.175793e+002, 6.356631e+003
8.180615e+002, 6.409854e+003
8.185436e+002, 6.473406e+003
8.190257e+002, 6.537432e+003
8.195078e+002, 6.597989e+003
8.199899e+002, 6.655650e+003
8.204720e+002, 6.712136e+003
8.209542e+002, 6.767887e+003
8.214363e+002, 6.820273e+003
8.219184e+002, 6.869802e+003
8.224005e+002, 6.914500e+003
8.228826e+002, 6.951447e+003
8.233647e+002, 6.980572e+003
8.238469e+002, 6.999935e+003
8.243290e+002, 7.012087e+003
8.248111e+002, 7.010055e+003
8.252932e+002, 6.983881e+003
8.257753e+002, 6.939259e+003
8.262574e+002, 6.888567e+003
8.267396e+002, 6.836729e+003
8.272217e+002, 6.776095e+003
8.277038e+002, 6.702830e+003
8.281859e+002, 6.621663e+003
8.286681e+002, 6.539021e+003
8.291502e+002, 6.455472e+003
8.296323e+002, 6.370547e+003
8.301144e+002, 6.283256e+003
8.305966e+002, 6.197743e+003
8.310787e+002, 6.116741e+003
8.315608e+002, 6.040963e+003
8.320429e+002, 5.969928e+003
8.325250e+002, 5.903378e+003
8.330071e+002, 5.843117e+003
8.334893e+002, 5.789344e+003
8.339714e+002, 5.742328e+003
8.344535e+002, 5.701619e+003
8.349356e+002, 5.667903e+003
8.354177e+002, 5.638172e+003
8.358998e+002, 5.612583e+003
8.363820e+002, 5.590755e+003
8.368641e+002, 5.571585e+003
8.373462e+002, 5.555318e+003
8.378283e+002, 5.543954e+003
8.383104e+002, 5.538993e+003
8.387925e+002, 5.535412e+003
8.392747e+002, 5.528249e+003
8.397568e+002, 5.519323e+003
8.402389e+002, 5.511015e+003
8.407210e+002, 5.503483e+003
8.412031e+002, 5.497417e+003
8.416852e+002, 5.494236e+003
8.421674e+002, 5.491760e+003
8.426495e+002, 5.488118e+003
8.431316e+002, 5.483318e+003
8.436137e+002, 5.477279e+003
8.440958e+002, 5.469467e+003
8.445779e+002, 5.462529e+003
8.450601e+002, 5.460425e+003
8.455422e+002, 5.461279e+003
8.460243e+002, 5.460712e+003
8.465064e+002, 5.457539e+003
8.469885e+002, 5.455468e+003
8.474706e+002, 5.457478e+003
8.479528e+002, 5.460832e+003
8.484349e+002, 5.463206e+003
8.489170e+002, 5.464173e+003
8.493991e+002, 5.464564e+003
8.498812e+002, 5.464235e+003
8.503633e+002, 5.463374e+003
8.508455e+002, 5.462035e+003
8.513276e+002, 5.460227e+003
8.518097e+002, 5.457641e+003
8.522918e+002, 5.454205e+003
8.527739e+002, 5.452511e+003
8.532560e+002, 5.457352e+003
8.537382e+002, 5.463224e+003
8.542203e+002, 5.464444e+003
8.547024e+002, 5.460025e+003
8.551845e+002, 5.456376e+003
8.556666e+002, 5.454883e+003
8.561487e+002, 5.454521e+003
8.566309e+002, 5.454950e+003
8.571130e+002, 5.456176e+003
8.575951e+002, 5.458323e+003
8.580772e+002, 5.461490e+003
8.585593e+002, 5.464368e+003
8.590414e+002, 5.465414e+003
8.595236e+002, 5.465915e+003
8.600057e+002, 5.467878e+003
8.604878e+002, 5.471207e+003
8.609699e+002, 5.475005e+003
8.614520e+002, 5.481194e+003
8.619341e+002, 5.485506e+003
8.624163e+002, 5.484065e+003
8.628984e+002, 5.478190e+003
8.633805e+002, 5.477317e+003
8.638626e+002, 5.483009e+003
8.643447e+002, 5.488516e+003
8.648268e+002, 5.491235e+003
8.653090e+002, 5.492004e+003
8.657911e+002, 5.491776e+003
8.662732e+002, 5.491078e+003
8.667553e+002, 5.492187e+003
8.672374e+002, 5.497987e+003
8.677195e+002, 5.504172e+003
8.682017e+002, 5.508479e+003
8.686838e+002, 5.511060e+003
8.691659e+002, 5.512187e+003
8.696480e+002, 5.511397e+003
8.701301e+002, 5.510018e+003
8.706122e+002, 5.507769e+003
8.710944e+002, 5.505622e+003
8.715765e+002, 5.506666e+003
8.720586e+002, 5.510330e+003
8.725407e+002, 5.511692e+003
8.730228e+002, 5.508669e+003
8.735049e+002, 5.504561e+003
8.739871e+002, 5.502453e+003
8.744692e+002, 5.501474e+003
8.749513e+002, 5.500213e+003
8.754334e+002, 5.496331e+003
8.759155e+002, 5.495222e+003
8.763976e+002, 5.498422e+003
8.768798e+002, 5.503396e+003
8.773619e+002, 5.507175e+003
8.778440e+002, 5.509608e+003
8.783261e+002, 5.512876e+003
8.788082e+002, 5.517380e+003
8.792903e+002, 5.521549e+003
8.797725e+002, 5.522963e+003
8.802546e+002, 5.523192e+003
8.807367e+002, 5.525029e+003
8.812188e+002, 5.529626e+003
8.817009e+002, 5.532099e+003
8.821830e+002, 5.527328e+003
8.826652e+002, 5.522459e+003
8.831473e+002, 5.523119e+003
8.836294e+002, 5.530834e+003
8.841115e+002, 5.533374e+003
8.845936e+002, 5.529688e+003
8.850757e+002, 5.526299e+003
8.855579e+002, 5.529409e+003
8.860400e+002, 5.536114e+003
8.865221e+002, 5.541411e+003
8.870042e+002, 5.544956e+003
8.874863e+002, 5.545734e+003
8.879684e+002, 5.539396e+003
8.884506e+002, 5.533663e+003
8.889327e+002, 5.533265e+003
8.894148e+002, 5.538003e+003
8.898969e+002, 5.543254e+003
8.903790e+002, 5.549326e+003
8.908611e+002, 5.554760e+003
8.913433e+002, 5.558801e+003
8.918254e+002, 5.561808e+003
8.923075e+002, 5.564896e+003
8.927896e+002, 5.567908e+003
8.932717e+002, 5.570319e+003
8.937538e+002, 5.570056e+003
8.942360e+002, 5.570813e+003
8.947181e+002, 5.575877e+003
8.952002e+002, 5.583472e+003
8.956823e+002, 5.588886e+003
8.961644e+002, 5.590912e+003
8.966465e+002, 5.592599e+003
8.971287e+002, 5.594297e+003
8.976108e+002, 5.596083e+003
8.980929e+002, 5.598374e+003
8.985750e+002, 5.600966e+003
8.990571e+002, 5.602701e+003
8.995392e+002, 5.603221e+003
9.000214e+002, 5.603209e+003
9.005035e+002, 5.603013e+003
9.009856e+002, 5.602747e+003
9.014677e+002, 5.602469e+003
9.019498e+002, 5.601281e+003
9.024319e+002, 5.602080e+003
9.029141e+002, 5.605987e+003
9.033962e+002, 5.610271e+003
9.038783e+002, 5.612147e+003
9.043604e+002, 5.611896e+003
9.048425e+002, 5.612396e+003
9.053246e+002, 5.613821e+003
9.058068e+002, 5.616131e+003
9.062889e+002, 5.620030e+003
9.067710e+002, 5.624260e+003
9.072531e+002, 5.627807e+003
9.077352e+002, 5.630524e+003
9.082173e+002, 5.632544e+003
9.086995e+002, 5.634161e+003
9.091816e+002, 5.634689e+003
9.096637e+002, 5.633206e+003
9.101458e+002, 5.630275e+003
9.106279e+002, 5.630489e+003
9.111100e+002, 5.633665e+003
9.115922e+002, 5.635716e+003
9.120743e+002, 5.632672e+003
9.125564e+002, 5.628743e+003
9.130385e+002, 5.628292e+003
9.135206e+002, 5.630581e+003
9.140027e+002, 5.633184e+003
9.144849e+002, 5.635014e+003
9.149670e+002, 5.637820e+003
9.154491e+002, 5.642601e+003
9.159312e+002, 5.648044e+003
9.164133e+002, 5.651417e+003
9.168954e+002, 5.652732e+003
9.173776e+002, 5.653022e+003
9.178597e+002, 5.652401e+003
9.183418e+002, 5.651191e+003
9.188239e+002, 5.647569e+003
9.193060e+002, 5.644376e+003
9.197881e+002, 5.646058e+003
9.202703e+002, 5.657201e+003
9.207524e+002, 5.665947e+003
9.212345e+002, 5.670257e+003
9.217166e+002, 5.671929e+003
9.221987e+002, 5.671621e+003
9.226808e+002, 5.669189e+003
9.231630e+002, 5.668458e+003
9.236451e+002, 5.669580e+003
9.241272e+002, 5.672173e+003
9.246093e+002, 5.676712e+003
9.250914e+002, 5.682016e+003
9.255735e+002, 5.686955e+003
9.260557e+002, 5.691364e+003
9.265378e+002, 5.695046e+003
9.270199e+002, 5.698133e+003
9.275020e+002, 5.700143e+003
9.279841e+002, 5.700573e+003
9.284662e+002, 5.699762e+003
9.289484e+002, 5.699889e+003
9.294305e+002, 5.700952e+003
9.299126e+002, 5.701736e+003
9.303947e+002, 5.701582e+003
9.308768e+002, 5.701010e+003
9.313589e+002, 5.699985e+003
9.318411e+002, 5.699108e+003
9.323232e+002, 5.699697e+003
9.328053e+002, 5.704518e+003
9.332874e+002, 5.707807e+003
9.337695e+002, 5.708069e+003
9.342516e+002, 5.707069e+003
9.347338e+002, 5.707144e+003
9.352159e+002, 5.708307e+003
9.356980e+002, 5.711287e+003
9.361801e+002, 5.716714e+003
9.366622e+002, 5.721126e+003
9.371443e+002, 5.718541e+003
9.376265e+002, 5.714073e+003
9.381086e+002, 5.714327e+003
9.385907e+002, 5.721659e+003
9.390728e+002, 5.728358e+003
9.395549e+002, 5.733040e+003
9.400370e+002, 5.736678e+003
9.405192e+002, 5.739667e+003
9.410013e+002, 5.741973e+003
9.414834e+002, 5.743026e+003
9.419655e+002, 5.742858e+003
9.424476e+002, 5.743743e+003
9.429297e+002, 5.749937e+003
9.434119e+002, 5.755799e+003
9.438940e+002, 5.754498e+003
9.443761e+002, 5.747594e+003
9.448582e+002, 5.742688e+003
9.453403e+002, 5.742331e+003
9.458224e+002, 5.743193e+003
9.463046e+002, 5.745175e+003
9.467867e+002, 5.747669e+003
9.472688e+002, 5.749032e+003
9.477509e+002, 5.749453e+003
9.482330e+002, 5.750187e+003
9.487151e+002, 5.751591e+003
9.491973e+002, 5.753530e+003
9.496794e+002, 5.757307e+003
9.501615e+002, 5.760964e+003
9.506436e+002, 5.761817e+003
9.511257e+002, 5.755931e+003
9.516078e+002, 5.754673e+003
9.520900e+002, 5.760383e+003
9.525721e+002, 5.767141e+003
9.530542e+002, 5.769641e+003
9.535363e+002, 5.768633e+003
9.540184e+002, 5.768205e+003
9.545005e+002, 5.768542e+003
9.549827e+002, 5.770587e+003
9.554648e+002, 5.777057e+003
9.559469e+002, 5.783673e+003
9.564290e+002, 5.785923e+003
9.569111e+002, 5.784211e+003
9.573932e+002, 5.787394e+003
9.578754e+002, 5.798689e+003
9.583575e+002, 5.807702e+003
9.588396e+002, 5.810338e+003
9.593217e+002, 5.809377e+003
9.598038e+002, 5.811453e+003
9.602859e+002, 5.815697e+003
9.607681e+002, 5.819088e+003
9.612502e+002, 5.820042e+003
9.617323e+002, 5.820660e+003
9.622144e+002, 5.822569e+003
9.626965e+002, 5.824686e+003
9.631786e+002, 5.825706e+003
9.636608e+002, 5.825900e+003
9.641429e+002, 5.823730e+003
9.646250e+002, 5.818037e+003
9.651071e+002, 5.814032e+003
9.655892e+002, 5.820347e+003
9.660714e+002, 5.831412e+003
9.665535e+002, 5.833874e+003
9.670356e+002, 5.826937e+003
9.675177e+002, 5.821308e+003
9.679998e+002, 5.823090e+003
9.684819e+002, 5.827158e+003
9.689641e+002, 5.832063e+003
9.694462e+002, 5.837178e+003
9.699283e+002, 5.837297e+003
9.704104e+002, 5.831399e+003
9.708925e+002, 5.827882e+003
9.713746e+002, 5.830609e+003
9.718568e+002, 5.836460e+003
9.723389e+002, 5.841502e+003
9.728210e+002, 5.845859e+003
9.733031e+002, 5.849930e+003
9.737852e+002, 5.852729e+003
9.742673e+002, 5.856669e+003
9.747495e+002, 5.863628e+003
9.752316e+002, 5.870706e+003
9.757137e+002, 5.874404e+003
9.761958e+002, 5.874595e+003
9.766779e+002, 5.877038e+003
9.771600e+002, 5.882583e+003
9.776422e+002, 5.886206e+003
9.781243e+002, 5.880573e+003
9.786064e+002, 5.872750e+003
9.790885e+002, 5.871437e+003
9.795706e+002, 5.877501e+003
9.800527e+002, 5.879908e+003
9.805349e+002, 5.873484e+003
9.810170e+002, 5.868301e+003
9.814991e+002, 5.867561e+003
9.819812e+002, 5.870728e+003
9.824633e+002, 5.877618e+003
9.829454e+002, 5.887361e+003
9.834276e+002, 5.894783e+003
9.839097e+002, 5.897141e+003
9.843918e+002, 5.897333e+003
9.848739e+002, 5.896815e+003
9.853560e+002, 5.895719e+003
9.858381e+002, 5.894072e+003
9.863203e+002, 5.890368e+003
9.868024e+002, 5.889754e+003
9.872845e+002, 5.892936e+003
9.877666e+002, 5.898115e+003
9.882487e+002, 5.905065e+003
9.887308e+002, 5.912310e+003
9.892130e+002, 5.915576e+003
9.896951e+002, 5.914600e+003
9.901772e+002, 5.913038e+003
9.906593e+002, 5.911665e+003
9.911414e+002, 5.911321e+003
9.916235e+002, 5.912752e+003
9.921057e+002, 5.915580e+003
9.925878e+002, 5.918267e+003
9.930699e+002, 5.920756e+003
9.935520e+002, 5.922909e+003
9.940341e+002, 5.924458e+003
9.945162e+002, 5.925896e+003
9.949984e+002, 5.928289e+003
9.954805e+002, 5.931038e+003
9.959626e+002, 5.933055e+003
9.964447e+002, 5.933912e+003
9.969268e+002, 5.934324e+003
9.974089e+002, 5.933911e+003
9.978911e+002, 5.933907e+003
9.983732e+002, 5.936133e+003
9.988553e+002, 5.940508e+003
9.993374e+002, 5.942126e+003
9.998195e+002, 5.940805e+003
1.000302e+003, 5.939413e+003
1.000784e+003, 5.938874e+003
1.001266e+003, 5.940152e+003
1.001748e+003, 5.945029e+003
1.002230e+003, 5.953026e+003
1.002712e+003, 5.959305e+003
1.003194e+003, 5.963622e+003
1.003676e+003, 5.965530e+003
1.004159e+003, 5.963920e+003
1.004641e+003, 5.961009e+003
1.005123e+003, 5.961015e+003
1.005605e+003, 5.963554e+003
1.006087e+003, 5.967688e+003
1.006569e+003, 5.973776e+003
1.007051e+003, 5.979944e+003
1.007533e+003, 5.987512e+003
1.008016e+003, 5.993308e+003
1.008498e+003, 5.994082e+003
1.008980e+003, 5.988359e+003
1.009462e+003, 5.987063e+003
1.009944e+003, 5.990792e+003
1.010426e+003, 5.994897e+003
1.010908e+003, 5.994413e+003
1.011390e+003, 5.993151e+003
1.011872e+003, 5.997471e+003
1.012355e+003, 6.005949e+003
1.012837e+003, 6.012005e+003
1.013319e+003, 6.008591e+003
1.013801e+003, 6.009083e+003
1.014283e+003, 6.018077e+003
1.014765e+003, 6.030359e+003
1.015247e+003, 6.036847e+003
1.015729e+003, 6.037911e+003
1.016211e+003, 6.035178e+003
1.016694e+003, 6.028030e+003
1.017176e+003, 6.022430e+003
1.017658e+003, 6.024982e+003
1.018140e+003, 6.030262e+003
1.018622e+003, 6.033350e+003
1.019104e+003, 6.033496e+003
1.019586e+003, 6.034381e+003
1.020068e+003, 6.036367e+003
1.020551e+003, 6.038285e+003
1.021033e+003, 6.040132e+003
1.021515e+003, 6.041128e+003
1.021997e+003, 6.037889e+003
1.022479e+003, 6.032161e+003
1.022961e+003, 6.029156e+003
1.023443e+003, 6.031856e+003
1.023925e+003, 6.036646e+003
1.024407e+003, 6.044471e+003
1.024890e+003, 6.052407e+003
1.025372e+003, 6.056055e+003
1.025854e+003, 6.055154e+003
1.026336e+003, 6.057340e+003
1.026818e+003, 6.063609e+003
1.027300e+003, 6.069550e+003
1.027782e+003, 6.070358e+003
1.028264e+003, 6.069625e+003
1.028746e+003, 6.071014e+003
1.029229e+003, 6.074808e+003
1.029711e+003, 6.077430e+003
1.030193e+003, 6.077631e+003
1.030675e+003, 6.078973e+003
1.031157e+003, 6.083187e+003
1.031639e+003, 6.088644e+003
1.032121e+003, 6.091678e+003
1.032603e+003, 6.092919e+003
1.033086e+003, 6.094252e+003
1.033568e+003, 6.096678e+003
1.034050e+003, 6.098673e+003
1.034532e+003, 6.099220e+003
1.035014e+003, 6.099373e+003
1.035496e+003, 6.100337e+003
1.035978e+003, 6.102553e+003
1.036460e+003, 6.102122e+003
1.036943e+003, 6.098850e+003
1.037425e+003, 6.096430e+003
1.037907e+003, 6.097420e+003
1.038389e+003, 6.100762e+003
1.038871e+003, 6.106863e+003
1.039353e+003, 6.114571e+003
1.039835e+003, 6.119215e+003
1.040317e+003, 6.116126e+003
1.040799e+003, 6.116338e+003
1.041281e+003, 6.122498e+003
1.041764e+003, 6.130914e+003
1.042246e+003, 6.135409e+003
1.042728e+003, 6.137251e+003
1.043210e+003, 6.140973e+003
1.043692e+003, 6.147794e+003
1.044174e+003, 6.153081e+003
1.044656e+003, 6.152896e+003
1.045138e+003, 6.151519e+003
1.045621e+003, 6.151396e+003
1.046103e+003, 6.152541e+003
1.046585e+003, 6.155427e+003
1.047067e+003, 6.160238e+003
1.047549e+003, 6.164081e+003
1.048031e+003, 6.165555e+003
1.048513e+003, 6.165518e+003
1.048995e+003, 6.163249e+003
1.049478e+003, 6.160616e+003
1.049960e+003, 6.160799e+003
1.050442e+003, 6.167901e+003
1.050924e+003, 6.172848e+003
1.051406e+003, 6.175147e+003
1.051888e+003, 6.176109e+003
1.052370e+003, 6.176060e+003
1.052852e+003, 6.175792e+003
1.053334e+003, 6.178293e+003
1.053817e+003, 6.183494e+003
1.054299e+003, 6.189239e+003
1.054781e+003, 6.196143e+003
1.055263e+003, 6.201392e+003
1.055745e+003, 6.202536e+003
1.056227e+003, 6.201487e+003
1.056709e+003, 6.202723e+003
1.057191e+003, 6.206347e+003
1.057673e+003, 6.209627e+003
1.058156e+003, 6.211813e+003
1.058638e+003, 6.214189e+003
1.059120e+003, 6.218831e+003
1.059602e+003, 6.223933e+003
1.060084e+003, 6.226513e+003
1.060566e+003, 6.224954e+003
1.061048e+003, 6.230183e+003
1.061530e+003, 6.246591e+003
1.062013e+003, 6.259833e+003
1.062495e+003, 6.261411e+003
1.062977e+003, 6.256493e+003
1.063459e+003, 6.256925e+003
1.063941e+003, 6.261749e+003
1.064423e+003, 6.268244e+003
1.064905e+003, 6.276758e+003
1.065387e+003, 6.284828e+003
1.065870e+003, 6.291412e+003
1.066352e+003, 6.297376e+003
1.066834e+003, 6.303929e+003
1.067316e+003, 6.311052e+003
1.067798e+003, 6.314927e+003
1.068280e+003, 6.315437e+003
1.068762e+003, 6.316568e+003
1.069244e+003, 6.322252e+003
1.069726e+003, 6.328932e+003
1.070208e+003, 6.332720e+003
1.070691e+003, 6.334841e+003
1.071173e+003, 6.341165e+003
1.071655e+003, 6.354229e+003
1.072137e+003, 6.363663e+003
1.072619e+003, 6.367188e+003
1.073101e+003, 6.367772e+003
1.073583e+003, 6.368016e+003
1.074065e+003, 6.368610e+003
1.074548e+003, 6.371481e+003
1.075030e+003, 6.377426e+003
1.075512e+003, 6.380689e+003
1.075994e+003, 6.378646e+003
1.076476e+003, 6.374880e+003
1.076958e+003, 6.369915e+003
1.077440e+003, 6.364677e+003
1.077922e+003, 6.363478e+003
1.078405e+003, 6.365437e+003
1.078887e+003, 6.366047e+003
1.079369e+003, 6.362276e+003
1.079851e+003, 6.359122e+003
1.080333e+003, 6.359581e+003
1.080815e+003, 6.362122e+003
1.081297e+003, 6.364805e+003
1.081779e+003, 6.367375e+003
1.082261e+003, 6.372047e+003
1.082744e+003, 6.379049e+003
1.083226e+003, 6.385584e+003
1.083708e+003, 6.387924e+003
1.084190e+003, 6.390063e+003
1.084672e+003, 6.396249e+003
1.085154e+003, 6.405814e+003
1.085636e+003, 6.416498e+003
1.086118e+003, 6.429660e+003
1.086601e+003, 6.440125e+003
1.087083e+003, 6.446703e+003
1.087565e+003, 6.451817e+003
1.088047e+003, 6.458892e+003
1.088529e+003, 6.466675e+003
1.089011e+003, 6.472401e+003
1.089493e+003, 6.475745e+003
1.089975e+003, 6.479103e+003
1.090458e+003, 6.481054e+003
1.090940e+003, 6.486256e+003
1.091422e+003, 6.497763e+003
1.091904e+003, 6.512764e+003
1.092386e+003, 6.522303e+003
1.092868e+003, 6.526994e+003
1.093350e+003, 6.530803e+003
1.093832e+003, 6.535532e+003
1.094314e+003, 6.537447e+003
1.094797e+003, 6.529543e+003
1.095279e+003, 6.520886e+003
1.095761e+003, 6.521620e+003
1.096243e+003, 6.532935e+003
1.096725e+003, 6.534960e+003
1.097207e+003, 6.526947e+003
1.097689e+003, 6.518937e+003
1.098171e+003, 6.517924e+003
1.098653e+003, 6.518381e+003
1.099136e+003, 6.513748e+003
1.099618e+003, 6.505867e+003
1.100100e+003, 6.498227e+003
1.100582e+003, 6.492124e+003
1.101064e+003, 6.484804e+003
1.101546e+003, 6.475280e+003
1.102028e+003, 6.466608e+003
1.102510e+003, 6.462542e+003
1.102993e+003, 6.460899e+003
1.103475e+003, 6.457366e+003
1.103957e+003, 6.451793e+003
1.104439e+003, 6.444698e+003
1.104921e+003, 6.433820e+003
1.105403e+003, 6.424855e+003
1.105885e+003, 6.419719e+003
1.106367e+003, 6.416782e+003
1.106849e+003, 6.413128e+003
1.107332e+003, 6.409175e+003
1.107814e+003, 6.406795e+003
1.108296e+003, 6.406266e+003
1.108778e+003, 6.407622e+003
1.109260e+003, 6.414622e+003
1.109742e+003, 6.419977e+003
1.110224e+003, 6.417322e+003
1.110706e+003, 6.408745e+003
1.111188e+003, 6.405145e+003
1.111671e+003, 6.406509e+003
1.112153e+003, 6.409317e+003
1.112635e+003, 6.412545e+003
1.113117e+003, 6.416376e+003
1.113599e+003, 6.422486e+003
1.114081e+003, 6.428458e+003
1.114563e+003, 6.430792e+003
1.115045e+003, 6.428088e+003
1.115528e+003, 6.427630e+003
1.116010e+003, 6.429892e+003
1.116492e+003, 6.432403e+003
1.116974e+003, 6.433614e+003
1.117456e+003, 6.434462e+003
1.117938e+003, 6.436974e+003
1.118420e+003, 6.440284e+003
1.118902e+003, 6.442479e+003
1.119385e+003, 6.441051e+003
1.119867e+003, 6.442077e+003
1.120349e+003, 6.447640e+003
1.120831e+003, 6.452282e+003
1.121313e+003, 6.449075e+003
1.121795e+003, 6.441317e+003
1.122277e+003, 6.438488e+003
1.122759e+003, 6.440378e+003
1.123241e+003, 6.443888e+003
1.123724e+003, 6.449440e+003
1.124206e+003, 6.453893e+003
1.124688e+003, 6.455872e+003
1.125170e+003, 6.456716e+003
1.125652e+003, 6.458069e+003
1.126134e+003, 6.460010e+003
1.126616e+003, 6.464047e+003
1.127098e+003, 6.470432e+003
1.127580e+003, 6.475409e+003
1.128063e+003, 6.475331e+003
1.128545e+003, 6.474154e+003
1.129027e+003, 6.474525e+003
1.129509e+003, 6.475910e+003
1.129991e+003, 6.475826e+003
1.130473e+003, 6.474274e+003
1.130955e+003, 6.473920e+003
1.131437e+003, 6.475433e+003
1.131920e+003, 6.478556e+003
1.132402e+003, 6.484668e+003
1.132884e+003, 6.491213e+003
1.133366e+003, 6.495292e+003
1.133848e+003, 6.496458e+003
1.134330e+003, 6.499320e+003
1.134812e+003, 6.504196e+003
1.135294e+003, 6.508853e+003
1.135776e+003, 6.512288e+003
1.136259e+003, 6.514854e+003
1.136741e+003, 6.516030e+003
1.137223e+003, 6.516975e+003
1.137705e+003, 6.519628e+003
1.138187e+003, 6.525195e+003
1.138669e+003, 6.530639e+003
1.139151e+003, 6.536075e+003
1.139633e+003, 6.540872e+003
1.140115e+003, 6.543779e+003
1.140598e+003, 6.546167e+003
1.141080e+003, 6.552754e+003
1.141562e+003, 6.561333e+003
1.142044e+003, 6.565896e+003
1.142526e+003, 6.560172e+003
1.143008e+003, 6.556067e+003
1.143490e+003, 6.554766e+003
1.143972e+003, 6.555889e+003
1.144455e+003, 6.559743e+003
1.144937e+003, 6.565683e+003
1.145419e+003, 6.572666e+003
1.145901e+003, 6.580090e+003
1.146383e+003, 6.584575e+003
1.146865e+003, 6.581757e+003
1.147347e+003, 6.578978e+003
1.147829e+003, 6.578943e+003
1.148312e+003, 6.579739e+003
1.148794e+003, 6.576889e+003
1.149276e+003, 6.571559e+003
1.149758e+003, 6.573299e+003
1.150240e+003, 6.583307e+003
1.150722e+003, 6.591679e+003
1.151204e+003, 6.589229e+003
1.151686e+003, 6.586160e+003
1.152168e+003, 6.587997e+003
1.152651e+003, 6.593549e+003
1.153133e+003, 6.600158e+003
1.153615e+003, 6.607690e+003
1.154097e+003, 6.614273e+003
1.154579e+003, 6.619601e+003
1.155061e+003, 6.622625e+003
1.155543e+003, 6.619472e+003
1.156025e+003, 6.615947e+003
1.156507e+003, 6.617565e+003
1.156990e+003, 6.623795e+003
1.157472e+003, 6.630075e+003
1.157954e+003, 6.636610e+003
1.158436e+003, 6.640221e+003
1.158918e+003, 6.638603e+003
1.159400e+003, 6.636847e+003
1.159882e+003, 6.640885e+003
1.160364e+003, 6.647255e+003
1.160847e+003, 6.651713e+003
1.161329e+003, 6.653394e+003
1.161811e+003, 6.656661e+003
1.162293e+003, 6.661616e+003
1.162775e+003, 6.667339e+003
1.163257e+003, 6.674373e+003
1.163739e+003, 6.680584e+003
1.164221e+003, 6.682550e+003
1.164703e+003, 6.682086e+003
1.165186e+003, 6.682246e+003
1.165668e+003, 6.683833e+003
1.166150e+003, 6.685445e+003
1.166632e+003, 6.687250e+003
1.167114e+003, 6.688266e+003
1.167596e+003, 6.686782e+003
1.168078e+003, 6.684682e+003
1.168560e+003, 6.684489e+003
1.169042e+003, 6.686313e+003
1.169525e+003, 6.690424e+003
1.170007e+003, 6.701070e+003
1.170489e+003, 6.706882e+003
1.170971e+003, 6.706246e+003
1.171453e+003, 6.703622e+003
1.171935e+003, 6.702363e+003
1.172417e+003, 6.702617e+003
1.172899e+003, 6.705688e+003
1.173382e+003, 6.710856e+003
1.173864e+003, 6.714313e+003
1.174346e+003, 6.713167e+003
1.174828e+003, 6.712523e+003
1.175310e+003, 6.713046e+003
1.175792e+003, 6.714327e+003
1.176274e+003, 6.716320e+003
1.176756e+003, 6.718505e+003
1.177239e+003, 6.718573e+003
1.177721e+003, 6.716709e+003
1.178203e+003, 6.718460e+003
1.178685e+003, 6.729515e+003
1.179167e+003, 6.740046e+003
1.179649e+003, 6.748401e+003
1.180131e+003, 6.754140e+003
1.180613e+003, 6.755656e+003
1.181095e+003, 6.754051e+003
1.181578e+003, 6.751685e+003
1.182060e+003, 6.748743e+003
1.182542e+003, 6.749122e+003
1.183024e+003, 6.759547e+003
1.183506e+003, 6.767575e+003
1.183988e+003, 6.767883e+003
1.184470e+003, 6.763840e+003
1.184952e+003, 6.762833e+003
1.185434e+003, 6.764836e+003
1.185917e+003, 6.770786e+003
1.186399e+003, 6.782119e+003
1.186881e+003, 6.790678e+003
1.187363e+003, 6.789582e+003
1.187845e+003, 6.787725e+003
1.188327e+003, 6.788684e+003
1.188809e+003, 6.792494e+003
1.189291e+003, 6.801929e+003
1.189774e+003, 6.815015e+003
1.190256e+003, 6.822272e+003
1.190738e+003, 6.818511e+003
1.191220e+003, 6.814642e+003
1.191702e+003, 6.816156e+003
1.192184e+003, 6.819117e+003
1.192666e+003, 6.820550e+003
1.193148e+003, 6.821157e+003
1.193630e+003, 6.827336e+003
1.194113e+003, 6.837776e+003
1.194595e+003, 6.844554e+003
1.195077e+003, 6.842108e+003
1.195559e+003, 6.839598e+003
1.196041e+003, 6.842116e+003
1.196523e+003, 6.846070e+003
1.197005e+003, 6.848722e+003
1.197487e+003, 6.850189e+003
1.197969e+003, 6.852476e+003
1.198452e+003, 6.855315e+003
1.198934e+003, 6.856640e+003
1.199416e+003, 6.853042e+003
1.199898e+003, 6.850659e+003
1.200380e+003, 6.853500e+003
1.200862e+003, 6.858272e+003
1.201344e+003, 6.861961e+003
1.201826e+003, 6.864595e+003
1.202309e+003, 6.866738e+003
1.202791e+003, 6.868346e+003
1.203273e+003, 6.868753e+003
1.203755e+003, 6.865627e+003
1.204237e+003, 6.863408e+003
1.204719e+003, 6.864903e+003
1.205201e+003, 6.868218e+003
1.205683e+003, 6.870925e+003
1.206166e+003, 6.872997e+003
1.206648e+003, 6.877987e+003
1.207130e+003, 6.885745e+003
1.207612e+003, 6.892594e+003
1.208094e+003, 6.895876e+003
1.208576e+003, 6.897799e+003
1.209058e+003, 6.898588e+003
1.209540e+003, 6.899212e+003
1.210022e+003, 6.901383e+003
1.210505e+003, 6.905033e+003
1.210987e+003, 6.906789e+003
1.211469e+003, 6.906490e+003
1.211951e+003, 6.906107e+003
1.212433e+003, 6.906259e+003
1.212915e+003, 6.907570e+003
1.213397e+003, 6.911590e+003
1.213879e+003, 6.916481e+003
1.214361e+003, 6.918405e+003
1.214844e+003, 6.917718e+003
1.215326e+003, 6.920658e+003
1.215808e+003, 6.927955e+003
1.216290e+003, 6.933693e+003
1.216772e+003, 6.930793e+003
1.217254e+003, 6.928444e+003
1.217736e+003, 6.932472e+003
1.218218e+003, 6.939968e+003
1.218701e+003, 6.945298e+003
1.219183e+003, 6.948541e+003
1.219665e+003, 6.951637e+003
1.220147e+003, 6.954867e+003
1.220629e+003, 6.956599e+003
1.221111e+003, 6.950775e+003
1.221593e+003, 6.948729e+003
1.222075e+003, 6.959836e+003
1.222557e+003, 6.977125e+003
1.223040e+003, 6.981900e+003
1.223522e+003, 6.975790e+003
1.224004e+003, 6.971034e+003
1.224486e+003, 6.969877e+003
1.224968e+003, 6.970274e+003
1.225450e+003, 6.972341e+003
1.225932e+003, 6.974244e+003
1.226414e+003, 6.974718e+003
1.226896e+003, 6.974623e+003
1.227379e+003, 6.976868e+003
1.227861e+003, 6.980983e+003
1.228343e+003, 6.984614e+003
1.228825e+003, 6.987444e+003
1.229307e+003, 6.988378e+003
1.229789e+003, 6.983824e+003
1.230271e+003, 6.980381e+003
1.230753e+003, 6.981229e+003
1.231236e+003, 6.985517e+003
1.231718e+003, 6.991951e+003
1.232200e+003, 6.999475e+003
1.232682e+003, 7.003321e+003
1.233164e+003, 7.001616e+003
1.233646e+003, 6.999455e+003
1.234128e+003, 6.997849e+003
1.234610e+003, 6.998343e+003
1.235093e+003, 7.003119e+003
1.235575e+003, 7.009635e+003
1.236057e+003, 7.007727e+003
1.236539e+003, 7.000359e+003
1.237021e+003, 6.997647e+003
1.237503e+003, 7.003693e+003
1.237985e+003, 7.009835e+003
1.238467e+003, 7.013512e+003
1.238949e+003, 7.015533e+003
1.239432e+003, 7.014933e+003
1.239914e+003, 7.013764e+003
1.240396e+003, 7.020274e+003
1.240878e+003, 7.031284e+003
1.241360e+003, 7.037415e+003
1.241842e+003, 7.034125e+003
1.242324e+003, 7.031930e+003
1.242806e+003, 7.033088e+003
1.243288e+003, 7.036029e+003
1.243771e+003, 7.040654e+003
1.244253e+003, 7.046052e+003
1.244735e+003, 7.050420e+003
1.245217e+003, 7.053718e+003
1.245699e+003, 7.055524e+003
1.246181e+003, 7.054246e+003
1.246663e+003, 7.056264e+003
1.247145e+003, 7.064192e+003
1.247628e+003, 7.070803e+003
1.248110e+003, 7.070484e+003
1.248592e+003, 7.067991e+003
1.249074e+003, 7.076143e+003
1.249556e+003, 7.088967e+003
1.250038e+003, 7.094412e+003
1.250520e+003, 7.084400e+003
1.251002e+003, 7.079736e+003
1.251484e+003, 7.082267e+003
1.251967e+003, 7.087001e+003
1.252449e+003, 7.092231e+003
1.252931e+003, 7.096633e+003
1.253413e+003, 7.096687e+003
1.253895e+003, 7.094875e+003
1.254377e+003, 7.095669e+003
1.254859e+003, 7.100813e+003
1.255341e+003, 7.106500e+003
1.255823e+003, 7.113102e+003
1.256306e+003, 7.118196e+003
1.256788e+003, 7.118958e+003
1.257270e+003, 7.119029e+003
1.257752e+003, 7.124106e+003
1.258234e+003, 7.131062e+003
1.258716e+003, 7.134606e+003
1.259198e+003, 7.133576e+003
1.259680e+003, 7.133493e+003
1.260163e+003, 7.134657e+003
1.260645e+003, 7.134717e+003
1.261127e+003, 7.130888e+003
1.261609e+003, 7.127301e+003
1.262091e+003, 7.129464e+003
1.262573e+003, 7.133247e+003
1.263055e+003, 7.132040e+003
1.263537e+003, 7.124213e+003
1.264020e+003, 7.123942e+003
1.264502e+003, 7.131061e+003
1.264984e+003, 7.137828e+003
1.265466e+003, 7.135705e+003
1.265948e+003, 7.136597e+003
1.266430e+003, 7.155510e+003
1.266912e+003, 7.176413e+003
1.267394e+003, 7.179439e+003
1.267876e+003, 7.164143e+003
1.268359e+003, 7.160271e+003
1.268841e+003, 7.166624e+003
1.269323e+003, 7.172452e+003
1.269805e+003, 7.172496e+003
1.270287e+003, 7.170126e+003
1.270769e+003, 7.163416e+003
1.271251e+003, 7.158042e+003
1.271733e+003, 7.159616e+003
1.272215e+003, 7.167090e+003
1.272698e+003, 7.171729e+003
1.273180e+003, 7.173839e+003
1.273662e+003, 7.174417e+003
1.274144e+003, 7.172707e+003
1.274626e+003, 7.171234e+003
1.275108e+003, 7.169033e+003
1.275590e+003, 7.169380e+003
1.276072e+003, 7.177769e+003
1.276555e+003, 7.190214e+003
1.277037e+003, 7.191217e+003
1.277519e+003, 7.184324e+003
1.278001e+003, 7.180056e+003
1.278483e+003, 7.181930e+003
1.278965e+003, 7.188273e+003
1.279447e+003, 7.200950e+003
1.279929e+003, 7.212347e+003
1.280411e+003, 7.215019e+003
1.280894e+003, 7.213287e+003
1.281376e+003, 7.215397e+003
1.281858e+003, 7.219497e+003
1.282340e+003, 7.221276e+003
1.282822e+003, 7.216977e+003
1.283304e+003, 7.217162e+003
1.283786e+003, 7.222954e+003
1.284268e+003, 7.227962e+003
1.284750e+003, 7.225199e+003
1.285233e+003, 7.221714e+003
1.285715e+003, 7.227319e+003
1.286197e+003, 7.237415e+003
1.286679e+003, 7.243694e+003
1.287161e+003, 7.244158e+003
1.287643e+003, 7.247698e+003
1.288125e+003, 7.254396e+003
1.288607e+003, 7.260539e+003
1.289090e+003, 7.264274e+003
1.289572e+003, 7.265814e+003
1.290054e+003, 7.262061e+003
1.290536e+003, 7.258219e+003
1.291018e+003, 7.261530e+003
1.291500e+003, 7.272401e+003
1.291982e+003, 7.277173e+003
1.292464e+003, 7.276320e+003
1.292947e+003, 7.274483e+003
1.293429e+003, 7.274263e+003
1.293911e+003, 7.273479e+003
1.294393e+003, 7.270409e+003
1.294875e+003, 7.267552e+003
1.295357e+003, 7.266847e+003
1.295839e+003, 7.267861e+003
1.296321e+003, 7.268499e+003
1.296803e+003, 7.269498e+003
1.297286e+003, 7.273025e+003
1.297768e+003, 7.283815e+003
1.298250e+003, 7.290520e+003
1.298732e+003, 7.290462e+003
1.299214e+003, 7.288994e+003
1.299696e+003, 7.288306e+003
1.300178e+003, 7.289011e+003
1.300660e+003, 7.295046e+003
##END=



