##NAMES=Linekite
##RRUFFID=R141026
##IDEAL CHEMISTRY=K_2_Ca_3_[(U^6+^O_2_)(CO_3_)_3_]_2_&#183;8H_2_O
##LOCALITY=Svornost Mine, Jáchymov, Krušné Hory Mts, Karlovy Vary, Bohemia, Czech Republic
##OWNER=RRUFF
##SOURCE=William W. Pinch
##DESCRIPTION=Light green tabular crystals
##STATUS=The identification of this mineral has been confirmed only by single crystal X-ray diffraction.
##URL=rruff.info/R141026
8.806445e+001, 1.937939e+004
8.854657e+001, 1.875383e+004
8.902869e+001, 1.853737e+004
8.951080e+001, 1.892424e+004
8.999292e+001, 1.963185e+004
9.047504e+001, 2.040712e+004
9.095715e+001, 2.120312e+004
9.143927e+001, 2.199369e+004
9.192139e+001, 2.274788e+004
9.240350e+001, 2.346604e+004
9.288562e+001, 2.416569e+004
9.336774e+001, 2.468947e+004
9.384985e+001, 2.487504e+004
9.433197e+001, 2.472346e+004
9.481409e+001, 2.457516e+004
9.529620e+001, 2.435316e+004
9.577832e+001, 2.414256e+004
9.626044e+001, 2.395874e+004
9.674255e+001, 2.380089e+004
9.722467e+001, 2.366332e+004
9.770679e+001, 2.354188e+004
9.818890e+001, 2.343434e+004
9.867102e+001, 2.333709e+004
9.915314e+001, 2.324796e+004
9.963525e+001, 2.316318e+004
1.001174e+002, 2.307992e+004
1.005995e+002, 2.299882e+004
1.010816e+002, 2.292523e+004
1.015637e+002, 2.285153e+004
1.020458e+002, 2.279007e+004
1.025280e+002, 2.273812e+004
1.030101e+002, 2.269310e+004
1.034922e+002, 2.265192e+004
1.039743e+002, 2.261191e+004
1.044564e+002, 2.257210e+004
1.049385e+002, 2.254592e+004
1.054207e+002, 2.253576e+004
1.059028e+002, 2.253045e+004
1.063849e+002, 2.252884e+004
1.068670e+002, 2.252872e+004
1.073491e+002, 2.251934e+004
1.078312e+002, 2.248589e+004
1.083134e+002, 2.242923e+004
1.087955e+002, 2.237815e+004
1.092776e+002, 2.233364e+004
1.097597e+002, 2.229709e+004
1.102418e+002, 2.227280e+004
1.107239e+002, 2.226501e+004
1.112061e+002, 2.226065e+004
1.116882e+002, 2.224489e+004
1.121703e+002, 2.222059e+004
1.126524e+002, 2.220179e+004
1.131345e+002, 2.220219e+004
1.136166e+002, 2.222011e+004
1.140988e+002, 2.222724e+004
1.145809e+002, 2.220871e+004
1.150630e+002, 2.218713e+004
1.155451e+002, 2.217404e+004
1.160272e+002, 2.217012e+004
1.165093e+002, 2.217008e+004
1.169915e+002, 2.216738e+004
1.174736e+002, 2.216000e+004
1.179557e+002, 2.215429e+004
1.184378e+002, 2.214944e+004
1.189199e+002, 2.214612e+004
1.194020e+002, 2.214549e+004
1.198842e+002, 2.214764e+004
1.203663e+002, 2.215075e+004
1.208484e+002, 2.215094e+004
1.213305e+002, 2.213960e+004
1.218126e+002, 2.213471e+004
1.222947e+002, 2.214249e+004
1.227769e+002, 2.215545e+004
1.232590e+002, 2.216417e+004
1.237411e+002, 2.216381e+004
1.242232e+002, 2.215578e+004
1.247053e+002, 2.214633e+004
1.251874e+002, 2.213210e+004
1.256696e+002, 2.212040e+004
1.261517e+002, 2.211681e+004
1.266338e+002, 2.211927e+004
1.271159e+002, 2.211829e+004
1.275980e+002, 2.210563e+004
1.280801e+002, 2.208563e+004
1.285623e+002, 2.207339e+004
1.290444e+002, 2.207538e+004
1.295265e+002, 2.208125e+004
1.300086e+002, 2.208023e+004
1.304907e+002, 2.207105e+004
1.309728e+002, 2.206158e+004
1.314550e+002, 2.205700e+004
1.319371e+002, 2.205528e+004
1.324192e+002, 2.205404e+004
1.329013e+002, 2.205163e+004
1.333834e+002, 2.204909e+004
1.338655e+002, 2.204945e+004
1.343477e+002, 2.205280e+004
1.348298e+002, 2.205955e+004
1.353119e+002, 2.207339e+004
1.357940e+002, 2.209029e+004
1.362761e+002, 2.210254e+004
1.367582e+002, 2.210240e+004
1.372404e+002, 2.208935e+004
1.377225e+002, 2.208521e+004
1.382046e+002, 2.210070e+004
1.386867e+002, 2.211633e+004
1.391688e+002, 2.212561e+004
1.396509e+002, 2.212921e+004
1.401331e+002, 2.213174e+004
1.406152e+002, 2.213811e+004
1.410973e+002, 2.214984e+004
1.415794e+002, 2.216048e+004
1.420615e+002, 2.217242e+004
1.425436e+002, 2.218200e+004
1.430258e+002, 2.218474e+004
1.435079e+002, 2.218071e+004
1.439900e+002, 2.217630e+004
1.444721e+002, 2.218045e+004
1.449542e+002, 2.219767e+004
1.454363e+002, 2.221228e+004
1.459185e+002, 2.222457e+004
1.464006e+002, 2.223353e+004
1.468827e+002, 2.223635e+004
1.473648e+002, 2.223114e+004
1.478469e+002, 2.222383e+004
1.483290e+002, 2.222495e+004
1.488112e+002, 2.223427e+004
1.492933e+002, 2.224520e+004
1.497754e+002, 2.225662e+004
1.502575e+002, 2.226788e+004
1.507396e+002, 2.227765e+004
1.512217e+002, 2.228619e+004
1.517039e+002, 2.229172e+004
1.521860e+002, 2.229205e+004
1.526681e+002, 2.228665e+004
1.531502e+002, 2.228110e+004
1.536323e+002, 2.228125e+004
1.541144e+002, 2.228750e+004
1.545966e+002, 2.229026e+004
1.550787e+002, 2.228401e+004
1.555608e+002, 2.227495e+004
1.560429e+002, 2.226667e+004
1.565250e+002, 2.225986e+004
1.570071e+002, 2.225442e+004
1.574893e+002, 2.225025e+004
1.579714e+002, 2.224748e+004
1.584535e+002, 2.224572e+004
1.589356e+002, 2.224732e+004
1.594177e+002, 2.224836e+004
1.598998e+002, 2.224645e+004
1.603820e+002, 2.224063e+004
1.608641e+002, 2.223030e+004
1.613462e+002, 2.221357e+004
1.618283e+002, 2.218316e+004
1.623104e+002, 2.215619e+004
1.627925e+002, 2.213828e+004
1.632747e+002, 2.212303e+004
1.637568e+002, 2.210238e+004
1.642389e+002, 2.207229e+004
1.647210e+002, 2.203598e+004
1.652031e+002, 2.200703e+004
1.656852e+002, 2.199413e+004
1.661674e+002, 2.197896e+004
1.666495e+002, 2.195706e+004
1.671316e+002, 2.193115e+004
1.676137e+002, 2.190584e+004
1.680958e+002, 2.188337e+004
1.685779e+002, 2.186399e+004
1.690601e+002, 2.184864e+004
1.695422e+002, 2.184071e+004
1.700243e+002, 2.183250e+004
1.705064e+002, 2.182129e+004
1.709885e+002, 2.180722e+004
1.714706e+002, 2.179069e+004
1.719528e+002, 2.177074e+004
1.724349e+002, 2.174865e+004
1.729170e+002, 2.172996e+004
1.733991e+002, 2.171578e+004
1.738812e+002, 2.170384e+004
1.743633e+002, 2.169333e+004
1.748455e+002, 2.168429e+004
1.753276e+002, 2.167377e+004
1.758097e+002, 2.165749e+004
1.762918e+002, 2.163892e+004
1.767739e+002, 2.162420e+004
1.772560e+002, 2.161500e+004
1.777382e+002, 2.161010e+004
1.782203e+002, 2.160916e+004
1.787024e+002, 2.161390e+004
1.791845e+002, 2.161713e+004
1.796666e+002, 2.161562e+004
1.801487e+002, 2.161038e+004
1.806309e+002, 2.160203e+004
1.811130e+002, 2.159013e+004
1.815951e+002, 2.157568e+004
1.820772e+002, 2.156095e+004
1.825593e+002, 2.154549e+004
1.830414e+002, 2.153058e+004
1.835236e+002, 2.151344e+004
1.840057e+002, 2.149748e+004
1.844878e+002, 2.148836e+004
1.849699e+002, 2.149090e+004
1.854520e+002, 2.150256e+004
1.859341e+002, 2.150757e+004
1.864163e+002, 2.150447e+004
1.868984e+002, 2.149494e+004
1.873805e+002, 2.147367e+004
1.878626e+002, 2.144681e+004
1.883447e+002, 2.142441e+004
1.888268e+002, 2.141380e+004
1.893090e+002, 2.141466e+004
1.897911e+002, 2.141453e+004
1.902732e+002, 2.141619e+004
1.907553e+002, 2.141433e+004
1.912374e+002, 2.140488e+004
1.917195e+002, 2.139060e+004
1.922017e+002, 2.137762e+004
1.926838e+002, 2.137107e+004
1.931659e+002, 2.137136e+004
1.936480e+002, 2.136726e+004
1.941301e+002, 2.135898e+004
1.946122e+002, 2.134738e+004
1.950944e+002, 2.132953e+004
1.955765e+002, 2.130767e+004
1.960586e+002, 2.128871e+004
1.965407e+002, 2.127875e+004
1.970228e+002, 2.127825e+004
1.975049e+002, 2.127649e+004
1.979871e+002, 2.127113e+004
1.984692e+002, 2.126626e+004
1.989513e+002, 2.126529e+004
1.994334e+002, 2.126788e+004
1.999155e+002, 2.126998e+004
2.003976e+002, 2.126796e+004
2.008798e+002, 2.126197e+004
2.013619e+002, 2.125721e+004
2.018440e+002, 2.125299e+004
2.023261e+002, 2.125066e+004
2.028082e+002, 2.125389e+004
2.032903e+002, 2.126328e+004
2.037725e+002, 2.126951e+004
2.042546e+002, 2.126380e+004
2.047367e+002, 2.124903e+004
2.052188e+002, 2.123296e+004
2.057009e+002, 2.121409e+004
2.061830e+002, 2.119597e+004
2.066652e+002, 2.118398e+004
2.071473e+002, 2.117919e+004
2.076294e+002, 2.117693e+004
2.081115e+002, 2.117426e+004
2.085936e+002, 2.117196e+004
2.090757e+002, 2.117156e+004
2.095579e+002, 2.117560e+004
2.100400e+002, 2.118108e+004
2.105221e+002, 2.118116e+004
2.110042e+002, 2.117321e+004
2.114863e+002, 2.116559e+004
2.119685e+002, 2.116247e+004
2.124506e+002, 2.116218e+004
2.129327e+002, 2.116256e+004
2.134148e+002, 2.116261e+004
2.138969e+002, 2.116254e+004
2.143790e+002, 2.116340e+004
2.148612e+002, 2.116695e+004
2.153433e+002, 2.116833e+004
2.158254e+002, 2.116378e+004
2.163075e+002, 2.115685e+004
2.167896e+002, 2.115289e+004
2.172717e+002, 2.115574e+004
2.177539e+002, 2.116321e+004
2.182360e+002, 2.116489e+004
2.187181e+002, 2.115409e+004
2.192002e+002, 2.114630e+004
2.196823e+002, 2.114687e+004
2.201644e+002, 2.115225e+004
2.206466e+002, 2.115776e+004
2.211287e+002, 2.116076e+004
2.216108e+002, 2.116137e+004
2.220929e+002, 2.116015e+004
2.225750e+002, 2.115566e+004
2.230571e+002, 2.115066e+004
2.235393e+002, 2.114496e+004
2.240214e+002, 2.113920e+004
2.245035e+002, 2.113385e+004
2.249856e+002, 2.112906e+004
2.254677e+002, 2.112528e+004
2.259498e+002, 2.112554e+004
2.264320e+002, 2.113748e+004
2.269141e+002, 2.114522e+004
2.273962e+002, 2.114292e+004
2.278783e+002, 2.113522e+004
2.283604e+002, 2.112961e+004
2.288425e+002, 2.113051e+004
2.293247e+002, 2.113657e+004
2.298068e+002, 2.114003e+004
2.302889e+002, 2.114202e+004
2.307710e+002, 2.114036e+004
2.312531e+002, 2.113083e+004
2.317352e+002, 2.111757e+004
2.322174e+002, 2.110812e+004
2.326995e+002, 2.110687e+004
2.331816e+002, 2.111160e+004
2.336637e+002, 2.111254e+004
2.341458e+002, 2.110675e+004
2.346279e+002, 2.110113e+004
2.351101e+002, 2.109791e+004
2.355922e+002, 2.109600e+004
2.360743e+002, 2.109365e+004
2.365564e+002, 2.109038e+004
2.370385e+002, 2.108553e+004
2.375206e+002, 2.107651e+004
2.380028e+002, 2.106019e+004
2.384849e+002, 2.104558e+004
2.389670e+002, 2.103671e+004
2.394491e+002, 2.103194e+004
2.399312e+002, 2.102753e+004
2.404133e+002, 2.102210e+004
2.408955e+002, 2.101609e+004
2.413776e+002, 2.100984e+004
2.418597e+002, 2.100184e+004
2.423418e+002, 2.099716e+004
2.428239e+002, 2.100111e+004
2.433060e+002, 2.101044e+004
2.437882e+002, 2.101582e+004
2.442703e+002, 2.101304e+004
2.447524e+002, 2.100608e+004
2.452345e+002, 2.100281e+004
2.457166e+002, 2.100494e+004
2.461987e+002, 2.100234e+004
2.466809e+002, 2.098609e+004
2.471630e+002, 2.096035e+004
2.476451e+002, 2.093921e+004
2.481272e+002, 2.092830e+004
2.486093e+002, 2.092116e+004
2.490914e+002, 2.091011e+004
2.495736e+002, 2.089522e+004
2.500557e+002, 2.087918e+004
2.505378e+002, 2.086173e+004
2.510199e+002, 2.084392e+004
2.515020e+002, 2.083088e+004
2.519841e+002, 2.082729e+004
2.524663e+002, 2.082340e+004
2.529484e+002, 2.081001e+004
2.534305e+002, 2.078802e+004
2.539126e+002, 2.076443e+004
2.543947e+002, 2.074102e+004
2.548768e+002, 2.071870e+004
2.553590e+002, 2.070265e+004
2.558411e+002, 2.069585e+004
2.563232e+002, 2.069249e+004
2.568053e+002, 2.069010e+004
2.572874e+002, 2.068781e+004
2.577695e+002, 2.068246e+004
2.582516e+002, 2.067105e+004
2.587338e+002, 2.065453e+004
2.592159e+002, 2.063818e+004
2.596980e+002, 2.062242e+004
2.601801e+002, 2.060643e+004
2.606622e+002, 2.058952e+004
2.611443e+002, 2.057209e+004
2.616265e+002, 2.055482e+004
2.621086e+002, 2.053708e+004
2.625907e+002, 2.051973e+004
2.630728e+002, 2.050801e+004
2.635549e+002, 2.050707e+004
2.640370e+002, 2.050362e+004
2.645192e+002, 2.048938e+004
2.650013e+002, 2.046973e+004
2.654834e+002, 2.045407e+004
2.659655e+002, 2.044931e+004
2.664476e+002, 2.045100e+004
2.669297e+002, 2.044229e+004
2.674119e+002, 2.041541e+004
2.678940e+002, 2.039058e+004
2.683761e+002, 2.037278e+004
2.688582e+002, 2.036072e+004
2.693403e+002, 2.035357e+004
2.698224e+002, 2.035180e+004
2.703046e+002, 2.035292e+004
2.707867e+002, 2.034954e+004
2.712688e+002, 2.033818e+004
2.717509e+002, 2.032866e+004
2.722330e+002, 2.032467e+004
2.727151e+002, 2.032254e+004
2.731973e+002, 2.031839e+004
2.736794e+002, 2.031061e+004
2.741615e+002, 2.030085e+004
2.746436e+002, 2.029258e+004
2.751257e+002, 2.028647e+004
2.756078e+002, 2.028028e+004
2.760900e+002, 2.027311e+004
2.765721e+002, 2.026593e+004
2.770542e+002, 2.025954e+004
2.775363e+002, 2.025410e+004
2.780184e+002, 2.024936e+004
2.785005e+002, 2.024563e+004
2.789827e+002, 2.024588e+004
2.794648e+002, 2.024005e+004
2.799469e+002, 2.022235e+004
2.804290e+002, 2.020329e+004
2.809111e+002, 2.019028e+004
2.813932e+002, 2.018445e+004
2.818754e+002, 2.018156e+004
2.823575e+002, 2.017637e+004
2.828396e+002, 2.016850e+004
2.833217e+002, 2.015937e+004
2.838038e+002, 2.014765e+004
2.842859e+002, 2.013608e+004
2.847681e+002, 2.012574e+004
2.852502e+002, 2.011694e+004
2.857323e+002, 2.010997e+004
2.862144e+002, 2.010562e+004
2.866965e+002, 2.010482e+004
2.871786e+002, 2.010097e+004
2.876608e+002, 2.009296e+004
2.881429e+002, 2.008318e+004
2.886250e+002, 2.007200e+004
2.891071e+002, 2.005977e+004
2.895892e+002, 2.004674e+004
2.900714e+002, 2.003267e+004
2.905535e+002, 2.001756e+004
2.910356e+002, 2.000632e+004
2.915177e+002, 2.000192e+004
2.919998e+002, 1.999840e+004
2.924819e+002, 1.999580e+004
2.929641e+002, 1.999282e+004
2.934462e+002, 1.998706e+004
2.939283e+002, 1.997653e+004
2.944104e+002, 1.996237e+004
2.948925e+002, 1.995192e+004
2.953746e+002, 1.994915e+004
2.958568e+002, 1.994581e+004
2.963389e+002, 1.994024e+004
2.968210e+002, 1.993342e+004
2.973031e+002, 1.992678e+004
2.977852e+002, 1.992096e+004
2.982673e+002, 1.991550e+004
2.987495e+002, 1.990918e+004
2.992316e+002, 1.990075e+004
2.997137e+002, 1.989264e+004
3.001958e+002, 1.988534e+004
3.006779e+002, 1.987804e+004
3.011600e+002, 1.986997e+004
3.016422e+002, 1.986082e+004
3.021243e+002, 1.985063e+004
3.026064e+002, 1.983945e+004
3.030885e+002, 1.982631e+004
3.035706e+002, 1.981384e+004
3.040527e+002, 1.979981e+004
3.045349e+002, 1.978783e+004
3.050170e+002, 1.978310e+004
3.054991e+002, 1.978531e+004
3.059812e+002, 1.978734e+004
3.064633e+002, 1.978012e+004
3.069454e+002, 1.976065e+004
3.074276e+002, 1.974226e+004
3.079097e+002, 1.972391e+004
3.083918e+002, 1.970761e+004
3.088739e+002, 1.969592e+004
3.093560e+002, 1.968788e+004
3.098381e+002, 1.967955e+004
3.103203e+002, 1.966696e+004
3.108024e+002, 1.964972e+004
3.112845e+002, 1.963679e+004
3.117666e+002, 1.962960e+004
3.122487e+002, 1.962463e+004
3.127308e+002, 1.962393e+004
3.132130e+002, 1.962446e+004
3.136951e+002, 1.961956e+004
3.141772e+002, 1.960426e+004
3.146593e+002, 1.958068e+004
3.151414e+002, 1.956428e+004
3.156235e+002, 1.955890e+004
3.161057e+002, 1.955597e+004
3.165878e+002, 1.955656e+004
3.170699e+002, 1.955800e+004
3.175520e+002, 1.955673e+004
3.180341e+002, 1.955112e+004
3.185162e+002, 1.954257e+004
3.189984e+002, 1.953473e+004
3.194805e+002, 1.952776e+004
3.199626e+002, 1.952147e+004
3.204447e+002, 1.951793e+004
3.209268e+002, 1.951404e+004
3.214089e+002, 1.950653e+004
3.218911e+002, 1.949470e+004
3.223732e+002, 1.948113e+004
3.228553e+002, 1.946934e+004
3.233374e+002, 1.945962e+004
3.238195e+002, 1.945163e+004
3.243016e+002, 1.944657e+004
3.247838e+002, 1.944213e+004
3.252659e+002, 1.943843e+004
3.257480e+002, 1.943447e+004
3.262301e+002, 1.942729e+004
3.267122e+002, 1.941358e+004
3.271943e+002, 1.939251e+004
3.276765e+002, 1.937147e+004
3.281586e+002, 1.934752e+004
3.286407e+002, 1.932625e+004
3.291228e+002, 1.931048e+004
3.296049e+002, 1.929892e+004
3.300870e+002, 1.928838e+004
3.305692e+002, 1.927659e+004
3.310513e+002, 1.926397e+004
3.315334e+002, 1.925417e+004
3.320155e+002, 1.924904e+004
3.324976e+002, 1.924485e+004
3.329797e+002, 1.924413e+004
3.334619e+002, 1.924325e+004
3.339440e+002, 1.923744e+004
3.344261e+002, 1.922459e+004
3.349082e+002, 1.920706e+004
3.353904e+002, 1.919029e+004
3.358725e+002, 1.917769e+004
3.363546e+002, 1.916076e+004
3.368367e+002, 1.913430e+004
3.373188e+002, 1.910706e+004
3.378009e+002, 1.908642e+004
3.382831e+002, 1.907388e+004
3.387652e+002, 1.906568e+004
3.392473e+002, 1.905729e+004
3.397294e+002, 1.904900e+004
3.402115e+002, 1.903941e+004
3.406936e+002, 1.902903e+004
3.411758e+002, 1.901699e+004
3.416579e+002, 1.900028e+004
3.421400e+002, 1.898079e+004
3.426221e+002, 1.896441e+004
3.431042e+002, 1.895657e+004
3.435863e+002, 1.895719e+004
3.440685e+002, 1.895684e+004
3.445506e+002, 1.896029e+004
3.450327e+002, 1.895724e+004
3.455148e+002, 1.893922e+004
3.459969e+002, 1.891415e+004
3.464790e+002, 1.889481e+004
3.469612e+002, 1.888844e+004
3.474433e+002, 1.889084e+004
3.479254e+002, 1.888874e+004
3.484075e+002, 1.888127e+004
3.488896e+002, 1.887009e+004
3.493717e+002, 1.885216e+004
3.498539e+002, 1.883310e+004
3.503360e+002, 1.881721e+004
3.508181e+002, 1.880602e+004
3.513002e+002, 1.879874e+004
3.517823e+002, 1.879441e+004
3.522644e+002, 1.879339e+004
3.527466e+002, 1.879447e+004
3.532287e+002, 1.880694e+004
3.537108e+002, 1.881394e+004
3.541929e+002, 1.880255e+004
3.546750e+002, 1.877547e+004
3.551571e+002, 1.874738e+004
3.556393e+002, 1.873192e+004
3.561214e+002, 1.872897e+004
3.566035e+002, 1.872332e+004
3.570856e+002, 1.871391e+004
3.575677e+002, 1.870298e+004
3.580498e+002, 1.868936e+004
3.585320e+002, 1.867520e+004
3.590141e+002, 1.866460e+004
3.594962e+002, 1.866099e+004
3.599783e+002, 1.866058e+004
3.604604e+002, 1.865225e+004
3.609425e+002, 1.863110e+004
3.614247e+002, 1.861332e+004
3.619068e+002, 1.860444e+004
3.623889e+002, 1.860024e+004
3.628710e+002, 1.859780e+004
3.633531e+002, 1.859638e+004
3.638352e+002, 1.859520e+004
3.643174e+002, 1.859330e+004
3.647995e+002, 1.859057e+004
3.652816e+002, 1.858795e+004
3.657637e+002, 1.858711e+004
3.662458e+002, 1.858488e+004
3.667279e+002, 1.857936e+004
3.672101e+002, 1.857059e+004
3.676922e+002, 1.855956e+004
3.681743e+002, 1.854763e+004
3.686564e+002, 1.853418e+004
3.691385e+002, 1.851549e+004
3.696206e+002, 1.848813e+004
3.701028e+002, 1.846174e+004
3.705849e+002, 1.844040e+004
3.710670e+002, 1.842406e+004
3.715491e+002, 1.841381e+004
3.720312e+002, 1.841223e+004
3.725133e+002, 1.841456e+004
3.729955e+002, 1.841541e+004
3.734776e+002, 1.841508e+004
3.739597e+002, 1.840980e+004
3.744418e+002, 1.839462e+004
3.749239e+002, 1.837526e+004
3.754060e+002, 1.835846e+004
3.758882e+002, 1.834453e+004
3.763703e+002, 1.833398e+004
3.768524e+002, 1.832811e+004
3.773345e+002, 1.832610e+004
3.778166e+002, 1.832563e+004
3.782987e+002, 1.832822e+004
3.787809e+002, 1.832830e+004
3.792630e+002, 1.831674e+004
3.797451e+002, 1.829517e+004
3.802272e+002, 1.827803e+004
3.807093e+002, 1.827497e+004
3.811914e+002, 1.827672e+004
3.816736e+002, 1.826980e+004
3.821557e+002, 1.825291e+004
3.826378e+002, 1.823607e+004
3.831199e+002, 1.822721e+004
3.836020e+002, 1.822454e+004
3.840841e+002, 1.821865e+004
3.845663e+002, 1.820738e+004
3.850484e+002, 1.819480e+004
3.855305e+002, 1.818231e+004
3.860126e+002, 1.817025e+004
3.864947e+002, 1.815907e+004
3.869768e+002, 1.814825e+004
3.874590e+002, 1.813977e+004
3.879411e+002, 1.814001e+004
3.884232e+002, 1.815364e+004
3.889053e+002, 1.816052e+004
3.893874e+002, 1.815098e+004
3.898695e+002, 1.813531e+004
3.903517e+002, 1.812627e+004
3.908338e+002, 1.812596e+004
3.913159e+002, 1.812609e+004
3.917980e+002, 1.811738e+004
3.922801e+002, 1.809814e+004
3.927622e+002, 1.808552e+004
3.932444e+002, 1.808682e+004
3.937265e+002, 1.808724e+004
3.942086e+002, 1.807832e+004
3.946907e+002, 1.806224e+004
3.951728e+002, 1.804547e+004
3.956549e+002, 1.803181e+004
3.961371e+002, 1.802051e+004
3.966192e+002, 1.800898e+004
3.971013e+002, 1.799562e+004
3.975834e+002, 1.798408e+004
3.980655e+002, 1.797474e+004
3.985476e+002, 1.796732e+004
3.990298e+002, 1.796270e+004
3.995119e+002, 1.796067e+004
3.999940e+002, 1.795824e+004
4.004761e+002, 1.795094e+004
4.009582e+002, 1.793638e+004
4.014403e+002, 1.792531e+004
4.019225e+002, 1.791944e+004
4.024046e+002, 1.791493e+004
4.028867e+002, 1.791184e+004
4.033688e+002, 1.790871e+004
4.038509e+002, 1.790260e+004
4.043330e+002, 1.789116e+004
4.048152e+002, 1.787526e+004
4.052973e+002, 1.785967e+004
4.057794e+002, 1.784044e+004
4.062615e+002, 1.782780e+004
4.067436e+002, 1.782839e+004
4.072257e+002, 1.783330e+004
4.077079e+002, 1.783374e+004
4.081900e+002, 1.782700e+004
4.086721e+002, 1.781647e+004
4.091542e+002, 1.780580e+004
4.096363e+002, 1.779422e+004
4.101184e+002, 1.778643e+004
4.106006e+002, 1.778826e+004
4.110827e+002, 1.778924e+004
4.115648e+002, 1.778328e+004
4.120469e+002, 1.777166e+004
4.125290e+002, 1.775977e+004
4.130111e+002, 1.775259e+004
4.134933e+002, 1.774763e+004
4.139754e+002, 1.773534e+004
4.144575e+002, 1.771218e+004
4.149396e+002, 1.769151e+004
4.154217e+002, 1.767810e+004
4.159038e+002, 1.767148e+004
4.163860e+002, 1.767352e+004
4.168681e+002, 1.768676e+004
4.173502e+002, 1.770161e+004
4.178323e+002, 1.770977e+004
4.183144e+002, 1.771151e+004
4.187965e+002, 1.770915e+004
4.192787e+002, 1.770246e+004
4.197608e+002, 1.769261e+004
4.202429e+002, 1.768055e+004
4.207250e+002, 1.766641e+004
4.212071e+002, 1.765138e+004
4.216892e+002, 1.763235e+004
4.221714e+002, 1.761413e+004
4.226535e+002, 1.760540e+004
4.231356e+002, 1.760678e+004
4.236177e+002, 1.760702e+004
4.240998e+002, 1.759760e+004
4.245819e+002, 1.758104e+004
4.250641e+002, 1.756917e+004
4.255462e+002, 1.756312e+004
4.260283e+002, 1.756025e+004
4.265104e+002, 1.756315e+004
4.269925e+002, 1.756807e+004
4.274746e+002, 1.756667e+004
4.279568e+002, 1.755575e+004
4.284389e+002, 1.754140e+004
4.289210e+002, 1.753331e+004
4.294031e+002, 1.753646e+004
4.298852e+002, 1.753129e+004
4.303673e+002, 1.750885e+004
4.308495e+002, 1.748524e+004
4.313316e+002, 1.747141e+004
4.318137e+002, 1.746706e+004
4.322958e+002, 1.746649e+004
4.327779e+002, 1.746615e+004
4.332600e+002, 1.746561e+004
4.337422e+002, 1.746170e+004
4.342243e+002, 1.744882e+004
4.347064e+002, 1.743903e+004
4.351885e+002, 1.743606e+004
4.356706e+002, 1.743573e+004
4.361527e+002, 1.743360e+004
4.366349e+002, 1.742830e+004
4.371170e+002, 1.742127e+004
4.375991e+002, 1.741369e+004
4.380812e+002, 1.740382e+004
4.385633e+002, 1.739971e+004
4.390454e+002, 1.740846e+004
4.395276e+002, 1.741636e+004
4.400097e+002, 1.742135e+004
4.404918e+002, 1.742111e+004
4.409739e+002, 1.741092e+004
4.414560e+002, 1.738549e+004
4.419381e+002, 1.735127e+004
4.424203e+002, 1.732687e+004
4.429024e+002, 1.731507e+004
4.433845e+002, 1.730629e+004
4.438666e+002, 1.730298e+004
4.443487e+002, 1.729839e+004
4.448308e+002, 1.728402e+004
4.453130e+002, 1.725859e+004
4.457951e+002, 1.723571e+004
4.462772e+002, 1.722967e+004
4.467593e+002, 1.723701e+004
4.472414e+002, 1.723985e+004
4.477235e+002, 1.723571e+004
4.482057e+002, 1.722802e+004
4.486878e+002, 1.721681e+004
4.491699e+002, 1.720396e+004
4.496520e+002, 1.719457e+004
4.501341e+002, 1.719297e+004
4.506162e+002, 1.719238e+004
4.510984e+002, 1.718542e+004
4.515805e+002, 1.717317e+004
4.520626e+002, 1.716274e+004
4.525447e+002, 1.715742e+004
4.530268e+002, 1.715466e+004
4.535089e+002, 1.714918e+004
4.539911e+002, 1.713987e+004
4.544732e+002, 1.713299e+004
4.549553e+002, 1.713376e+004
4.554374e+002, 1.713533e+004
4.559195e+002, 1.712931e+004
4.564016e+002, 1.711543e+004
4.568838e+002, 1.710039e+004
4.573659e+002, 1.708904e+004
4.578480e+002, 1.708134e+004
4.583301e+002, 1.707698e+004
4.588122e+002, 1.708335e+004
4.592943e+002, 1.708377e+004
4.597765e+002, 1.706998e+004
4.602586e+002, 1.704946e+004
4.607407e+002, 1.703229e+004
4.612228e+002, 1.702184e+004
4.617049e+002, 1.701385e+004
4.621870e+002, 1.700137e+004
4.626692e+002, 1.698157e+004
4.631513e+002, 1.696688e+004
4.636334e+002, 1.696082e+004
4.641155e+002, 1.695634e+004
4.645976e+002, 1.695222e+004
4.650797e+002, 1.694735e+004
4.655619e+002, 1.693962e+004
4.660440e+002, 1.692727e+004
4.665261e+002, 1.691252e+004
4.670082e+002, 1.690197e+004
4.674903e+002, 1.689718e+004
4.679724e+002, 1.689221e+004
4.684546e+002, 1.688463e+004
4.689367e+002, 1.687691e+004
4.694188e+002, 1.687163e+004
4.699009e+002, 1.686870e+004
4.703830e+002, 1.686437e+004
4.708651e+002, 1.685436e+004
4.713473e+002, 1.684036e+004
4.718294e+002, 1.682921e+004
4.723115e+002, 1.682231e+004
4.727936e+002, 1.681463e+004
4.732757e+002, 1.680041e+004
4.737578e+002, 1.678356e+004
4.742400e+002, 1.677195e+004
4.747221e+002, 1.676877e+004
4.752042e+002, 1.676755e+004
4.756863e+002, 1.676386e+004
4.761684e+002, 1.675862e+004
4.766505e+002, 1.675561e+004
4.771327e+002, 1.675687e+004
4.776148e+002, 1.675673e+004
4.780969e+002, 1.674677e+004
4.785790e+002, 1.672522e+004
4.790611e+002, 1.670757e+004
4.795432e+002, 1.670112e+004
4.800254e+002, 1.669334e+004
4.805075e+002, 1.667189e+004
4.809896e+002, 1.664181e+004
4.814717e+002, 1.661932e+004
4.819538e+002, 1.661382e+004
4.824359e+002, 1.661942e+004
4.829181e+002, 1.661905e+004
4.834002e+002, 1.660685e+004
4.838823e+002, 1.659701e+004
4.843644e+002, 1.659240e+004
4.848465e+002, 1.658799e+004
4.853286e+002, 1.657945e+004
4.858108e+002, 1.656705e+004
4.862929e+002, 1.655421e+004
4.867750e+002, 1.654317e+004
4.872571e+002, 1.653424e+004
4.877392e+002, 1.653072e+004
4.882213e+002, 1.653740e+004
4.887035e+002, 1.654140e+004
4.891856e+002, 1.653899e+004
4.896677e+002, 1.653261e+004
4.901498e+002, 1.652420e+004
4.906319e+002, 1.651421e+004
4.911140e+002, 1.650351e+004
4.915962e+002, 1.649260e+004
4.920783e+002, 1.648158e+004
4.925604e+002, 1.647195e+004
4.930425e+002, 1.646480e+004
4.935246e+002, 1.645731e+004
4.940067e+002, 1.644782e+004
4.944889e+002, 1.643649e+004
4.949710e+002, 1.642291e+004
4.954531e+002, 1.640407e+004
4.959352e+002, 1.638644e+004
4.964173e+002, 1.637742e+004
4.968994e+002, 1.637444e+004
4.973816e+002, 1.636735e+004
4.978637e+002, 1.635221e+004
4.983458e+002, 1.633388e+004
4.988279e+002, 1.631900e+004
4.993100e+002, 1.630791e+004
4.997921e+002, 1.629897e+004
5.002743e+002, 1.629683e+004
5.007564e+002, 1.629281e+004
5.012385e+002, 1.627944e+004
5.017206e+002, 1.625897e+004
5.022027e+002, 1.623922e+004
5.026848e+002, 1.622467e+004
5.031670e+002, 1.621344e+004
5.036491e+002, 1.619984e+004
5.041312e+002, 1.617849e+004
5.046133e+002, 1.616372e+004
5.050954e+002, 1.615969e+004
5.055775e+002, 1.615872e+004
5.060597e+002, 1.615707e+004
5.065418e+002, 1.615367e+004
5.070239e+002, 1.614788e+004
5.075060e+002, 1.613884e+004
5.079881e+002, 1.612717e+004
5.084702e+002, 1.611551e+004
5.089524e+002, 1.610284e+004
5.094345e+002, 1.609259e+004
5.099166e+002, 1.608841e+004
5.103987e+002, 1.608575e+004
5.108808e+002, 1.608093e+004
5.113629e+002, 1.607339e+004
5.118451e+002, 1.606382e+004
5.123271e+002, 1.605243e+004
5.128093e+002, 1.603947e+004
5.132914e+002, 1.602548e+004
5.137735e+002, 1.601022e+004
5.142556e+002, 1.599530e+004
5.147377e+002, 1.598038e+004
5.152198e+002, 1.596700e+004
5.157020e+002, 1.595955e+004
5.161841e+002, 1.596213e+004
5.166662e+002, 1.596481e+004
5.171483e+002, 1.596372e+004
5.176304e+002, 1.595968e+004
5.181125e+002, 1.595442e+004
5.185947e+002, 1.594830e+004
5.190768e+002, 1.593934e+004
5.195589e+002, 1.592482e+004
5.200410e+002, 1.590376e+004
5.205231e+002, 1.588573e+004
5.210052e+002, 1.587135e+004
5.214874e+002, 1.585876e+004
5.219695e+002, 1.584713e+004
5.224516e+002, 1.583695e+004
5.229337e+002, 1.582998e+004
5.234158e+002, 1.582666e+004
5.238979e+002, 1.582396e+004
5.243801e+002, 1.581690e+004
5.248622e+002, 1.580447e+004
5.253443e+002, 1.579328e+004
5.258264e+002, 1.578421e+004
5.263085e+002, 1.577579e+004
5.267906e+002, 1.576880e+004
5.272728e+002, 1.576177e+004
5.277549e+002, 1.575151e+004
5.282370e+002, 1.573545e+004
5.287191e+002, 1.571835e+004
5.292012e+002, 1.570692e+004
5.296833e+002, 1.570070e+004
5.301655e+002, 1.569359e+004
5.306476e+002, 1.568395e+004
5.311297e+002, 1.567301e+004
5.316118e+002, 1.566180e+004
5.320939e+002, 1.565036e+004
5.325760e+002, 1.563910e+004
5.330582e+002, 1.562604e+004
5.335403e+002, 1.561501e+004
5.340224e+002, 1.561059e+004
5.345045e+002, 1.561093e+004
5.349866e+002, 1.561031e+004
5.354688e+002, 1.560627e+004
5.359509e+002, 1.560009e+004
5.364330e+002, 1.559417e+004
5.369151e+002, 1.559006e+004
5.373972e+002, 1.558250e+004
5.378793e+002, 1.556835e+004
5.383615e+002, 1.555404e+004
5.388436e+002, 1.554310e+004
5.393257e+002, 1.553492e+004
5.398078e+002, 1.552726e+004
5.402899e+002, 1.551883e+004
5.407720e+002, 1.551018e+004
5.412542e+002, 1.550257e+004
5.417363e+002, 1.549613e+004
5.422184e+002, 1.548994e+004
5.427005e+002, 1.548140e+004
5.431826e+002, 1.547515e+004
5.436647e+002, 1.547686e+004
5.441469e+002, 1.548395e+004
5.446290e+002, 1.548640e+004
5.451111e+002, 1.547783e+004
5.455932e+002, 1.546273e+004
5.460753e+002, 1.544641e+004
5.465574e+002, 1.542902e+004
5.470396e+002, 1.541372e+004
5.475217e+002, 1.540197e+004
5.480038e+002, 1.539265e+004
5.484859e+002, 1.538487e+004
5.489680e+002, 1.537919e+004
5.494501e+002, 1.537082e+004
5.499323e+002, 1.535718e+004
5.504144e+002, 1.534201e+004
5.508965e+002, 1.532693e+004
5.513786e+002, 1.531283e+004
5.518607e+002, 1.530237e+004
5.523428e+002, 1.529743e+004
5.528250e+002, 1.529458e+004
5.533071e+002, 1.528481e+004
5.537892e+002, 1.526095e+004
5.542713e+002, 1.524326e+004
5.547534e+002, 1.523634e+004
5.552355e+002, 1.523069e+004
5.557177e+002, 1.522125e+004
5.561998e+002, 1.520847e+004
5.566819e+002, 1.519468e+004
5.571640e+002, 1.518088e+004
5.576461e+002, 1.516792e+004
5.581282e+002, 1.515882e+004
5.586104e+002, 1.515462e+004
5.590925e+002, 1.514722e+004
5.595746e+002, 1.513148e+004
5.600567e+002, 1.511506e+004
5.605388e+002, 1.510533e+004
5.610209e+002, 1.510146e+004
5.615031e+002, 1.509717e+004
5.619852e+002, 1.508737e+004
5.624673e+002, 1.507811e+004
5.629494e+002, 1.507771e+004
5.634315e+002, 1.508421e+004
5.639136e+002, 1.508785e+004
5.643958e+002, 1.508436e+004
5.648779e+002, 1.507664e+004
5.653600e+002, 1.506939e+004
5.658421e+002, 1.506281e+004
5.663242e+002, 1.505620e+004
5.668063e+002, 1.505018e+004
5.672885e+002, 1.504341e+004
5.677706e+002, 1.503445e+004
5.682527e+002, 1.502417e+004
5.687348e+002, 1.501439e+004
5.692169e+002, 1.500591e+004
5.696990e+002, 1.499870e+004
5.701812e+002, 1.499282e+004
5.706633e+002, 1.498858e+004
5.711454e+002, 1.498472e+004
5.716275e+002, 1.498384e+004
5.721096e+002, 1.498044e+004
5.725917e+002, 1.497036e+004
5.730739e+002, 1.495585e+004
5.735560e+002, 1.494202e+004
5.740381e+002, 1.493057e+004
5.745202e+002, 1.492101e+004
5.750023e+002, 1.491379e+004
5.754844e+002, 1.490837e+004
5.759666e+002, 1.490141e+004
5.764487e+002, 1.489158e+004
5.769308e+002, 1.488163e+004
5.774129e+002, 1.487490e+004
5.778950e+002, 1.487145e+004
5.783771e+002, 1.486581e+004
5.788593e+002, 1.485486e+004
5.793414e+002, 1.484482e+004
5.798235e+002, 1.483910e+004
5.803056e+002, 1.483589e+004
5.807877e+002, 1.483219e+004
5.812698e+002, 1.482708e+004
5.817520e+002, 1.482199e+004
5.822341e+002, 1.481963e+004
5.827162e+002, 1.482094e+004
5.831984e+002, 1.481500e+004
5.836805e+002, 1.479326e+004
5.841626e+002, 1.477484e+004
5.846447e+002, 1.476842e+004
5.851268e+002, 1.476650e+004
5.856089e+002, 1.475940e+004
5.860911e+002, 1.474450e+004
5.865732e+002, 1.472831e+004
5.870553e+002, 1.471653e+004
5.875374e+002, 1.470841e+004
5.880195e+002, 1.470236e+004
5.885016e+002, 1.469917e+004
5.889838e+002, 1.469336e+004
5.894659e+002, 1.468085e+004
5.899480e+002, 1.466320e+004
5.904301e+002, 1.464512e+004
5.909122e+002, 1.462321e+004
5.913943e+002, 1.460764e+004
5.918765e+002, 1.460642e+004
5.923586e+002, 1.461012e+004
5.928407e+002, 1.460799e+004
5.933228e+002, 1.459962e+004
5.938049e+002, 1.459243e+004
5.942870e+002, 1.459288e+004
5.947692e+002, 1.459742e+004
5.952513e+002, 1.458807e+004
5.957334e+002, 1.455146e+004
5.962155e+002, 1.452476e+004
5.966976e+002, 1.451590e+004
5.971797e+002, 1.451354e+004
5.976619e+002, 1.451149e+004
5.981440e+002, 1.450892e+004
5.986261e+002, 1.450668e+004
5.991082e+002, 1.450581e+004
5.995903e+002, 1.450501e+004
6.000724e+002, 1.450096e+004
6.005546e+002, 1.449356e+004
6.010367e+002, 1.448938e+004
6.015188e+002, 1.449346e+004
6.020009e+002, 1.449691e+004
6.024830e+002, 1.448595e+004
6.029651e+002, 1.446103e+004
6.034473e+002, 1.443923e+004
6.039294e+002, 1.442359e+004
6.044115e+002, 1.441105e+004
6.048936e+002, 1.440173e+004
6.053757e+002, 1.439386e+004
6.058578e+002, 1.438367e+004
6.063400e+002, 1.436991e+004
6.068221e+002, 1.435562e+004
6.073042e+002, 1.434497e+004
6.077863e+002, 1.433825e+004
6.082684e+002, 1.433426e+004
6.087505e+002, 1.434027e+004
6.092327e+002, 1.434060e+004
6.097148e+002, 1.432730e+004
6.101969e+002, 1.430765e+004
6.106790e+002, 1.429043e+004
6.111611e+002, 1.427809e+004
6.116432e+002, 1.426770e+004
6.121254e+002, 1.425673e+004
6.126075e+002, 1.424555e+004
6.130896e+002, 1.423591e+004
6.135717e+002, 1.422809e+004
6.140538e+002, 1.421930e+004
6.145359e+002, 1.420665e+004
6.150181e+002, 1.419230e+004
6.155002e+002, 1.418300e+004
6.159823e+002, 1.418028e+004
6.164644e+002, 1.417800e+004
6.169465e+002, 1.417674e+004
6.174286e+002, 1.417397e+004
6.179108e+002, 1.416668e+004
6.183929e+002, 1.415568e+004
6.188750e+002, 1.414406e+004
6.193571e+002, 1.413365e+004
6.198392e+002, 1.412458e+004
6.203214e+002, 1.411786e+004
6.208035e+002, 1.411550e+004
6.212856e+002, 1.410943e+004
6.217677e+002, 1.409465e+004
6.222498e+002, 1.408004e+004
6.227319e+002, 1.407215e+004
6.232141e+002, 1.406818e+004
6.236962e+002, 1.406019e+004
6.241783e+002, 1.404303e+004
6.246604e+002, 1.402486e+004
6.251425e+002, 1.401313e+004
6.256246e+002, 1.400691e+004
6.261068e+002, 1.400489e+004
6.265889e+002, 1.400753e+004
6.270710e+002, 1.400689e+004
6.275531e+002, 1.399376e+004
6.280352e+002, 1.396905e+004
6.285173e+002, 1.395285e+004
6.289995e+002, 1.395026e+004
6.294816e+002, 1.394843e+004
6.299637e+002, 1.394442e+004
6.304458e+002, 1.394004e+004
6.309279e+002, 1.393829e+004
6.314100e+002, 1.393861e+004
6.318922e+002, 1.393643e+004
6.323743e+002, 1.392726e+004
6.328564e+002, 1.391309e+004
6.333385e+002, 1.390108e+004
6.338206e+002, 1.389107e+004
6.343027e+002, 1.388378e+004
6.347849e+002, 1.388218e+004
6.352670e+002, 1.388071e+004
6.357491e+002, 1.387349e+004
6.362312e+002, 1.386103e+004
6.367133e+002, 1.384903e+004
6.371954e+002, 1.383835e+004
6.376776e+002, 1.382959e+004
6.381597e+002, 1.382603e+004
6.386418e+002, 1.382464e+004
6.391239e+002, 1.381792e+004
6.396060e+002, 1.380350e+004
6.400881e+002, 1.378415e+004
6.405703e+002, 1.376236e+004
6.410524e+002, 1.373738e+004
6.415345e+002, 1.372000e+004
6.420166e+002, 1.371654e+004
6.424987e+002, 1.371388e+004
6.429808e+002, 1.371414e+004
6.434630e+002, 1.371139e+004
6.439451e+002, 1.369639e+004
6.444272e+002, 1.366903e+004
6.449093e+002, 1.364370e+004
6.453914e+002, 1.363427e+004
6.458735e+002, 1.363457e+004
6.463557e+002, 1.362902e+004
6.468378e+002, 1.361717e+004
6.473199e+002, 1.360691e+004
6.478020e+002, 1.360225e+004
6.482841e+002, 1.359961e+004
6.487662e+002, 1.359241e+004
6.492484e+002, 1.357910e+004
6.497305e+002, 1.356971e+004
6.502126e+002, 1.357062e+004
6.506947e+002, 1.356995e+004
6.511768e+002, 1.355687e+004
6.516589e+002, 1.353869e+004
6.521411e+002, 1.353033e+004
6.526232e+002, 1.353651e+004
6.531053e+002, 1.354616e+004
6.535874e+002, 1.354470e+004
6.540695e+002, 1.353204e+004
6.545516e+002, 1.352001e+004
6.550338e+002, 1.350863e+004
6.555159e+002, 1.349800e+004
6.559980e+002, 1.348922e+004
6.564801e+002, 1.348067e+004
6.569622e+002, 1.346935e+004
6.574443e+002, 1.345433e+004
6.579265e+002, 1.344364e+004
6.584086e+002, 1.344635e+004
6.588907e+002, 1.345145e+004
6.593728e+002, 1.344514e+004
6.598549e+002, 1.342946e+004
6.603370e+002, 1.341645e+004
6.608192e+002, 1.341190e+004
6.613013e+002, 1.340979e+004
6.617834e+002, 1.339878e+004
6.622655e+002, 1.337412e+004
6.627476e+002, 1.335816e+004
6.632297e+002, 1.335825e+004
6.637119e+002, 1.335908e+004
6.641940e+002, 1.335889e+004
6.646761e+002, 1.335556e+004
6.651582e+002, 1.334526e+004
6.656403e+002, 1.332696e+004
6.661224e+002, 1.330842e+004
6.666046e+002, 1.329656e+004
6.670867e+002, 1.328912e+004
6.675688e+002, 1.328072e+004
6.680509e+002, 1.327115e+004
6.685330e+002, 1.326180e+004
6.690151e+002, 1.325328e+004
6.694973e+002, 1.324565e+004
6.699794e+002, 1.323934e+004
6.704615e+002, 1.323577e+004
6.709436e+002, 1.322958e+004
6.714257e+002, 1.321694e+004
6.719078e+002, 1.320546e+004
6.723900e+002, 1.320061e+004
6.728721e+002, 1.319910e+004
6.733542e+002, 1.319474e+004
6.738363e+002, 1.318535e+004
6.743184e+002, 1.317456e+004
6.748005e+002, 1.316470e+004
6.752827e+002, 1.315632e+004
6.757648e+002, 1.315802e+004
6.762469e+002, 1.317417e+004
6.767290e+002, 1.318519e+004
6.772111e+002, 1.318131e+004
6.776932e+002, 1.316669e+004
6.781754e+002, 1.314702e+004
6.786575e+002, 1.311987e+004
6.791396e+002, 1.310100e+004
6.796217e+002, 1.309981e+004
6.801038e+002, 1.310301e+004
6.805859e+002, 1.310271e+004
6.810681e+002, 1.309850e+004
6.815502e+002, 1.309054e+004
6.820323e+002, 1.307910e+004
6.825144e+002, 1.306653e+004
6.829965e+002, 1.305601e+004
6.834786e+002, 1.304756e+004
6.839608e+002, 1.304156e+004
6.844429e+002, 1.304007e+004
6.849250e+002, 1.303725e+004
6.854071e+002, 1.302949e+004
6.858892e+002, 1.301977e+004
6.863713e+002, 1.301074e+004
6.868535e+002, 1.300257e+004
6.873356e+002, 1.299601e+004
6.878177e+002, 1.299321e+004
6.882998e+002, 1.299076e+004
6.887819e+002, 1.298502e+004
6.892640e+002, 1.297653e+004
6.897462e+002, 1.296723e+004
6.902283e+002, 1.295778e+004
6.907104e+002, 1.294921e+004
6.911925e+002, 1.294330e+004
6.916746e+002, 1.294053e+004
6.921567e+002, 1.293630e+004
6.926389e+002, 1.293081e+004
6.931210e+002, 1.292350e+004
6.936031e+002, 1.291191e+004
6.940852e+002, 1.290003e+004
6.945673e+002, 1.289298e+004
6.950494e+002, 1.289098e+004
6.955316e+002, 1.288761e+004
6.960137e+002, 1.287789e+004
6.964958e+002, 1.286554e+004
6.969779e+002, 1.285638e+004
6.974600e+002, 1.284937e+004
6.979421e+002, 1.283843e+004
6.984243e+002, 1.282116e+004
6.989064e+002, 1.280202e+004
6.993885e+002, 1.278617e+004
6.998706e+002, 1.277356e+004
7.003527e+002, 1.276480e+004
7.008348e+002, 1.276466e+004
7.013170e+002, 1.276254e+004
7.017991e+002, 1.275637e+004
7.022812e+002, 1.274759e+004
7.027633e+002, 1.273644e+004
7.032454e+002, 1.272365e+004
7.037275e+002, 1.271204e+004
7.042097e+002, 1.270183e+004
7.046918e+002, 1.269507e+004
7.051739e+002, 1.269782e+004
7.056560e+002, 1.270812e+004
7.061381e+002, 1.271321e+004
7.066202e+002, 1.270926e+004
7.071024e+002, 1.270087e+004
7.075845e+002, 1.269250e+004
7.080666e+002, 1.268400e+004
7.085487e+002, 1.267352e+004
7.090308e+002, 1.265804e+004
7.095129e+002, 1.264453e+004
7.099951e+002, 1.263195e+004
7.104772e+002, 1.262310e+004
7.109593e+002, 1.262291e+004
7.114414e+002, 1.262917e+004
7.119235e+002, 1.263357e+004
7.124056e+002, 1.263172e+004
7.128878e+002, 1.262466e+004
7.133699e+002, 1.261106e+004
7.138520e+002, 1.259242e+004
7.143341e+002, 1.258099e+004
7.148162e+002, 1.258028e+004
7.152983e+002, 1.258091e+004
7.157805e+002, 1.257535e+004
7.162626e+002, 1.256478e+004
7.167447e+002, 1.255562e+004
7.172268e+002, 1.255030e+004
7.177089e+002, 1.254302e+004
7.181910e+002, 1.252923e+004
7.186732e+002, 1.251693e+004
7.191553e+002, 1.251364e+004
7.196374e+002, 1.251657e+004
7.201195e+002, 1.251745e+004
7.206016e+002, 1.251202e+004
7.210837e+002, 1.250527e+004
7.215659e+002, 1.250456e+004
7.220480e+002, 1.250864e+004
7.225301e+002, 1.251090e+004
7.230122e+002, 1.251058e+004
7.234943e+002, 1.250855e+004
7.239764e+002, 1.250483e+004
7.244586e+002, 1.249996e+004
7.249407e+002, 1.249486e+004
7.254228e+002, 1.248705e+004
7.259049e+002, 1.248495e+004
7.263870e+002, 1.249369e+004
7.268691e+002, 1.250355e+004
7.273513e+002, 1.251000e+004
7.278334e+002, 1.251362e+004
7.283155e+002, 1.251588e+004
7.287976e+002, 1.251730e+004
7.292797e+002, 1.251819e+004
7.297618e+002, 1.251794e+004
7.302440e+002, 1.251742e+004
7.307261e+002, 1.252011e+004
7.312082e+002, 1.252627e+004
7.316903e+002, 1.253319e+004
7.321724e+002, 1.253976e+004
7.326545e+002, 1.254663e+004
7.331367e+002, 1.255563e+004
7.336188e+002, 1.256815e+004
7.341009e+002, 1.257413e+004
7.345830e+002, 1.256648e+004
7.350651e+002, 1.256084e+004
7.355472e+002, 1.256499e+004
7.360294e+002, 1.257254e+004
7.365115e+002, 1.257671e+004
7.369936e+002, 1.257611e+004
7.374757e+002, 1.257228e+004
7.379578e+002, 1.256531e+004
7.384399e+002, 1.255682e+004
7.389221e+002, 1.254920e+004
7.394042e+002, 1.254260e+004
7.398863e+002, 1.254067e+004
7.403684e+002, 1.254572e+004
7.408505e+002, 1.254997e+004
7.413326e+002, 1.254601e+004
7.418148e+002, 1.253445e+004
7.422969e+002, 1.252199e+004
7.427790e+002, 1.250657e+004
7.432611e+002, 1.249320e+004
7.437432e+002, 1.248466e+004
7.442253e+002, 1.247663e+004
7.447075e+002, 1.246612e+004
7.451896e+002, 1.245330e+004
7.456717e+002, 1.243940e+004
7.461538e+002, 1.242483e+004
7.466359e+002, 1.241026e+004
7.471180e+002, 1.239619e+004
7.476002e+002, 1.238277e+004
7.480823e+002, 1.237089e+004
7.485644e+002, 1.236077e+004
7.490465e+002, 1.234966e+004
7.495286e+002, 1.233643e+004
7.500107e+002, 1.232025e+004
7.504929e+002, 1.229843e+004
7.509750e+002, 1.226578e+004
7.514571e+002, 1.224030e+004
7.519392e+002, 1.222353e+004
7.524213e+002, 1.221162e+004
7.529034e+002, 1.220824e+004
7.533856e+002, 1.220633e+004
7.538677e+002, 1.219568e+004
7.543498e+002, 1.217429e+004
7.548319e+002, 1.215135e+004
7.553140e+002, 1.213408e+004
7.557961e+002, 1.211937e+004
7.562783e+002, 1.210075e+004
7.567604e+002, 1.207941e+004
7.572425e+002, 1.206245e+004
7.577246e+002, 1.205243e+004
7.582067e+002, 1.204628e+004
7.586888e+002, 1.204135e+004
7.591710e+002, 1.203755e+004
7.596531e+002, 1.202916e+004
7.601352e+002, 1.201302e+004
7.606173e+002, 1.199693e+004
7.610994e+002, 1.198190e+004
7.615815e+002, 1.196734e+004
7.620637e+002, 1.195282e+004
7.625458e+002, 1.193835e+004
7.630279e+002, 1.192439e+004
7.635100e+002, 1.191260e+004
7.639921e+002, 1.189864e+004
7.644742e+002, 1.187562e+004
7.649564e+002, 1.184907e+004
7.654385e+002, 1.183003e+004
7.659206e+002, 1.181908e+004
7.664027e+002, 1.180895e+004
7.668848e+002, 1.179480e+004
7.673669e+002, 1.177995e+004
7.678491e+002, 1.177367e+004
7.683312e+002, 1.178029e+004
7.688133e+002, 1.177925e+004
7.692954e+002, 1.176722e+004
7.697775e+002, 1.175160e+004
7.702596e+002, 1.173242e+004
7.707418e+002, 1.171310e+004
7.712239e+002, 1.169834e+004
7.717060e+002, 1.168877e+004
7.721881e+002, 1.168132e+004
7.726702e+002, 1.167514e+004
7.731523e+002, 1.167032e+004
7.736345e+002, 1.166873e+004
7.741166e+002, 1.166818e+004
7.745987e+002, 1.166400e+004
7.750808e+002, 1.165514e+004
7.755629e+002, 1.164471e+004
7.760450e+002, 1.163556e+004
7.765272e+002, 1.162769e+004
7.770093e+002, 1.162116e+004
7.774914e+002, 1.161628e+004
7.779735e+002, 1.161143e+004
7.784556e+002, 1.160657e+004
7.789377e+002, 1.160113e+004
7.794199e+002, 1.159435e+004
7.799020e+002, 1.158647e+004
7.803841e+002, 1.157854e+004
7.808662e+002, 1.156968e+004
7.813483e+002, 1.156205e+004
7.818304e+002, 1.155647e+004
7.823126e+002, 1.155194e+004
7.827947e+002, 1.154779e+004
7.832768e+002, 1.154386e+004
7.837589e+002, 1.153992e+004
7.842410e+002, 1.153584e+004
7.847231e+002, 1.153243e+004
7.852053e+002, 1.153152e+004
7.856874e+002, 1.153218e+004
7.861695e+002, 1.153058e+004
7.866516e+002, 1.152649e+004
7.871337e+002, 1.152151e+004
7.876158e+002, 1.151611e+004
7.880980e+002, 1.151095e+004
7.885801e+002, 1.150735e+004
7.890622e+002, 1.150603e+004
7.895443e+002, 1.150215e+004
7.900264e+002, 1.149171e+004
7.905085e+002, 1.148406e+004
7.909907e+002, 1.148256e+004
7.914728e+002, 1.148378e+004
7.919549e+002, 1.148593e+004
7.924370e+002, 1.148796e+004
7.929191e+002, 1.148722e+004
7.934012e+002, 1.148092e+004
7.938834e+002, 1.147353e+004
7.943655e+002, 1.146847e+004
7.948476e+002, 1.146577e+004
7.953297e+002, 1.146724e+004
7.958118e+002, 1.147226e+004
7.962939e+002, 1.147360e+004
7.967761e+002, 1.146576e+004
7.972582e+002, 1.145436e+004
7.977403e+002, 1.145456e+004
7.982224e+002, 1.147117e+004
7.987045e+002, 1.147843e+004
7.991866e+002, 1.147022e+004
7.996688e+002, 1.146154e+004
8.001509e+002, 1.145769e+004
8.006330e+002, 1.145803e+004
8.011151e+002, 1.146239e+004
8.015972e+002, 1.147092e+004
8.020793e+002, 1.148214e+004
8.025615e+002, 1.149658e+004
8.030436e+002, 1.151286e+004
8.035257e+002, 1.153023e+004
8.040078e+002, 1.154890e+004
8.044899e+002, 1.157011e+004
8.049720e+002, 1.159333e+004
8.054542e+002, 1.161466e+004
8.059363e+002, 1.162977e+004
8.064184e+002, 1.164301e+004
8.069005e+002, 1.166357e+004
8.073826e+002, 1.169129e+004
8.078647e+002, 1.172471e+004
8.083469e+002, 1.176411e+004
8.088290e+002, 1.180625e+004
8.093111e+002, 1.184856e+004
8.097932e+002, 1.189211e+004
8.102753e+002, 1.193961e+004
8.107574e+002, 1.199067e+004
8.112396e+002, 1.204758e+004
8.117217e+002, 1.211052e+004
8.122038e+002, 1.217914e+004
8.126859e+002, 1.225608e+004
8.131680e+002, 1.233778e+004
8.136501e+002, 1.241860e+004
8.141323e+002, 1.249805e+004
8.146144e+002, 1.258099e+004
8.150965e+002, 1.267123e+004
8.155786e+002, 1.276605e+004
8.160607e+002, 1.285960e+004
8.165428e+002, 1.295490e+004
8.170250e+002, 1.306057e+004
8.175071e+002, 1.317825e+004
8.179892e+002, 1.330205e+004
8.184713e+002, 1.342751e+004
8.189534e+002, 1.355593e+004
8.194355e+002, 1.369239e+004
8.199177e+002, 1.383883e+004
8.203998e+002, 1.398546e+004
8.208819e+002, 1.413233e+004
8.213640e+002, 1.427762e+004
8.218461e+002, 1.442845e+004
8.223282e+002, 1.457384e+004
8.228104e+002, 1.469541e+004
8.232925e+002, 1.479418e+004
8.237746e+002, 1.486449e+004
8.242567e+002, 1.490908e+004
8.247388e+002, 1.492172e+004
8.252209e+002, 1.490199e+004
8.257031e+002, 1.484688e+004
8.261852e+002, 1.474789e+004
8.266673e+002, 1.460658e+004
8.271494e+002, 1.443981e+004
8.276315e+002, 1.425618e+004
8.281136e+002, 1.406089e+004
8.285958e+002, 1.385875e+004
8.290779e+002, 1.365037e+004
8.295600e+002, 1.343426e+004
8.300421e+002, 1.320973e+004
8.305242e+002, 1.298930e+004
8.310063e+002, 1.278081e+004
8.314885e+002, 1.258486e+004
8.319706e+002, 1.240559e+004
8.324527e+002, 1.224506e+004
8.329348e+002, 1.209403e+004
8.334169e+002, 1.194686e+004
8.338990e+002, 1.181684e+004
8.343812e+002, 1.171153e+004
8.348633e+002, 1.162337e+004
8.353454e+002, 1.154196e+004
8.358275e+002, 1.146656e+004
8.363096e+002, 1.140346e+004
8.367917e+002, 1.136302e+004
8.372739e+002, 1.132715e+004
8.377560e+002, 1.128322e+004
8.382381e+002, 1.123729e+004
8.387202e+002, 1.119794e+004
8.392023e+002, 1.116624e+004
8.396844e+002, 1.113883e+004
8.401666e+002, 1.111431e+004
8.406487e+002, 1.109050e+004
8.411308e+002, 1.106247e+004
8.416129e+002, 1.103130e+004
8.420950e+002, 1.100540e+004
8.425771e+002, 1.098590e+004
8.430593e+002, 1.096798e+004
8.435414e+002, 1.094939e+004
8.440235e+002, 1.092998e+004
8.445056e+002, 1.090850e+004
8.449877e+002, 1.088336e+004
8.454698e+002, 1.086483e+004
8.459520e+002, 1.085924e+004
8.464341e+002, 1.085206e+004
8.469162e+002, 1.083818e+004
8.473983e+002, 1.082288e+004
8.478804e+002, 1.081044e+004
8.483625e+002, 1.080092e+004
8.488447e+002, 1.079253e+004
8.493268e+002, 1.078505e+004
8.498089e+002, 1.077807e+004
8.502910e+002, 1.077128e+004
8.507731e+002, 1.076479e+004
8.512552e+002, 1.075930e+004
8.517374e+002, 1.075420e+004
8.522195e+002, 1.074753e+004
8.527016e+002, 1.073839e+004
8.531837e+002, 1.072787e+004
8.536658e+002, 1.071624e+004
8.541479e+002, 1.070434e+004
8.546301e+002, 1.069814e+004
8.551122e+002, 1.069798e+004
8.555943e+002, 1.069086e+004
8.560764e+002, 1.067092e+004
8.565585e+002, 1.064815e+004
8.570406e+002, 1.063310e+004
8.575228e+002, 1.062525e+004
8.580049e+002, 1.061744e+004
8.584870e+002, 1.060872e+004
8.589691e+002, 1.060198e+004
8.594512e+002, 1.059991e+004
8.599333e+002, 1.059749e+004
8.604155e+002, 1.059274e+004
8.608976e+002, 1.058566e+004
8.613797e+002, 1.057550e+004
8.618618e+002, 1.056116e+004
8.623439e+002, 1.054981e+004
8.628260e+002, 1.054805e+004
8.633082e+002, 1.054698e+004
8.637903e+002, 1.053912e+004
8.642724e+002, 1.052708e+004
8.647545e+002, 1.051538e+004
8.652366e+002, 1.050518e+004
8.657188e+002, 1.049554e+004
8.662009e+002, 1.048498e+004
8.666830e+002, 1.047558e+004
8.671651e+002, 1.047312e+004
8.676472e+002, 1.047602e+004
8.681293e+002, 1.047494e+004
8.686115e+002, 1.046841e+004
8.690936e+002, 1.045750e+004
8.695757e+002, 1.044133e+004
8.700578e+002, 1.042491e+004
8.705399e+002, 1.041934e+004
8.710220e+002, 1.042774e+004
8.715042e+002, 1.043158e+004
8.719863e+002, 1.043110e+004
8.724684e+002, 1.042571e+004
8.729505e+002, 1.041034e+004
8.734326e+002, 1.039366e+004
8.739147e+002, 1.038489e+004
8.743969e+002, 1.038260e+004
8.748790e+002, 1.037612e+004
8.753611e+002, 1.035958e+004
8.758432e+002, 1.034428e+004
8.763253e+002, 1.033352e+004
8.768074e+002, 1.032627e+004
8.772896e+002, 1.032393e+004
8.777717e+002, 1.032387e+004
8.782538e+002, 1.031897e+004
8.787359e+002, 1.030673e+004
8.792180e+002, 1.029808e+004
8.797001e+002, 1.030943e+004
8.801823e+002, 1.032792e+004
8.806644e+002, 1.032796e+004
8.811465e+002, 1.031295e+004
8.816286e+002, 1.029854e+004
8.821107e+002, 1.028896e+004
8.825928e+002, 1.028245e+004
8.830750e+002, 1.027825e+004
8.835571e+002, 1.027467e+004
8.840392e+002, 1.026482e+004
8.845213e+002, 1.024677e+004
8.850034e+002, 1.023412e+004
8.854855e+002, 1.022981e+004
8.859677e+002, 1.022720e+004
8.864498e+002, 1.022421e+004
8.869319e+002, 1.022013e+004
8.874140e+002, 1.021327e+004
8.878961e+002, 1.020314e+004
8.883782e+002, 1.019420e+004
8.888604e+002, 1.018826e+004
8.893425e+002, 1.018157e+004
8.898246e+002, 1.017040e+004
8.903067e+002, 1.016030e+004
8.907888e+002, 1.015990e+004
8.912709e+002, 1.016505e+004
8.917531e+002, 1.016096e+004
8.922352e+002, 1.013975e+004
8.927173e+002, 1.011733e+004
8.931994e+002, 1.010305e+004
8.936815e+002, 1.009456e+004
8.941636e+002, 1.009125e+004
8.946458e+002, 1.009106e+004
8.951279e+002, 1.008950e+004
8.956100e+002, 1.008519e+004
8.960921e+002, 1.008039e+004
8.965742e+002, 1.007742e+004
8.970563e+002, 1.007531e+004
8.975385e+002, 1.007155e+004
8.980206e+002, 1.006616e+004
8.985027e+002, 1.005965e+004
8.989848e+002, 1.005187e+004
8.994669e+002, 1.004532e+004
8.999490e+002, 1.004197e+004
9.004312e+002, 1.004004e+004
9.009133e+002, 1.003501e+004
9.013954e+002, 1.002518e+004
9.018775e+002, 1.002050e+004
9.023596e+002, 1.002596e+004
9.028417e+002, 1.002808e+004
9.033239e+002, 1.001976e+004
9.038060e+002, 1.000877e+004
9.042881e+002, 1.000304e+004
9.047702e+002, 1.000159e+004
9.052523e+002, 9.997926e+003
9.057344e+002, 9.990454e+003
9.062166e+002, 9.981968e+003
9.066987e+002, 9.971514e+003
9.071808e+002, 9.961826e+003
9.076629e+002, 9.956114e+003
9.081450e+002, 9.952210e+003
9.086271e+002, 9.945501e+003
9.091093e+002, 9.934937e+003
9.095914e+002, 9.924905e+003
9.100735e+002, 9.920278e+003
9.105556e+002, 9.916218e+003
9.110377e+002, 9.906780e+003
9.115198e+002, 9.893966e+003
9.120020e+002, 9.880693e+003
9.124841e+002, 9.868306e+003
9.129662e+002, 9.859907e+003
9.134483e+002, 9.857614e+003
9.139304e+002, 9.859208e+003
9.144125e+002, 9.861886e+003
9.148947e+002, 9.865334e+003
9.153768e+002, 9.868278e+003
9.158589e+002, 9.870973e+003
9.163410e+002, 9.865543e+003
9.168231e+002, 9.847641e+003
9.173052e+002, 9.826557e+003
9.177874e+002, 9.812696e+003
9.182695e+002, 9.805301e+003
9.187516e+002, 9.797108e+003
9.192337e+002, 9.786465e+003
9.197158e+002, 9.779142e+003
9.201979e+002, 9.778420e+003
9.206801e+002, 9.777544e+003
9.211622e+002, 9.771766e+003
9.216443e+002, 9.763872e+003
9.221264e+002, 9.758278e+003
9.226085e+002, 9.755313e+003
9.230906e+002, 9.752920e+003
9.235728e+002, 9.750099e+003
9.240549e+002, 9.748580e+003
9.245370e+002, 9.751379e+003
9.250191e+002, 9.753884e+003
9.255012e+002, 9.750271e+003
9.259833e+002, 9.742323e+003
9.264655e+002, 9.736885e+003
9.269476e+002, 9.736887e+003
9.274297e+002, 9.737967e+003
9.279118e+002, 9.738716e+003
9.283939e+002, 9.737646e+003
9.288760e+002, 9.731924e+003
9.293582e+002, 9.723247e+003
9.298403e+002, 9.716514e+003
9.303224e+002, 9.712378e+003
9.308045e+002, 9.705193e+003
9.312866e+002, 9.689050e+003
9.317687e+002, 9.670138e+003
9.322509e+002, 9.660476e+003
9.327330e+002, 9.658553e+003
9.332151e+002, 9.658531e+003
9.336972e+002, 9.659581e+003
9.341793e+002, 9.657951e+003
9.346614e+002, 9.651604e+003
9.351436e+002, 9.643390e+003
9.356257e+002, 9.637493e+003
9.361078e+002, 9.633797e+003
9.365899e+002, 9.629198e+003
9.370720e+002, 9.623481e+003
9.375541e+002, 9.617999e+003
9.380363e+002, 9.614003e+003
9.385184e+002, 9.607921e+003
9.390005e+002, 9.595224e+003
9.394826e+002, 9.579287e+003
9.399647e+002, 9.570077e+003
9.404468e+002, 9.571487e+003
9.409290e+002, 9.568779e+003
9.414111e+002, 9.556361e+003
9.418932e+002, 9.546907e+003
9.423753e+002, 9.546822e+003
9.428574e+002, 9.549091e+003
9.433395e+002, 9.547416e+003
9.438217e+002, 9.542042e+003
9.443038e+002, 9.535893e+003
9.447859e+002, 9.527494e+003
9.452680e+002, 9.522661e+003
9.457501e+002, 9.529483e+003
9.462322e+002, 9.534965e+003
9.467144e+002, 9.526018e+003
9.471965e+002, 9.510154e+003
9.476786e+002, 9.501732e+003
9.481607e+002, 9.502969e+003
9.486428e+002, 9.502230e+003
9.491249e+002, 9.488666e+003
9.496071e+002, 9.474403e+003
9.500892e+002, 9.473785e+003
9.505713e+002, 9.480034e+003
9.510534e+002, 9.483260e+003
9.515355e+002, 9.481970e+003
9.520176e+002, 9.476064e+003
9.524998e+002, 9.465594e+003
9.529819e+002, 9.454225e+003
9.534640e+002, 9.445755e+003
9.539461e+002, 9.439913e+003
9.544282e+002, 9.436947e+003
9.549103e+002, 9.436239e+003
9.553925e+002, 9.431725e+003
9.558746e+002, 9.422053e+003
9.563567e+002, 9.416827e+003
9.568388e+002, 9.423767e+003
9.573209e+002, 9.435644e+003
9.578030e+002, 9.436065e+003
9.582852e+002, 9.423868e+003
9.587673e+002, 9.413505e+003
9.592494e+002, 9.405299e+003
9.597315e+002, 9.397826e+003
9.602136e+002, 9.390882e+003
9.606957e+002, 9.383995e+003
9.611779e+002, 9.376474e+003
9.616600e+002, 9.368699e+003
9.621421e+002, 9.362868e+003
9.626242e+002, 9.361096e+003
9.631063e+002, 9.357144e+003
9.635884e+002, 9.348100e+003
9.640706e+002, 9.340577e+003
9.645527e+002, 9.337696e+003
9.650348e+002, 9.337072e+003
9.655169e+002, 9.335819e+003
9.659990e+002, 9.334024e+003
9.664811e+002, 9.334259e+003
9.669633e+002, 9.339730e+003
9.674454e+002, 9.343135e+003
9.679275e+002, 9.343348e+003
9.684096e+002, 9.340423e+003
9.688917e+002, 9.332144e+003
9.693738e+002, 9.321699e+003
9.698560e+002, 9.314837e+003
9.703381e+002, 9.312475e+003
9.708202e+002, 9.308328e+003
9.713023e+002, 9.296764e+003
9.717844e+002, 9.285479e+003
9.722665e+002, 9.280669e+003
9.727487e+002, 9.278307e+003
9.732308e+002, 9.273702e+003
9.737129e+002, 9.267061e+003
9.741950e+002, 9.260184e+003
9.746771e+002, 9.253788e+003
9.751592e+002, 9.249647e+003
9.756414e+002, 9.250767e+003
9.761235e+002, 9.254059e+003
9.766056e+002, 9.256473e+003
9.770877e+002, 9.257191e+003
9.775698e+002, 9.252984e+003
9.780519e+002, 9.244470e+003
9.785341e+002, 9.237748e+003
9.790162e+002, 9.236486e+003
9.794983e+002, 9.238129e+003
9.799804e+002, 9.240668e+003
9.804625e+002, 9.242877e+003
9.809446e+002, 9.239490e+003
9.814268e+002, 9.230817e+003
9.819089e+002, 9.219561e+003
9.823910e+002, 9.206418e+003
9.828731e+002, 9.196581e+003
9.833552e+002, 9.194811e+003
9.838373e+002, 9.197631e+003
9.843195e+002, 9.196316e+003
9.848016e+002, 9.190700e+003
9.852837e+002, 9.184580e+003
9.857658e+002, 9.177708e+003
9.862479e+002, 9.172756e+003
9.867300e+002, 9.171382e+003
9.872122e+002, 9.170002e+003
9.876943e+002, 9.164672e+003
9.881764e+002, 9.156237e+003
9.886585e+002, 9.149130e+003
9.891406e+002, 9.142690e+003
9.896227e+002, 9.139448e+003
9.901049e+002, 9.140207e+003
9.905870e+002, 9.143057e+003
9.910691e+002, 9.149625e+003
9.915512e+002, 9.155611e+003
9.920333e+002, 9.155393e+003
9.925154e+002, 9.149153e+003
9.929976e+002, 9.142839e+003
9.934797e+002, 9.137845e+003
9.939618e+002, 9.130705e+003
9.944439e+002, 9.118603e+003
9.949260e+002, 9.107257e+003
9.954081e+002, 9.098488e+003
9.958903e+002, 9.092585e+003
9.963724e+002, 9.091241e+003
9.968545e+002, 9.094340e+003
9.973366e+002, 9.094254e+003
9.978187e+002, 9.085750e+003
9.983008e+002, 9.079057e+003
9.987830e+002, 9.078248e+003
9.992651e+002, 9.079017e+003
9.997472e+002, 9.079267e+003
1.000229e+003, 9.078416e+003
1.000711e+003, 9.076127e+003
1.001194e+003, 9.072323e+003
1.001676e+003, 9.066557e+003
1.002158e+003, 9.056826e+003
1.002640e+003, 9.047280e+003
1.003122e+003, 9.039393e+003
1.003604e+003, 9.033674e+003
1.004086e+003, 9.032625e+003
1.004568e+003, 9.033766e+003
1.005050e+003, 9.030837e+003
1.005533e+003, 9.021988e+003
1.006015e+003, 9.013388e+003
1.006497e+003, 9.010188e+003
1.006979e+003, 9.008392e+003
1.007461e+003, 9.004141e+003
1.007943e+003, 8.998662e+003
1.008425e+003, 8.993075e+003
1.008907e+003, 8.988165e+003
1.009390e+003, 8.986032e+003
1.009872e+003, 8.987513e+003
1.010354e+003, 8.989490e+003
1.010836e+003, 8.988532e+003
1.011318e+003, 8.986347e+003
1.011800e+003, 8.985422e+003
1.012282e+003, 8.985600e+003
1.012764e+003, 8.987193e+003
1.013246e+003, 8.989691e+003
1.013729e+003, 8.990924e+003
1.014211e+003, 8.989769e+003
1.014693e+003, 8.986046e+003
1.015175e+003, 8.978373e+003
1.015657e+003, 8.968278e+003
1.016139e+003, 8.960002e+003
1.016621e+003, 8.953434e+003
1.017103e+003, 8.948231e+003
1.017586e+003, 8.944237e+003
1.018068e+003, 8.940281e+003
1.018550e+003, 8.935739e+003
1.019032e+003, 8.930399e+003
1.019514e+003, 8.923188e+003
1.019996e+003, 8.914722e+003
1.020478e+003, 8.909498e+003
1.020960e+003, 8.907475e+003
1.021442e+003, 8.907480e+003
1.021925e+003, 8.909393e+003
1.022407e+003, 8.911205e+003
1.022889e+003, 8.911734e+003
1.023371e+003, 8.910459e+003
1.023853e+003, 8.905801e+003
1.024335e+003, 8.897694e+003
1.024817e+003, 8.890583e+003
1.025299e+003, 8.884363e+003
1.025781e+003, 8.879459e+003
1.026264e+003, 8.875848e+003
1.026746e+003, 8.873950e+003
1.027228e+003, 8.874482e+003
1.027710e+003, 8.876175e+003
1.028192e+003, 8.876112e+003
1.028674e+003, 8.874173e+003
1.029156e+003, 8.871154e+003
1.029638e+003, 8.866980e+003
1.030120e+003, 8.861557e+003
1.030603e+003, 8.853263e+003
1.031085e+003, 8.847385e+003
1.031567e+003, 8.848667e+003
1.032049e+003, 8.854940e+003
1.032531e+003, 8.861048e+003
1.033013e+003, 8.868319e+003
1.033495e+003, 8.869485e+003
1.033977e+003, 8.863294e+003
1.034460e+003, 8.853496e+003
1.034942e+003, 8.838209e+003
1.035424e+003, 8.823722e+003
1.035906e+003, 8.815928e+003
1.036388e+003, 8.812438e+003
1.036870e+003, 8.806298e+003
1.037352e+003, 8.796613e+003
1.037834e+003, 8.787562e+003
1.038317e+003, 8.777707e+003
1.038799e+003, 8.770756e+003
1.039281e+003, 8.767503e+003
1.039763e+003, 8.767462e+003
1.040245e+003, 8.772212e+003
1.040727e+003, 8.779655e+003
1.041209e+003, 8.784262e+003
1.041691e+003, 8.786585e+003
1.042173e+003, 8.784181e+003
1.042656e+003, 8.774132e+003
1.043138e+003, 8.763134e+003
1.043620e+003, 8.748139e+003
1.044102e+003, 8.736964e+003
1.044584e+003, 8.738597e+003
1.045066e+003, 8.748048e+003
1.045548e+003, 8.752563e+003
1.046030e+003, 8.750497e+003
1.046512e+003, 8.746640e+003
1.046995e+003, 8.738139e+003
1.047477e+003, 8.732365e+003
1.047959e+003, 8.735474e+003
1.048441e+003, 8.738521e+003
1.048923e+003, 8.732928e+003
1.049405e+003, 8.722093e+003
1.049887e+003, 8.714839e+003
1.050369e+003, 8.712855e+003
1.050852e+003, 8.711099e+003
1.051334e+003, 8.706769e+003
1.051816e+003, 8.704957e+003
1.052298e+003, 8.711040e+003
1.052780e+003, 8.717070e+003
1.053262e+003, 8.715174e+003
1.053744e+003, 8.708528e+003
1.054226e+003, 8.704678e+003
1.054708e+003, 8.704799e+003
1.055191e+003, 8.707690e+003
1.055673e+003, 8.717622e+003
1.056155e+003, 8.724271e+003
1.056637e+003, 8.720280e+003
1.057119e+003, 8.714396e+003
1.057601e+003, 8.715073e+003
1.058083e+003, 8.719154e+003
1.058565e+003, 8.718701e+003
1.059047e+003, 8.711975e+003
1.059530e+003, 8.705632e+003
1.060012e+003, 8.702391e+003
1.060494e+003, 8.699315e+003
1.060976e+003, 8.692790e+003
1.061458e+003, 8.688159e+003
1.061940e+003, 8.691521e+003
1.062422e+003, 8.699537e+003
1.062904e+003, 8.705420e+003
1.063387e+003, 8.707871e+003
1.063869e+003, 8.709904e+003
1.064351e+003, 8.713063e+003
1.064833e+003, 8.715538e+003
1.065315e+003, 8.713624e+003
1.065797e+003, 8.713450e+003
1.066279e+003, 8.721144e+003
1.066761e+003, 8.733928e+003
1.067244e+003, 8.746794e+003
1.067726e+003, 8.758731e+003
1.068208e+003, 8.770269e+003
1.068690e+003, 8.783600e+003
1.069172e+003, 8.793911e+003
1.069654e+003, 8.796368e+003
1.070136e+003, 8.797381e+003
1.070618e+003, 8.801088e+003
1.071100e+003, 8.807444e+003
1.071583e+003, 8.816451e+003
1.072065e+003, 8.827596e+003
1.072547e+003, 8.837969e+003
1.073029e+003, 8.847703e+003
1.073511e+003, 8.854076e+003
1.073993e+003, 8.855595e+003
1.074475e+003, 8.853371e+003
1.074957e+003, 8.848466e+003
1.075439e+003, 8.840274e+003
1.075922e+003, 8.825849e+003
1.076404e+003, 8.806402e+003
1.076886e+003, 8.790020e+003
1.077368e+003, 8.780980e+003
1.077850e+003, 8.772551e+003
1.078332e+003, 8.761435e+003
1.078814e+003, 8.749787e+003
1.079297e+003, 8.738149e+003
1.079779e+003, 8.727600e+003
1.080261e+003, 8.720110e+003
1.080743e+003, 8.715089e+003
1.081225e+003, 8.709393e+003
1.081707e+003, 8.701194e+003
1.082189e+003, 8.694843e+003
1.082671e+003, 8.691512e+003
1.083153e+003, 8.691607e+003
1.083635e+003, 8.697845e+003
1.084118e+003, 8.705935e+003
1.084600e+003, 8.711253e+003
1.085082e+003, 8.713894e+003
1.085564e+003, 8.715783e+003
1.086046e+003, 8.717183e+003
1.086528e+003, 8.719622e+003
1.087010e+003, 8.723603e+003
1.087492e+003, 8.729022e+003
1.087975e+003, 8.733870e+003
1.088457e+003, 8.741792e+003
1.088939e+003, 8.760143e+003
1.089421e+003, 8.783884e+003
1.089903e+003, 8.799931e+003
1.090385e+003, 8.804698e+003
1.090867e+003, 8.810071e+003
1.091349e+003, 8.822165e+003
1.091832e+003, 8.833747e+003
1.092314e+003, 8.840511e+003
1.092796e+003, 8.846191e+003
1.093278e+003, 8.855188e+003
1.093760e+003, 8.865035e+003
1.094242e+003, 8.870579e+003
1.094724e+003, 8.870964e+003
1.095206e+003, 8.869929e+003
1.095688e+003, 8.867284e+003
1.096171e+003, 8.865279e+003
1.096653e+003, 8.866810e+003
1.097135e+003, 8.867045e+003
1.097617e+003, 8.863822e+003
1.098099e+003, 8.856459e+003
1.098581e+003, 8.843834e+003
1.099063e+003, 8.826092e+003
1.099545e+003, 8.805923e+003
1.100027e+003, 8.782605e+003
1.100510e+003, 8.758962e+003
1.100992e+003, 8.737022e+003
1.101474e+003, 8.713239e+003
1.101956e+003, 8.684454e+003
1.102438e+003, 8.653646e+003
1.102920e+003, 8.622902e+003
1.103402e+003, 8.593226e+003
1.103884e+003, 8.567719e+003
1.104367e+003, 8.548272e+003
1.104849e+003, 8.529509e+003
1.105331e+003, 8.511521e+003
1.105813e+003, 8.492869e+003
1.106295e+003, 8.471342e+003
1.106777e+003, 8.450285e+003
1.107259e+003, 8.432893e+003
1.107741e+003, 8.418576e+003
1.108224e+003, 8.405386e+003
1.108706e+003, 8.393235e+003
1.109188e+003, 8.382224e+003
1.109670e+003, 8.373382e+003
1.110152e+003, 8.364340e+003
1.110634e+003, 8.353955e+003
1.111116e+003, 8.343794e+003
1.111598e+003, 8.334931e+003
1.112080e+003, 8.326934e+003
1.112563e+003, 8.318350e+003
1.113045e+003, 8.308638e+003
1.113527e+003, 8.303572e+003
1.114009e+003, 8.307096e+003
1.114491e+003, 8.308941e+003
1.114973e+003, 8.309494e+003
1.115455e+003, 8.306321e+003
1.115937e+003, 8.294127e+003
1.116419e+003, 8.281241e+003
1.116902e+003, 8.279438e+003
1.117384e+003, 8.287700e+003
1.117866e+003, 8.293599e+003
1.118348e+003, 8.297872e+003
1.118830e+003, 8.297785e+003
1.119312e+003, 8.290604e+003
1.119794e+003, 8.284302e+003
1.120276e+003, 8.282145e+003
1.120759e+003, 8.281190e+003
1.121241e+003, 8.279037e+003
1.121723e+003, 8.275557e+003
1.122205e+003, 8.269747e+003
1.122687e+003, 8.259691e+003
1.123169e+003, 8.256499e+003
1.123651e+003, 8.262771e+003
1.124133e+003, 8.266936e+003
1.124615e+003, 8.265714e+003
1.125098e+003, 8.263017e+003
1.125580e+003, 8.261390e+003
1.126062e+003, 8.260367e+003
1.126544e+003, 8.259256e+003
1.127026e+003, 8.258053e+003
1.127508e+003, 8.255185e+003
1.127990e+003, 8.250482e+003
1.128472e+003, 8.245121e+003
1.128954e+003, 8.238708e+003
1.129437e+003, 8.236691e+003
1.129919e+003, 8.242534e+003
1.130401e+003, 8.249735e+003
1.130883e+003, 8.250468e+003
1.131365e+003, 8.245596e+003
1.131847e+003, 8.236308e+003
1.132329e+003, 8.223223e+003
1.132811e+003, 8.221662e+003
1.133294e+003, 8.232334e+003
1.133776e+003, 8.238865e+003
1.134258e+003, 8.235788e+003
1.134740e+003, 8.230854e+003
1.135222e+003, 8.230749e+003
1.135704e+003, 8.232075e+003
1.136186e+003, 8.226815e+003
1.136668e+003, 8.217381e+003
1.137151e+003, 8.214434e+003
1.137633e+003, 8.216681e+003
1.138115e+003, 8.216265e+003
1.138597e+003, 8.211800e+003
1.139079e+003, 8.206188e+003
1.139561e+003, 8.201036e+003
1.140043e+003, 8.196440e+003
1.140525e+003, 8.192551e+003
1.141007e+003, 8.189244e+003
1.141490e+003, 8.186037e+003
1.141972e+003, 8.183286e+003
1.142454e+003, 8.182116e+003
1.142936e+003, 8.182185e+003
1.143418e+003, 8.181563e+003
1.143900e+003, 8.179794e+003
1.144382e+003, 8.179662e+003
1.144864e+003, 8.184091e+003
1.145346e+003, 8.189380e+003
1.145829e+003, 8.192221e+003
1.146311e+003, 8.193045e+003
1.146793e+003, 8.191808e+003
1.147275e+003, 8.189274e+003
1.147757e+003, 8.186995e+003
1.148239e+003, 8.184978e+003
1.148721e+003, 8.181476e+003
1.149203e+003, 8.175222e+003
1.149686e+003, 8.169964e+003
1.150168e+003, 8.168944e+003
1.150650e+003, 8.169028e+003
1.151132e+003, 8.168625e+003
1.151614e+003, 8.167563e+003
1.152096e+003, 8.166053e+003
1.152578e+003, 8.163768e+003
1.153060e+003, 8.159163e+003
1.153542e+003, 8.151756e+003
1.154025e+003, 8.146902e+003
1.154507e+003, 8.146689e+003
1.154989e+003, 8.148910e+003
1.155471e+003, 8.153841e+003
1.155953e+003, 8.159681e+003
1.156435e+003, 8.166964e+003
1.156917e+003, 8.173357e+003
1.157399e+003, 8.175684e+003
1.157881e+003, 8.173954e+003
1.158364e+003, 8.170655e+003
1.158846e+003, 8.165224e+003
1.159328e+003, 8.159706e+003
1.159810e+003, 8.153272e+003
1.160292e+003, 8.148130e+003
1.160774e+003, 8.144927e+003
1.161256e+003, 8.143343e+003
1.161738e+003, 8.143856e+003
1.162221e+003, 8.145557e+003
1.162703e+003, 8.146669e+003
1.163185e+003, 8.147672e+003
1.163667e+003, 8.143790e+003
1.164149e+003, 8.132006e+003
1.164631e+003, 8.124428e+003
1.165113e+003, 8.123562e+003
1.165595e+003, 8.125174e+003
1.166078e+003, 8.127658e+003
1.166560e+003, 8.130493e+003
1.167042e+003, 8.133485e+003
1.167524e+003, 8.135899e+003
1.168006e+003, 8.132816e+003
1.168488e+003, 8.123774e+003
1.168970e+003, 8.122696e+003
1.169452e+003, 8.130534e+003
1.169934e+003, 8.137963e+003
1.170417e+003, 8.142377e+003
1.170899e+003, 8.143195e+003
1.171381e+003, 8.139782e+003
1.171863e+003, 8.133849e+003
1.172345e+003, 8.126789e+003
1.172827e+003, 8.119926e+003
1.173309e+003, 8.120023e+003
1.173791e+003, 8.124569e+003
1.174273e+003, 8.122188e+003
1.174756e+003, 8.113252e+003
1.175238e+003, 8.109390e+003
1.175720e+003, 8.114679e+003
1.176202e+003, 8.118370e+003
1.176684e+003, 8.109221e+003
1.177166e+003, 8.097735e+003
1.177648e+003, 8.098568e+003
1.178130e+003, 8.104428e+003
1.178613e+003, 8.106174e+003
1.179095e+003, 8.103636e+003
1.179577e+003, 8.096118e+003
1.180059e+003, 8.085529e+003
1.180541e+003, 8.079149e+003
1.181023e+003, 8.080675e+003
1.181505e+003, 8.083309e+003
1.181987e+003, 8.084110e+003
1.182469e+003, 8.083231e+003
1.182952e+003, 8.078674e+003
1.183434e+003, 8.074350e+003
1.183916e+003, 8.075540e+003
1.184398e+003, 8.079318e+003
1.184880e+003, 8.078896e+003
1.185362e+003, 8.073466e+003
1.185844e+003, 8.069867e+003
1.186326e+003, 8.072252e+003
1.186808e+003, 8.072569e+003
1.187291e+003, 8.066198e+003
1.187773e+003, 8.061465e+003
1.188255e+003, 8.065299e+003
1.188737e+003, 8.069534e+003
1.189219e+003, 8.065025e+003
1.189701e+003, 8.054990e+003
1.190183e+003, 8.049590e+003
1.190665e+003, 8.050105e+003
1.191148e+003, 8.047982e+003
1.191630e+003, 8.039884e+003
1.192112e+003, 8.039517e+003
1.192594e+003, 8.052631e+003
1.193076e+003, 8.063391e+003
1.193558e+003, 8.063211e+003
1.194040e+003, 8.057814e+003
1.194522e+003, 8.054231e+003
1.195005e+003, 8.051849e+003
1.195487e+003, 8.047707e+003
1.195969e+003, 8.041950e+003
1.196451e+003, 8.037542e+003
1.196933e+003, 8.034706e+003
1.197415e+003, 8.035821e+003
1.197897e+003, 8.041156e+003
1.198379e+003, 8.043700e+003
1.198861e+003, 8.038779e+003
1.199344e+003, 8.031321e+003
1.199826e+003, 8.028055e+003
1.200308e+003, 8.026924e+003
1.200790e+003, 8.022563e+003
1.201272e+003, 8.017420e+003
1.201754e+003, 8.018572e+003
1.202236e+003, 8.023948e+003
1.202718e+003, 8.025263e+003
1.203200e+003, 8.020481e+003
1.203683e+003, 8.014072e+003
1.204165e+003, 8.008031e+003
1.204647e+003, 8.003061e+003
1.205129e+003, 7.998633e+003
1.205611e+003, 7.996640e+003
1.206093e+003, 8.002058e+003
1.206575e+003, 8.008417e+003
1.207057e+003, 8.006647e+003
1.207540e+003, 7.999070e+003
1.208022e+003, 7.993701e+003
1.208504e+003, 7.992151e+003
1.208986e+003, 7.992792e+003
1.209468e+003, 7.996404e+003
1.209950e+003, 8.000367e+003
1.210432e+003, 8.007589e+003
1.210914e+003, 8.010870e+003
1.211396e+003, 8.002689e+003
1.211879e+003, 7.991997e+003
1.212361e+003, 7.987820e+003
1.212843e+003, 7.988953e+003
1.213325e+003, 7.991282e+003
1.213807e+003, 7.996413e+003
1.214289e+003, 7.993915e+003
1.214771e+003, 7.980506e+003
1.215253e+003, 7.973619e+003
1.215735e+003, 7.978226e+003
1.216218e+003, 7.982065e+003
1.216700e+003, 7.978278e+003
1.217182e+003, 7.971910e+003
1.217664e+003, 7.968864e+003
1.218146e+003, 7.968748e+003
1.218628e+003, 7.972115e+003
1.219110e+003, 7.977347e+003
1.219592e+003, 7.973586e+003
1.220075e+003, 7.962977e+003
1.220557e+003, 7.960526e+003
1.221039e+003, 7.968417e+003
1.221521e+003, 7.975473e+003
1.222003e+003, 7.975484e+003
1.222485e+003, 7.973386e+003
1.222967e+003, 7.975242e+003
1.223449e+003, 7.976553e+003
1.223932e+003, 7.971028e+003
1.224414e+003, 7.962655e+003
1.224896e+003, 7.955622e+003
1.225378e+003, 7.950438e+003
1.225860e+003, 7.947600e+003
1.226342e+003, 7.946657e+003
1.226824e+003, 7.944904e+003
1.227306e+003, 7.940602e+003
1.227788e+003, 7.937704e+003
1.228271e+003, 7.938772e+003
1.228753e+003, 7.939858e+003
1.229235e+003, 7.939862e+003
1.229717e+003, 7.938601e+003
1.230199e+003, 7.933252e+003
1.230681e+003, 7.927896e+003
1.231163e+003, 7.931400e+003
1.231645e+003, 7.943405e+003
1.232127e+003, 7.947752e+003
1.232610e+003, 7.941229e+003
1.233092e+003, 7.936869e+003
1.233574e+003, 7.935829e+003
1.234056e+003, 7.935092e+003
1.234538e+003, 7.933990e+003
1.235020e+003, 7.931951e+003
1.235502e+003, 7.928508e+003
1.235984e+003, 7.924223e+003
1.236467e+003, 7.919625e+003
1.236949e+003, 7.915316e+003
1.237431e+003, 7.913836e+003
1.237913e+003, 7.914955e+003
1.238395e+003, 7.919658e+003
1.238877e+003, 7.926155e+003
1.239359e+003, 7.925157e+003
1.239841e+003, 7.915016e+003
1.240323e+003, 7.905118e+003
1.240806e+003, 7.900953e+003
1.241288e+003, 7.901759e+003
1.241770e+003, 7.910819e+003
1.242252e+003, 7.920243e+003
1.242734e+003, 7.921749e+003
1.243216e+003, 7.919380e+003
1.243698e+003, 7.918703e+003
1.244180e+003, 7.918422e+003
1.244662e+003, 7.913780e+003
1.245145e+003, 7.904452e+003
1.245627e+003, 7.897302e+003
1.246109e+003, 7.894758e+003
1.246591e+003, 7.893432e+003
1.247073e+003, 7.893624e+003
1.247555e+003, 7.893944e+003
1.248037e+003, 7.893753e+003
1.248519e+003, 7.894001e+003
1.249002e+003, 7.896671e+003
1.249484e+003, 7.898901e+003
1.249966e+003, 7.894485e+003
1.250448e+003, 7.884103e+003
1.250930e+003, 7.879784e+003
1.251412e+003, 7.882070e+003
1.251894e+003, 7.884506e+003
1.252376e+003, 7.886596e+003
1.252859e+003, 7.888545e+003
1.253341e+003, 7.890383e+003
1.253823e+003, 7.890905e+003
1.254305e+003, 7.889081e+003
1.254787e+003, 7.887457e+003
1.255269e+003, 7.890310e+003
1.255751e+003, 7.895171e+003
1.256233e+003, 7.898386e+003
1.256715e+003, 7.899701e+003
1.257198e+003, 7.897068e+003
1.257680e+003, 7.892655e+003
1.258162e+003, 7.891755e+003
1.258644e+003, 7.895073e+003
1.259126e+003, 7.899513e+003
1.259608e+003, 7.904532e+003
1.260090e+003, 7.907568e+003
1.260572e+003, 7.905833e+003
1.261054e+003, 7.903993e+003
1.261537e+003, 7.905886e+003
1.262019e+003, 7.906965e+003
1.262501e+003, 7.902964e+003
1.262983e+003, 7.896335e+003
1.263465e+003, 7.889836e+003
1.263947e+003, 7.884105e+003
1.264429e+003, 7.884444e+003
1.264911e+003, 7.894818e+003
1.265394e+003, 7.896667e+003
1.265876e+003, 7.887353e+003
1.266358e+003, 7.881195e+003
1.266840e+003, 7.881760e+003
1.267322e+003, 7.882836e+003
1.267804e+003, 7.880991e+003
1.268286e+003, 7.877839e+003
1.268768e+003, 7.874741e+003
1.269250e+003, 7.872928e+003
1.269733e+003, 7.876233e+003
1.270215e+003, 7.882632e+003
1.270697e+003, 7.889428e+003
1.271179e+003, 7.894244e+003
1.271661e+003, 7.889804e+003
1.272143e+003, 7.877675e+003
1.272625e+003, 7.867494e+003
1.273107e+003, 7.862905e+003
1.273589e+003, 7.862516e+003
1.274072e+003, 7.868700e+003
1.274554e+003, 7.874458e+003
1.275036e+003, 7.876866e+003
1.275518e+003, 7.877022e+003
1.276000e+003, 7.875372e+003
1.276482e+003, 7.871887e+003
1.276964e+003, 7.864736e+003
1.277446e+003, 7.857049e+003
1.277929e+003, 7.856034e+003
1.278411e+003, 7.862754e+003
1.278893e+003, 7.865494e+003
1.279375e+003, 7.863632e+003
1.279857e+003, 7.860329e+003
1.280339e+003, 7.855409e+003
1.280821e+003, 7.852592e+003
1.281303e+003, 7.853886e+003
1.281786e+003, 7.858116e+003
1.282268e+003, 7.863523e+003
##END=



