##NAMES=Maghemite
##RRUFFID=R140712
##IDEAL CHEMISTRY=(Fe^3+^_0.67_[box]_0.33_)Fe^3+^_2_O_4_
##LOCALITY=Katzenbuckel, Eberbach, Odenwald, Baden-WÃ¼rttemberg, Germany
##OWNER=RRUFF
##SOURCE=Rock Currier
##DESCRIPTION=Black aggregate of small to fine grains. Fd3m symmetry
##STATUS=The identification of this mineral has been confirmed only by single crystal X-ray diffraction.
##URL=rruff.info/R140712
8.806445e+001, 7.059786e+002
8.854657e+001, 7.004778e+002
8.902869e+001, 6.986010e+002
8.951080e+001, 7.019417e+002
8.999292e+001, 7.081767e+002
9.047504e+001, 7.157093e+002
9.095715e+001, 7.246044e+002
9.143927e+001, 7.328514e+002
9.192139e+001, 7.377868e+002
9.240350e+001, 7.398035e+002
9.288562e+001, 7.393523e+002
9.336774e+001, 7.304017e+002
9.384985e+001, 7.093809e+002
9.433197e+001, 6.818199e+002
9.481409e+001, 6.593848e+002
9.529620e+001, 6.382452e+002
9.577832e+001, 6.191082e+002
9.626044e+001, 6.020941e+002
9.674255e+001, 5.872344e+002
9.722467e+001, 5.746271e+002
9.770679e+001, 5.644227e+002
9.818890e+001, 5.552784e+002
9.867102e+001, 5.471497e+002
9.915314e+001, 5.394248e+002
9.963525e+001, 5.314908e+002
1.001174e+002, 5.230242e+002
1.005995e+002, 5.142314e+002
1.010816e+002, 5.058641e+002
1.015637e+002, 4.976195e+002
1.020458e+002, 4.900098e+002
1.025280e+002, 4.830709e+002
1.030101e+002, 4.766704e+002
1.034922e+002, 4.705215e+002
1.039743e+002, 4.643906e+002
1.044564e+002, 4.582500e+002
1.049385e+002, 4.535222e+002
1.054207e+002, 4.510315e+002
1.059028e+002, 4.487958e+002
1.063849e+002, 4.461245e+002
1.068670e+002, 4.428788e+002
1.073491e+002, 4.386559e+002
1.078312e+002, 4.325547e+002
1.083134e+002, 4.247085e+002
1.087955e+002, 4.179044e+002
1.092776e+002, 4.128881e+002
1.097597e+002, 4.089743e+002
1.102418e+002, 4.052216e+002
1.107239e+002, 4.014976e+002
1.112061e+002, 3.979463e+002
1.116882e+002, 3.945938e+002
1.121703e+002, 3.914279e+002
1.126524e+002, 3.886847e+002
1.131345e+002, 3.866732e+002
1.136166e+002, 3.853398e+002
1.140988e+002, 3.838671e+002
1.145809e+002, 3.822303e+002
1.150630e+002, 3.803293e+002
1.155451e+002, 3.780301e+002
1.160272e+002, 3.753505e+002
1.165093e+002, 3.725515e+002
1.169915e+002, 3.699606e+002
1.174736e+002, 3.677014e+002
1.179557e+002, 3.653265e+002
1.184378e+002, 3.624692e+002
1.189199e+002, 3.597062e+002
1.194020e+002, 3.573824e+002
1.198842e+002, 3.556242e+002
1.203663e+002, 3.543970e+002
1.208484e+002, 3.536216e+002
1.213305e+002, 3.539198e+002
1.218126e+002, 3.540008e+002
1.222947e+002, 3.540822e+002
1.227769e+002, 3.538682e+002
1.232590e+002, 3.528945e+002
1.237411e+002, 3.508520e+002
1.242232e+002, 3.480008e+002
1.247053e+002, 3.454844e+002
1.251874e+002, 3.432746e+002
1.256696e+002, 3.413289e+002
1.261517e+002, 3.396340e+002
1.266338e+002, 3.381916e+002
1.271159e+002, 3.369646e+002
1.275980e+002, 3.359822e+002
1.280801e+002, 3.352246e+002
1.285623e+002, 3.345337e+002
1.290444e+002, 3.341792e+002
1.295265e+002, 3.337016e+002
1.300086e+002, 3.326026e+002
1.304907e+002, 3.308136e+002
1.309728e+002, 3.287537e+002
1.314550e+002, 3.264915e+002
1.319371e+002, 3.241548e+002
1.324192e+002, 3.219333e+002
1.329013e+002, 3.198445e+002
1.333834e+002, 3.179315e+002
1.338655e+002, 3.163481e+002
1.343477e+002, 3.152587e+002
1.348298e+002, 3.142920e+002
1.353119e+002, 3.133058e+002
1.357940e+002, 3.123168e+002
1.362761e+002, 3.113744e+002
1.367582e+002, 3.105474e+002
1.372404e+002, 3.098494e+002
1.377225e+002, 3.089762e+002
1.382046e+002, 3.079611e+002
1.386867e+002, 3.067383e+002
1.391688e+002, 3.052590e+002
1.396509e+002, 3.035389e+002
1.401331e+002, 3.016162e+002
1.406152e+002, 2.994614e+002
1.410973e+002, 2.969262e+002
1.415794e+002, 2.947837e+002
1.420615e+002, 2.930586e+002
1.425436e+002, 2.916085e+002
1.430258e+002, 2.904556e+002
1.435079e+002, 2.895622e+002
1.439900e+002, 2.886910e+002
1.444721e+002, 2.874848e+002
1.449542e+002, 2.856699e+002
1.454363e+002, 2.842493e+002
1.459185e+002, 2.835423e+002
1.464006e+002, 2.831295e+002
1.468827e+002, 2.825699e+002
1.473648e+002, 2.817499e+002
1.478469e+002, 2.806947e+002
1.483290e+002, 2.793035e+002
1.488112e+002, 2.775156e+002
1.492933e+002, 2.759288e+002
1.497754e+002, 2.748116e+002
1.502575e+002, 2.740709e+002
1.507396e+002, 2.734369e+002
1.512217e+002, 2.728924e+002
1.517039e+002, 2.723625e+002
1.521860e+002, 2.717624e+002
1.526681e+002, 2.710844e+002
1.531502e+002, 2.703895e+002
1.536323e+002, 2.696896e+002
1.541144e+002, 2.689855e+002
1.545966e+002, 2.683832e+002
1.550787e+002, 2.682770e+002
1.555608e+002, 2.680534e+002
1.560429e+002, 2.671849e+002
1.565250e+002, 2.655448e+002
1.570071e+002, 2.636355e+002
1.574893e+002, 2.621315e+002
1.579714e+002, 2.611181e+002
1.584535e+002, 2.603120e+002
1.589356e+002, 2.596244e+002
1.594177e+002, 2.591035e+002
1.598998e+002, 2.589412e+002
1.603820e+002, 2.592025e+002
1.608641e+002, 2.595483e+002
1.613462e+002, 2.591058e+002
1.618283e+002, 2.568119e+002
1.623104e+002, 2.552206e+002
1.627925e+002, 2.550280e+002
1.632747e+002, 2.554423e+002
1.637568e+002, 2.556113e+002
1.642389e+002, 2.551086e+002
1.647210e+002, 2.540972e+002
1.652031e+002, 2.532488e+002
1.656852e+002, 2.527883e+002
1.661674e+002, 2.522376e+002
1.666495e+002, 2.514417e+002
1.671316e+002, 2.505094e+002
1.676137e+002, 2.496167e+002
1.680958e+002, 2.488423e+002
1.685779e+002, 2.482065e+002
1.690601e+002, 2.478150e+002
1.695422e+002, 2.479809e+002
1.700243e+002, 2.480237e+002
1.705064e+002, 2.476440e+002
1.709885e+002, 2.468958e+002
1.714706e+002, 2.459736e+002
1.719528e+002, 2.448772e+002
1.724349e+002, 2.437392e+002
1.729170e+002, 2.430115e+002
1.733991e+002, 2.429151e+002
1.738812e+002, 2.430418e+002
1.743633e+002, 2.432350e+002
1.748455e+002, 2.435030e+002
1.753276e+002, 2.434376e+002
1.758097e+002, 2.424758e+002
1.762918e+002, 2.410564e+002
1.767739e+002, 2.399704e+002
1.772560e+002, 2.395663e+002
1.777382e+002, 2.394385e+002
1.782203e+002, 2.389761e+002
1.787024e+002, 2.380500e+002
1.791845e+002, 2.372268e+002
1.796666e+002, 2.368675e+002
1.801487e+002, 2.367736e+002
1.806309e+002, 2.367326e+002
1.811130e+002, 2.367076e+002
1.815951e+002, 2.366465e+002
1.820772e+002, 2.363844e+002
1.825593e+002, 2.357943e+002
1.830414e+002, 2.352027e+002
1.835236e+002, 2.347440e+002
1.840057e+002, 2.343537e+002
1.844878e+002, 2.339257e+002
1.849699e+002, 2.333699e+002
1.854520e+002, 2.327309e+002
1.859341e+002, 2.323043e+002
1.864163e+002, 2.322814e+002
1.868984e+002, 2.322782e+002
1.873805e+002, 2.323051e+002
1.878626e+002, 2.322797e+002
1.883447e+002, 2.320534e+002
1.888268e+002, 2.314833e+002
1.893090e+002, 2.305900e+002
1.897911e+002, 2.300054e+002
1.902732e+002, 2.300253e+002
1.907553e+002, 2.300546e+002
1.912374e+002, 2.299433e+002
1.917195e+002, 2.297137e+002
1.922017e+002, 2.294303e+002
1.926838e+002, 2.291208e+002
1.931659e+002, 2.287709e+002
1.936480e+002, 2.287338e+002
1.941301e+002, 2.294884e+002
1.946122e+002, 2.300316e+002
1.950944e+002, 2.297132e+002
1.955765e+002, 2.287240e+002
1.960586e+002, 2.278182e+002
1.965407e+002, 2.276364e+002
1.970228e+002, 2.282202e+002
1.975049e+002, 2.286029e+002
1.979871e+002, 2.287037e+002
1.984692e+002, 2.286936e+002
1.989513e+002, 2.285780e+002
1.994334e+002, 2.283903e+002
1.999155e+002, 2.283597e+002
2.003976e+002, 2.287852e+002
2.008798e+002, 2.296041e+002
2.013619e+002, 2.300041e+002
2.018440e+002, 2.293375e+002
2.023261e+002, 2.286293e+002
2.028082e+002, 2.290174e+002
2.032903e+002, 2.306047e+002
2.037725e+002, 2.321284e+002
2.042546e+002, 2.323017e+002
2.047367e+002, 2.316064e+002
2.052188e+002, 2.314256e+002
2.057009e+002, 2.324687e+002
2.061830e+002, 2.339735e+002
2.066652e+002, 2.348790e+002
2.071473e+002, 2.350452e+002
2.076294e+002, 2.351167e+002
2.081115e+002, 2.354230e+002
2.085936e+002, 2.359353e+002
2.090757e+002, 2.366574e+002
2.095579e+002, 2.375247e+002
2.100400e+002, 2.386252e+002
2.105221e+002, 2.402325e+002
2.110042e+002, 2.425753e+002
2.114863e+002, 2.449095e+002
2.119685e+002, 2.469277e+002
2.124506e+002, 2.486983e+002
2.129327e+002, 2.502661e+002
2.134148e+002, 2.515841e+002
2.138969e+002, 2.527588e+002
2.143790e+002, 2.541371e+002
2.148612e+002, 2.559272e+002
2.153433e+002, 2.575812e+002
2.158254e+002, 2.591342e+002
2.163075e+002, 2.604080e+002
2.167896e+002, 2.611571e+002
2.172717e+002, 2.612174e+002
2.177539e+002, 2.606634e+002
2.182360e+002, 2.598175e+002
2.187181e+002, 2.586263e+002
2.192002e+002, 2.571633e+002
2.196823e+002, 2.554916e+002
2.201644e+002, 2.535809e+002
2.206466e+002, 2.513408e+002
2.211287e+002, 2.486868e+002
2.216108e+002, 2.457208e+002
2.220929e+002, 2.430522e+002
2.225750e+002, 2.407855e+002
2.230571e+002, 2.387471e+002
2.235393e+002, 2.370745e+002
2.240214e+002, 2.355934e+002
2.245035e+002, 2.340474e+002
2.249856e+002, 2.322795e+002
2.254677e+002, 2.303532e+002
2.259498e+002, 2.286982e+002
2.264320e+002, 2.273633e+002
2.269141e+002, 2.262622e+002
2.273962e+002, 2.254854e+002
2.278783e+002, 2.249194e+002
2.283604e+002, 2.243785e+002
2.288425e+002, 2.237488e+002
2.293247e+002, 2.230762e+002
2.298068e+002, 2.226292e+002
2.302889e+002, 2.224954e+002
2.307710e+002, 2.224653e+002
2.312531e+002, 2.226235e+002
2.317352e+002, 2.228465e+002
2.322174e+002, 2.229119e+002
2.326995e+002, 2.226867e+002
2.331816e+002, 2.222418e+002
2.336637e+002, 2.218899e+002
2.341458e+002, 2.217562e+002
2.346279e+002, 2.215521e+002
2.351101e+002, 2.211413e+002
2.355922e+002, 2.206109e+002
2.360743e+002, 2.201344e+002
2.365564e+002, 2.198033e+002
2.370385e+002, 2.195730e+002
2.375206e+002, 2.193088e+002
2.380028e+002, 2.189737e+002
2.384849e+002, 2.186680e+002
2.389670e+002, 2.184394e+002
2.394491e+002, 2.182675e+002
2.399312e+002, 2.181329e+002
2.404133e+002, 2.180747e+002
2.408955e+002, 2.179767e+002
2.413776e+002, 2.175068e+002
2.418597e+002, 2.164232e+002
2.423418e+002, 2.156174e+002
2.428239e+002, 2.157610e+002
2.433060e+002, 2.165069e+002
2.437882e+002, 2.168366e+002
2.442703e+002, 2.162390e+002
2.447524e+002, 2.152844e+002
2.452345e+002, 2.149819e+002
2.457166e+002, 2.154688e+002
2.461987e+002, 2.158269e+002
2.466809e+002, 2.154662e+002
2.471630e+002, 2.145907e+002
2.476451e+002, 2.138726e+002
2.481272e+002, 2.135152e+002
2.486093e+002, 2.133715e+002
2.490914e+002, 2.132785e+002
2.495736e+002, 2.132388e+002
2.500557e+002, 2.131747e+002
2.505378e+002, 2.129881e+002
2.510199e+002, 2.127266e+002
2.515020e+002, 2.125982e+002
2.519841e+002, 2.127031e+002
2.524663e+002, 2.128697e+002
2.529484e+002, 2.128972e+002
2.534305e+002, 2.128085e+002
2.539126e+002, 2.128135e+002
2.543947e+002, 2.130703e+002
2.548768e+002, 2.135369e+002
2.553590e+002, 2.140320e+002
2.558411e+002, 2.146306e+002
2.563232e+002, 2.151148e+002
2.568053e+002, 2.152017e+002
2.572874e+002, 2.150240e+002
2.577695e+002, 2.150605e+002
2.582516e+002, 2.158286e+002
2.587338e+002, 2.171446e+002
2.592159e+002, 2.179669e+002
2.596980e+002, 2.180562e+002
2.601801e+002, 2.179295e+002
2.606622e+002, 2.176608e+002
2.611443e+002, 2.174080e+002
2.616265e+002, 2.175421e+002
2.621086e+002, 2.185224e+002
2.625907e+002, 2.200926e+002
2.630728e+002, 2.209847e+002
2.635549e+002, 2.206695e+002
2.640370e+002, 2.204748e+002
2.645192e+002, 2.209899e+002
2.650013e+002, 2.219604e+002
2.654834e+002, 2.229657e+002
2.659655e+002, 2.237630e+002
2.664476e+002, 2.244430e+002
2.669297e+002, 2.253494e+002
2.674119e+002, 2.265709e+002
2.678940e+002, 2.278934e+002
2.683761e+002, 2.293665e+002
2.688582e+002, 2.308470e+002
2.693403e+002, 2.321249e+002
2.698224e+002, 2.330537e+002
2.703046e+002, 2.338191e+002
2.707867e+002, 2.349612e+002
2.712688e+002, 2.367487e+002
2.717509e+002, 2.384453e+002
2.722330e+002, 2.396928e+002
2.727151e+002, 2.408792e+002
2.731973e+002, 2.424364e+002
2.736794e+002, 2.445460e+002
2.741615e+002, 2.469724e+002
2.746436e+002, 2.492708e+002
2.751257e+002, 2.514884e+002
2.756078e+002, 2.534548e+002
2.760900e+002, 2.550161e+002
2.765721e+002, 2.564406e+002
2.770542e+002, 2.579399e+002
2.775363e+002, 2.595789e+002
2.780184e+002, 2.612639e+002
2.785005e+002, 2.629202e+002
2.789827e+002, 2.648936e+002
2.794648e+002, 2.659930e+002
2.799469e+002, 2.656890e+002
2.804290e+002, 2.649897e+002
2.809111e+002, 2.644734e+002
2.813932e+002, 2.642829e+002
2.818754e+002, 2.642988e+002
2.823575e+002, 2.644536e+002
2.828396e+002, 2.650022e+002
2.833217e+002, 2.649188e+002
2.838038e+002, 2.639794e+002
2.842859e+002, 2.626923e+002
2.847681e+002, 2.612110e+002
2.852502e+002, 2.596129e+002
2.857323e+002, 2.580067e+002
2.862144e+002, 2.565271e+002
2.866965e+002, 2.552295e+002
2.871786e+002, 2.537146e+002
2.876608e+002, 2.518740e+002
2.881429e+002, 2.499331e+002
2.886250e+002, 2.479227e+002
2.891071e+002, 2.458817e+002
2.895892e+002, 2.438471e+002
2.900714e+002, 2.418127e+002
2.905535e+002, 2.397818e+002
2.910356e+002, 2.380711e+002
2.915177e+002, 2.371527e+002
2.919998e+002, 2.360671e+002
2.924819e+002, 2.344152e+002
2.929641e+002, 2.324071e+002
2.934462e+002, 2.304647e+002
2.939283e+002, 2.288524e+002
2.944104e+002, 2.275227e+002
2.948925e+002, 2.260830e+002
2.953746e+002, 2.242596e+002
2.958568e+002, 2.226317e+002
2.963389e+002, 2.213827e+002
2.968210e+002, 2.203429e+002
2.973031e+002, 2.193105e+002
2.977852e+002, 2.181862e+002
2.982673e+002, 2.169604e+002
2.987495e+002, 2.156087e+002
2.992316e+002, 2.134744e+002
2.997137e+002, 2.120672e+002
3.001958e+002, 2.122707e+002
3.006779e+002, 2.128244e+002
3.011600e+002, 2.124047e+002
3.016422e+002, 2.105937e+002
3.021243e+002, 2.079980e+002
3.026064e+002, 2.056890e+002
3.030885e+002, 2.036092e+002
3.035706e+002, 2.020003e+002
3.040527e+002, 2.010488e+002
3.045349e+002, 2.004002e+002
3.050170e+002, 1.998763e+002
3.054991e+002, 1.994075e+002
3.059812e+002, 1.989335e+002
3.064633e+002, 1.983980e+002
3.069454e+002, 1.978545e+002
3.074276e+002, 1.970297e+002
3.079097e+002, 1.956421e+002
3.083918e+002, 1.942727e+002
3.088739e+002, 1.932651e+002
3.093560e+002, 1.925948e+002
3.098381e+002, 1.920181e+002
3.103203e+002, 1.913018e+002
3.108024e+002, 1.904295e+002
3.112845e+002, 1.897654e+002
3.117666e+002, 1.894678e+002
3.122487e+002, 1.891833e+002
3.127308e+002, 1.888044e+002
3.132130e+002, 1.883400e+002
3.136951e+002, 1.878240e+002
3.141772e+002, 1.872707e+002
3.146593e+002, 1.866931e+002
3.151414e+002, 1.862017e+002
3.156235e+002, 1.858600e+002
3.161057e+002, 1.855259e+002
3.165878e+002, 1.851641e+002
3.170699e+002, 1.847988e+002
3.175520e+002, 1.844432e+002
3.180341e+002, 1.841028e+002
3.185162e+002, 1.838165e+002
3.189984e+002, 1.836967e+002
3.194805e+002, 1.841431e+002
3.199626e+002, 1.842169e+002
3.204447e+002, 1.836047e+002
3.209268e+002, 1.827883e+002
3.214089e+002, 1.822248e+002
3.218911e+002, 1.820285e+002
3.223732e+002, 1.819731e+002
3.228553e+002, 1.817188e+002
3.233374e+002, 1.811504e+002
3.238195e+002, 1.806668e+002
3.243016e+002, 1.803255e+002
3.247838e+002, 1.800151e+002
3.252659e+002, 1.795932e+002
3.257480e+002, 1.790984e+002
3.262301e+002, 1.787632e+002
3.267122e+002, 1.788596e+002
3.271943e+002, 1.794812e+002
3.276765e+002, 1.797349e+002
3.281586e+002, 1.794920e+002
3.286407e+002, 1.790632e+002
3.291228e+002, 1.783342e+002
3.296049e+002, 1.775035e+002
3.300870e+002, 1.769975e+002
3.305692e+002, 1.771479e+002
3.310513e+002, 1.778296e+002
3.315334e+002, 1.780762e+002
3.320155e+002, 1.773916e+002
3.324976e+002, 1.768089e+002
3.329797e+002, 1.764609e+002
3.334619e+002, 1.763028e+002
3.339440e+002, 1.763303e+002
3.344261e+002, 1.765421e+002
3.349082e+002, 1.767888e+002
3.353904e+002, 1.766892e+002
3.358725e+002, 1.758364e+002
3.363546e+002, 1.752771e+002
3.368367e+002, 1.753625e+002
3.373188e+002, 1.755357e+002
3.378009e+002, 1.752576e+002
3.382831e+002, 1.744577e+002
3.387652e+002, 1.735596e+002
3.392473e+002, 1.731688e+002
3.397294e+002, 1.735249e+002
3.402115e+002, 1.736352e+002
3.406936e+002, 1.731457e+002
3.411758e+002, 1.727541e+002
3.416579e+002, 1.729899e+002
3.421400e+002, 1.736877e+002
3.426221e+002, 1.742137e+002
3.431042e+002, 1.739707e+002
3.435863e+002, 1.729600e+002
3.440685e+002, 1.722972e+002
3.445506e+002, 1.721853e+002
3.450327e+002, 1.722550e+002
3.455148e+002, 1.726059e+002
3.459969e+002, 1.730588e+002
3.464790e+002, 1.733549e+002
3.469612e+002, 1.733511e+002
3.474433e+002, 1.731149e+002
3.479254e+002, 1.728501e+002
3.484075e+002, 1.725240e+002
3.488896e+002, 1.722270e+002
3.493717e+002, 1.718714e+002
3.498539e+002, 1.716017e+002
3.503360e+002, 1.716181e+002
3.508181e+002, 1.719615e+002
3.513002e+002, 1.723732e+002
3.517823e+002, 1.724151e+002
3.522644e+002, 1.719000e+002
3.527466e+002, 1.716327e+002
3.532287e+002, 1.719003e+002
3.537108e+002, 1.722224e+002
3.541929e+002, 1.723469e+002
3.546750e+002, 1.722801e+002
3.551571e+002, 1.721885e+002
3.556393e+002, 1.722496e+002
3.561214e+002, 1.724619e+002
3.566035e+002, 1.725000e+002
3.570856e+002, 1.722678e+002
3.575677e+002, 1.719609e+002
3.580498e+002, 1.714602e+002
3.585320e+002, 1.709643e+002
3.590141e+002, 1.708630e+002
3.594962e+002, 1.714835e+002
3.599783e+002, 1.724572e+002
3.604604e+002, 1.726854e+002
3.609425e+002, 1.716894e+002
3.614247e+002, 1.710723e+002
3.619068e+002, 1.717037e+002
3.623889e+002, 1.726850e+002
3.628710e+002, 1.732048e+002
3.633531e+002, 1.730371e+002
3.638352e+002, 1.725735e+002
3.643174e+002, 1.721498e+002
3.647995e+002, 1.717293e+002
3.652816e+002, 1.717466e+002
3.657637e+002, 1.727243e+002
3.662458e+002, 1.737768e+002
3.667279e+002, 1.743413e+002
3.672101e+002, 1.744343e+002
3.676922e+002, 1.743664e+002
3.681743e+002, 1.742834e+002
3.686564e+002, 1.742022e+002
3.691385e+002, 1.742053e+002
3.696206e+002, 1.743230e+002
3.701028e+002, 1.744757e+002
3.705849e+002, 1.746227e+002
3.710670e+002, 1.747682e+002
3.715491e+002, 1.749110e+002
3.720312e+002, 1.750142e+002
3.725133e+002, 1.751538e+002
3.729955e+002, 1.755010e+002
3.734776e+002, 1.760884e+002
3.739597e+002, 1.765479e+002
3.744418e+002, 1.765821e+002
3.749239e+002, 1.764901e+002
3.754060e+002, 1.766762e+002
3.758882e+002, 1.772339e+002
3.763703e+002, 1.778074e+002
3.768524e+002, 1.781617e+002
3.773345e+002, 1.783281e+002
3.778166e+002, 1.783995e+002
3.782987e+002, 1.783080e+002
3.787809e+002, 1.782943e+002
3.792630e+002, 1.787079e+002
3.797451e+002, 1.794920e+002
3.802272e+002, 1.802052e+002
3.807093e+002, 1.807215e+002
3.811914e+002, 1.810782e+002
3.816736e+002, 1.811911e+002
3.821557e+002, 1.810352e+002
3.826378e+002, 1.811278e+002
3.831199e+002, 1.819829e+002
3.836020e+002, 1.834174e+002
3.840841e+002, 1.845172e+002
3.845663e+002, 1.852428e+002
3.850484e+002, 1.856541e+002
3.855305e+002, 1.855236e+002
3.860126e+002, 1.850607e+002
3.864947e+002, 1.849485e+002
3.869768e+002, 1.855051e+002
3.874590e+002, 1.864848e+002
3.879411e+002, 1.874466e+002
3.884232e+002, 1.885055e+002
3.889053e+002, 1.892419e+002
3.893874e+002, 1.893342e+002
3.898695e+002, 1.891738e+002
3.903517e+002, 1.892439e+002
3.908338e+002, 1.896265e+002
3.913159e+002, 1.900057e+002
3.917980e+002, 1.900226e+002
3.922801e+002, 1.896068e+002
3.927622e+002, 1.894856e+002
3.932444e+002, 1.899434e+002
3.937265e+002, 1.903987e+002
3.942086e+002, 1.905987e+002
3.946907e+002, 1.905535e+002
3.951728e+002, 1.903198e+002
3.956549e+002, 1.899131e+002
3.961371e+002, 1.893908e+002
3.966192e+002, 1.889959e+002
3.971013e+002, 1.889545e+002
3.975834e+002, 1.887597e+002
3.980655e+002, 1.883004e+002
3.985476e+002, 1.877095e+002
3.990298e+002, 1.869917e+002
3.995119e+002, 1.862003e+002
3.999940e+002, 1.856299e+002
4.004761e+002, 1.857427e+002
4.009582e+002, 1.868373e+002
4.014403e+002, 1.875646e+002
4.019225e+002, 1.884255e+002
4.024046e+002, 1.885128e+002
4.028867e+002, 1.868989e+002
4.033688e+002, 1.841259e+002
4.038509e+002, 1.814420e+002
4.043330e+002, 1.796411e+002
4.048152e+002, 1.786903e+002
4.052973e+002, 1.784905e+002
4.057794e+002, 1.801570e+002
4.062615e+002, 1.808624e+002
4.067436e+002, 1.794907e+002
4.072257e+002, 1.773074e+002
4.077079e+002, 1.755452e+002
4.081900e+002, 1.745805e+002
4.086721e+002, 1.740265e+002
4.091542e+002, 1.733478e+002
4.096363e+002, 1.724816e+002
4.101184e+002, 1.718224e+002
4.106006e+002, 1.717049e+002
4.110827e+002, 1.715389e+002
4.115648e+002, 1.709921e+002
4.120469e+002, 1.701251e+002
4.125290e+002, 1.692049e+002
4.130111e+002, 1.683633e+002
4.134933e+002, 1.676058e+002
4.139754e+002, 1.669687e+002
4.144575e+002, 1.664960e+002
4.149396e+002, 1.660308e+002
4.154217e+002, 1.654507e+002
4.159038e+002, 1.648551e+002
4.163860e+002, 1.643518e+002
4.168681e+002, 1.639518e+002
4.173502e+002, 1.636825e+002
4.178323e+002, 1.636796e+002
4.183144e+002, 1.638951e+002
4.187965e+002, 1.639106e+002
4.192787e+002, 1.635737e+002
4.197608e+002, 1.630660e+002
4.202429e+002, 1.625664e+002
4.207250e+002, 1.620748e+002
4.212071e+002, 1.615892e+002
4.216892e+002, 1.609258e+002
4.221714e+002, 1.603500e+002
4.226535e+002, 1.604121e+002
4.231356e+002, 1.611531e+002
4.236177e+002, 1.616498e+002
4.240998e+002, 1.611495e+002
4.245819e+002, 1.599135e+002
4.250641e+002, 1.591818e+002
4.255462e+002, 1.593488e+002
4.260283e+002, 1.595118e+002
4.265104e+002, 1.591248e+002
4.269925e+002, 1.584842e+002
4.274746e+002, 1.582371e+002
4.279568e+002, 1.586310e+002
4.284389e+002, 1.592294e+002
4.289210e+002, 1.593889e+002
4.294031e+002, 1.589701e+002
4.298852e+002, 1.584182e+002
4.303673e+002, 1.575667e+002
4.308495e+002, 1.567126e+002
4.313316e+002, 1.559928e+002
4.318137e+002, 1.554470e+002
4.322958e+002, 1.551042e+002
4.327779e+002, 1.549776e+002
4.332600e+002, 1.550747e+002
4.337422e+002, 1.554588e+002
4.342243e+002, 1.568446e+002
4.347064e+002, 1.576577e+002
4.351885e+002, 1.573192e+002
4.356706e+002, 1.564883e+002
4.361527e+002, 1.558553e+002
4.366349e+002, 1.556320e+002
4.371170e+002, 1.555950e+002
4.375991e+002, 1.554194e+002
4.380812e+002, 1.550367e+002
4.385633e+002, 1.547674e+002
4.390454e+002, 1.545552e+002
4.395276e+002, 1.545159e+002
4.400097e+002, 1.549167e+002
4.404918e+002, 1.555297e+002
4.409739e+002, 1.558305e+002
4.414560e+002, 1.553988e+002
4.419381e+002, 1.545578e+002
4.424203e+002, 1.543285e+002
4.429024e+002, 1.550376e+002
4.433845e+002, 1.554904e+002
4.438666e+002, 1.551024e+002
4.443487e+002, 1.544440e+002
4.448308e+002, 1.539106e+002
4.453130e+002, 1.535736e+002
4.457951e+002, 1.534041e+002
4.462772e+002, 1.535127e+002
4.467593e+002, 1.538123e+002
4.472414e+002, 1.537956e+002
4.477235e+002, 1.532623e+002
4.482057e+002, 1.527100e+002
4.486878e+002, 1.525533e+002
4.491699e+002, 1.526667e+002
4.496520e+002, 1.527827e+002
4.501341e+002, 1.527970e+002
4.506162e+002, 1.528213e+002
4.510984e+002, 1.530169e+002
4.515805e+002, 1.533444e+002
4.520626e+002, 1.535405e+002
4.525447e+002, 1.534580e+002
4.530268e+002, 1.532454e+002
4.535089e+002, 1.532244e+002
4.539911e+002, 1.534711e+002
4.544732e+002, 1.535297e+002
4.549553e+002, 1.530233e+002
4.554374e+002, 1.524381e+002
4.559195e+002, 1.523632e+002
4.564016e+002, 1.528167e+002
4.568838e+002, 1.533088e+002
4.573659e+002, 1.534323e+002
4.578480e+002, 1.532156e+002
4.583301e+002, 1.532011e+002
4.588122e+002, 1.536785e+002
4.592943e+002, 1.539822e+002
4.597765e+002, 1.538194e+002
4.602586e+002, 1.534375e+002
4.607407e+002, 1.531894e+002
4.612228e+002, 1.531867e+002
4.617049e+002, 1.532373e+002
4.621870e+002, 1.530188e+002
4.626692e+002, 1.523579e+002
4.631513e+002, 1.519939e+002
4.636334e+002, 1.521522e+002
4.641155e+002, 1.523703e+002
4.645976e+002, 1.524349e+002
4.650797e+002, 1.524054e+002
4.655619e+002, 1.524651e+002
4.660440e+002, 1.527431e+002
4.665261e+002, 1.531402e+002
4.670082e+002, 1.533683e+002
4.674903e+002, 1.533709e+002
4.679724e+002, 1.533599e+002
4.684546e+002, 1.533201e+002
4.689367e+002, 1.533305e+002
4.694188e+002, 1.534482e+002
4.699009e+002, 1.536800e+002
4.703830e+002, 1.540013e+002
4.708651e+002, 1.545884e+002
4.713473e+002, 1.552706e+002
4.718294e+002, 1.552991e+002
4.723115e+002, 1.543960e+002
4.727936e+002, 1.535688e+002
4.732757e+002, 1.536927e+002
4.737578e+002, 1.543102e+002
4.742400e+002, 1.545662e+002
4.747221e+002, 1.542126e+002
4.752042e+002, 1.536795e+002
4.756863e+002, 1.531111e+002
4.761684e+002, 1.525864e+002
4.766505e+002, 1.523749e+002
4.771327e+002, 1.525883e+002
4.776148e+002, 1.529929e+002
4.780969e+002, 1.533695e+002
4.785790e+002, 1.537466e+002
4.790611e+002, 1.537830e+002
4.795432e+002, 1.531281e+002
4.800254e+002, 1.524211e+002
4.805075e+002, 1.520332e+002
4.809896e+002, 1.519406e+002
4.814717e+002, 1.520230e+002
4.819538e+002, 1.522335e+002
4.824359e+002, 1.524955e+002
4.829181e+002, 1.525847e+002
4.834002e+002, 1.522979e+002
4.838823e+002, 1.521322e+002
4.843644e+002, 1.521893e+002
4.848465e+002, 1.522898e+002
4.853286e+002, 1.523111e+002
4.858108e+002, 1.522431e+002
4.862929e+002, 1.521422e+002
4.867750e+002, 1.520646e+002
4.872571e+002, 1.519977e+002
4.877392e+002, 1.518107e+002
4.882213e+002, 1.513398e+002
4.887035e+002, 1.510219e+002
4.891856e+002, 1.510092e+002
4.896677e+002, 1.511643e+002
4.901498e+002, 1.514116e+002
4.906319e+002, 1.517319e+002
4.911140e+002, 1.519401e+002
4.915962e+002, 1.518092e+002
4.920783e+002, 1.513744e+002
4.925604e+002, 1.508909e+002
4.930425e+002, 1.502823e+002
4.935246e+002, 1.498346e+002
4.940067e+002, 1.499722e+002
4.944889e+002, 1.504243e+002
4.949710e+002, 1.505604e+002
4.954531e+002, 1.500124e+002
4.959352e+002, 1.493689e+002
4.964173e+002, 1.490974e+002
4.968994e+002, 1.491272e+002
4.973816e+002, 1.492404e+002
4.978637e+002, 1.494077e+002
4.983458e+002, 1.494865e+002
4.988279e+002, 1.492060e+002
4.993100e+002, 1.484440e+002
4.997921e+002, 1.479501e+002
5.002743e+002, 1.479246e+002
5.007564e+002, 1.480468e+002
5.012385e+002, 1.482342e+002
5.017206e+002, 1.483970e+002
5.022027e+002, 1.483111e+002
5.026848e+002, 1.478309e+002
5.031670e+002, 1.471116e+002
5.036491e+002, 1.466182e+002
5.041312e+002, 1.464801e+002
5.046133e+002, 1.463694e+002
5.050954e+002, 1.463083e+002
5.055775e+002, 1.462431e+002
5.060597e+002, 1.461271e+002
5.065418e+002, 1.459679e+002
5.070239e+002, 1.458150e+002
5.075060e+002, 1.457151e+002
5.079881e+002, 1.456504e+002
5.084702e+002, 1.455072e+002
5.089524e+002, 1.451855e+002
5.094345e+002, 1.450164e+002
5.099166e+002, 1.453213e+002
5.103987e+002, 1.457041e+002
5.108808e+002, 1.457756e+002
5.113629e+002, 1.454738e+002
5.118451e+002, 1.451192e+002
5.123271e+002, 1.449410e+002
5.128093e+002, 1.448936e+002
5.132914e+002, 1.448298e+002
5.137735e+002, 1.447150e+002
5.142556e+002, 1.447075e+002
5.147377e+002, 1.450495e+002
5.152198e+002, 1.455722e+002
5.157020e+002, 1.457005e+002
5.161841e+002, 1.451327e+002
5.166662e+002, 1.445841e+002
5.171483e+002, 1.444367e+002
5.176304e+002, 1.444937e+002
5.181125e+002, 1.444543e+002
5.185947e+002, 1.442411e+002
5.190768e+002, 1.438723e+002
5.195589e+002, 1.432990e+002
5.200410e+002, 1.424406e+002
5.205231e+002, 1.421618e+002
5.210052e+002, 1.430067e+002
5.214874e+002, 1.437239e+002
5.219695e+002, 1.438563e+002
5.224516e+002, 1.436405e+002
5.229337e+002, 1.434454e+002
5.234158e+002, 1.434049e+002
5.238979e+002, 1.433689e+002
5.243801e+002, 1.430205e+002
5.248622e+002, 1.422178e+002
5.253443e+002, 1.418769e+002
5.258264e+002, 1.425534e+002
5.263085e+002, 1.431194e+002
5.267906e+002, 1.429640e+002
5.272728e+002, 1.423726e+002
5.277549e+002, 1.418947e+002
5.282370e+002, 1.417344e+002
5.287191e+002, 1.418091e+002
5.292012e+002, 1.421505e+002
5.296833e+002, 1.427237e+002
5.301655e+002, 1.429942e+002
5.306476e+002, 1.427538e+002
5.311297e+002, 1.422926e+002
5.316118e+002, 1.418403e+002
5.320939e+002, 1.414062e+002
5.325760e+002, 1.411526e+002
5.330582e+002, 1.412982e+002
5.335403e+002, 1.414764e+002
5.340224e+002, 1.413068e+002
5.345045e+002, 1.409231e+002
5.349866e+002, 1.407897e+002
5.354688e+002, 1.411321e+002
5.359509e+002, 1.416877e+002
5.364330e+002, 1.419689e+002
5.369151e+002, 1.418598e+002
5.373972e+002, 1.417307e+002
5.378793e+002, 1.414413e+002
5.383615e+002, 1.412627e+002
5.388436e+002, 1.415174e+002
5.393257e+002, 1.419973e+002
5.398078e+002, 1.422041e+002
5.402899e+002, 1.418411e+002
5.407720e+002, 1.411430e+002
5.412542e+002, 1.405848e+002
5.417363e+002, 1.400918e+002
5.422184e+002, 1.400028e+002
5.427005e+002, 1.408419e+002
5.431826e+002, 1.417013e+002
5.436647e+002, 1.420329e+002
5.441469e+002, 1.419065e+002
5.446290e+002, 1.417206e+002
5.451111e+002, 1.416799e+002
5.455932e+002, 1.416885e+002
5.460753e+002, 1.415807e+002
5.465574e+002, 1.413621e+002
5.470396e+002, 1.411904e+002
5.475217e+002, 1.411475e+002
5.480038e+002, 1.411498e+002
5.484859e+002, 1.410564e+002
5.489680e+002, 1.408615e+002
5.494501e+002, 1.406791e+002
5.499323e+002, 1.404975e+002
5.504144e+002, 1.403627e+002
5.508965e+002, 1.403215e+002
5.513786e+002, 1.403622e+002
5.518607e+002, 1.404669e+002
5.523428e+002, 1.406393e+002
5.528250e+002, 1.407980e+002
5.533071e+002, 1.407301e+002
5.537892e+002, 1.402623e+002
5.542713e+002, 1.398763e+002
5.547534e+002, 1.395341e+002
5.552355e+002, 1.392962e+002
5.557177e+002, 1.391908e+002
5.561998e+002, 1.392196e+002
5.566819e+002, 1.394160e+002
5.571640e+002, 1.398621e+002
5.576461e+002, 1.403529e+002
5.581282e+002, 1.403493e+002
5.586104e+002, 1.397426e+002
5.590925e+002, 1.393522e+002
5.595746e+002, 1.394778e+002
5.600567e+002, 1.397931e+002
5.605388e+002, 1.400524e+002
5.610209e+002, 1.402468e+002
5.615031e+002, 1.403275e+002
5.619852e+002, 1.400943e+002
5.624673e+002, 1.398677e+002
5.629494e+002, 1.400298e+002
5.634315e+002, 1.405173e+002
5.639136e+002, 1.410663e+002
5.643958e+002, 1.416314e+002
5.648779e+002, 1.419983e+002
5.653600e+002, 1.417178e+002
5.658421e+002, 1.403377e+002
5.663242e+002, 1.396436e+002
5.668063e+002, 1.400944e+002
5.672885e+002, 1.407799e+002
5.677706e+002, 1.413559e+002
5.682527e+002, 1.417470e+002
5.687348e+002, 1.418220e+002
5.692169e+002, 1.415046e+002
5.696990e+002, 1.411044e+002
5.701812e+002, 1.413715e+002
5.706633e+002, 1.426423e+002
5.711454e+002, 1.431975e+002
5.716275e+002, 1.422941e+002
5.721096e+002, 1.412643e+002
5.725917e+002, 1.405726e+002
5.730739e+002, 1.402807e+002
5.735560e+002, 1.405134e+002
5.740381e+002, 1.415034e+002
5.745202e+002, 1.427030e+002
5.750023e+002, 1.436565e+002
5.754844e+002, 1.443246e+002
5.759666e+002, 1.443406e+002
5.764487e+002, 1.434310e+002
5.769308e+002, 1.424498e+002
5.774129e+002, 1.423293e+002
5.778950e+002, 1.431028e+002
5.783771e+002, 1.437964e+002
5.788593e+002, 1.445764e+002
5.793414e+002, 1.450732e+002
5.798235e+002, 1.449214e+002
5.803056e+002, 1.444362e+002
5.807877e+002, 1.441008e+002
5.812698e+002, 1.440666e+002
5.817520e+002, 1.442079e+002
5.822341e+002, 1.443952e+002
5.827162e+002, 1.446504e+002
5.831984e+002, 1.447419e+002
5.836805e+002, 1.443981e+002
5.841626e+002, 1.442330e+002
5.846447e+002, 1.445265e+002
5.851268e+002, 1.450348e+002
5.856089e+002, 1.454601e+002
5.860911e+002, 1.457222e+002
5.865732e+002, 1.459537e+002
5.870553e+002, 1.462808e+002
5.875374e+002, 1.466807e+002
5.880195e+002, 1.471045e+002
5.885016e+002, 1.475929e+002
5.889838e+002, 1.478741e+002
5.894659e+002, 1.476836e+002
5.899480e+002, 1.471777e+002
5.904301e+002, 1.468526e+002
5.909122e+002, 1.467919e+002
5.913943e+002, 1.467411e+002
5.918765e+002, 1.464698e+002
5.923586e+002, 1.462607e+002
5.928407e+002, 1.466191e+002
5.933228e+002, 1.474546e+002
5.938049e+002, 1.479945e+002
5.942870e+002, 1.476067e+002
5.947692e+002, 1.465578e+002
5.952513e+002, 1.461050e+002
5.957334e+002, 1.466094e+002
5.962155e+002, 1.470901e+002
5.966976e+002, 1.475905e+002
5.971797e+002, 1.479186e+002
5.976619e+002, 1.477859e+002
5.981440e+002, 1.473183e+002
5.986261e+002, 1.470474e+002
5.991082e+002, 1.474472e+002
5.995903e+002, 1.480953e+002
6.000724e+002, 1.481589e+002
6.005546e+002, 1.476341e+002
6.010367e+002, 1.471504e+002
6.015188e+002, 1.469122e+002
6.020009e+002, 1.467793e+002
6.024830e+002, 1.465726e+002
6.029651e+002, 1.462934e+002
6.034473e+002, 1.460522e+002
6.039294e+002, 1.459387e+002
6.044115e+002, 1.457957e+002
6.048936e+002, 1.454855e+002
6.053757e+002, 1.450817e+002
6.058578e+002, 1.447556e+002
6.063400e+002, 1.445683e+002
6.068221e+002, 1.443998e+002
6.073042e+002, 1.440414e+002
6.077863e+002, 1.434184e+002
6.082684e+002, 1.431102e+002
6.087505e+002, 1.435026e+002
6.092327e+002, 1.437645e+002
6.097148e+002, 1.436451e+002
6.101969e+002, 1.432700e+002
6.106790e+002, 1.427134e+002
6.111611e+002, 1.419853e+002
6.116432e+002, 1.414189e+002
6.121254e+002, 1.414932e+002
6.126075e+002, 1.419597e+002
6.130896e+002, 1.419632e+002
6.135717e+002, 1.413767e+002
6.140538e+002, 1.408275e+002
6.145359e+002, 1.407366e+002
6.150181e+002, 1.409295e+002
6.155002e+002, 1.408687e+002
6.159823e+002, 1.403542e+002
6.164644e+002, 1.400593e+002
6.169465e+002, 1.403471e+002
6.174286e+002, 1.407386e+002
6.179108e+002, 1.408043e+002
6.183929e+002, 1.405765e+002
6.188750e+002, 1.403072e+002
6.193571e+002, 1.401429e+002
6.198392e+002, 1.400952e+002
6.203214e+002, 1.402731e+002
6.208035e+002, 1.408981e+002
6.212856e+002, 1.410602e+002
6.217677e+002, 1.401045e+002
6.222498e+002, 1.391966e+002
6.227319e+002, 1.391133e+002
6.232141e+002, 1.395587e+002
6.236962e+002, 1.397007e+002
6.241783e+002, 1.390506e+002
6.246604e+002, 1.383091e+002
6.251425e+002, 1.382197e+002
6.256246e+002, 1.386122e+002
6.261068e+002, 1.389404e+002
6.265889e+002, 1.390919e+002
6.270710e+002, 1.391167e+002
6.275531e+002, 1.390563e+002
6.280352e+002, 1.389112e+002
6.285173e+002, 1.386657e+002
6.289995e+002, 1.380193e+002
6.294816e+002, 1.376710e+002
6.299637e+002, 1.379288e+002
6.304458e+002, 1.384456e+002
6.309279e+002, 1.389858e+002
6.314100e+002, 1.394507e+002
6.318922e+002, 1.397127e+002
6.323743e+002, 1.396258e+002
6.328564e+002, 1.392847e+002
6.333385e+002, 1.390517e+002
6.338206e+002, 1.389636e+002
6.343027e+002, 1.388225e+002
6.347849e+002, 1.384837e+002
6.352670e+002, 1.381545e+002
6.357491e+002, 1.380236e+002
6.362312e+002, 1.380807e+002
6.367133e+002, 1.382218e+002
6.371954e+002, 1.385228e+002
6.376776e+002, 1.388006e+002
6.381597e+002, 1.389102e+002
6.386418e+002, 1.388813e+002
6.391239e+002, 1.387681e+002
6.396060e+002, 1.385897e+002
6.400881e+002, 1.384034e+002
6.405703e+002, 1.382754e+002
6.410524e+002, 1.382049e+002
6.415345e+002, 1.382155e+002
6.420166e+002, 1.385995e+002
6.424987e+002, 1.387104e+002
6.429808e+002, 1.381638e+002
6.434630e+002, 1.374325e+002
6.439451e+002, 1.370216e+002
6.444272e+002, 1.370099e+002
6.449093e+002, 1.370622e+002
6.453914e+002, 1.367630e+002
6.458735e+002, 1.363676e+002
6.463557e+002, 1.367229e+002
6.468378e+002, 1.378797e+002
6.473199e+002, 1.384781e+002
6.478020e+002, 1.377381e+002
6.482841e+002, 1.364639e+002
6.487662e+002, 1.359650e+002
6.492484e+002, 1.363746e+002
6.497305e+002, 1.367563e+002
6.502126e+002, 1.371632e+002
6.506947e+002, 1.373993e+002
6.511768e+002, 1.372610e+002
6.516589e+002, 1.369013e+002
6.521411e+002, 1.365461e+002
6.526232e+002, 1.362861e+002
6.531053e+002, 1.361597e+002
6.535874e+002, 1.362758e+002
6.540695e+002, 1.366384e+002
6.545516e+002, 1.367998e+002
6.550338e+002, 1.366459e+002
6.555159e+002, 1.365163e+002
6.559980e+002, 1.366909e+002
6.564801e+002, 1.368996e+002
6.569622e+002, 1.368254e+002
6.574443e+002, 1.364209e+002
6.579265e+002, 1.359402e+002
6.584086e+002, 1.353141e+002
6.588907e+002, 1.347946e+002
6.593728e+002, 1.347636e+002
6.598549e+002, 1.351237e+002
6.603370e+002, 1.354389e+002
6.608192e+002, 1.355123e+002
6.613013e+002, 1.354104e+002
6.617834e+002, 1.352284e+002
6.622655e+002, 1.349136e+002
6.627476e+002, 1.347145e+002
6.632297e+002, 1.346960e+002
6.637119e+002, 1.347245e+002
6.641940e+002, 1.348868e+002
6.646761e+002, 1.350198e+002
6.651582e+002, 1.348712e+002
6.656403e+002, 1.343740e+002
6.661224e+002, 1.338239e+002
6.666046e+002, 1.334180e+002
6.670867e+002, 1.331502e+002
6.675688e+002, 1.330128e+002
6.680509e+002, 1.330068e+002
6.685330e+002, 1.331259e+002
6.690151e+002, 1.334317e+002
6.694973e+002, 1.337642e+002
6.699794e+002, 1.337775e+002
6.704615e+002, 1.332856e+002
6.709436e+002, 1.329792e+002
6.714257e+002, 1.330564e+002
6.719078e+002, 1.331304e+002
6.723900e+002, 1.330078e+002
6.728721e+002, 1.327405e+002
6.733542e+002, 1.324001e+002
6.738363e+002, 1.320193e+002
6.743184e+002, 1.317059e+002
6.748005e+002, 1.316214e+002
6.752827e+002, 1.317413e+002
6.757648e+002, 1.318396e+002
6.762469e+002, 1.319287e+002
6.767290e+002, 1.319274e+002
6.772111e+002, 1.317653e+002
6.776932e+002, 1.315056e+002
6.781754e+002, 1.312409e+002
6.786575e+002, 1.309507e+002
6.791396e+002, 1.307648e+002
6.796217e+002, 1.308717e+002
6.801038e+002, 1.309529e+002
6.805859e+002, 1.306961e+002
6.810681e+002, 1.302285e+002
6.815502e+002, 1.298518e+002
6.820323e+002, 1.296878e+002
6.825144e+002, 1.296734e+002
6.829965e+002, 1.297609e+002
6.834786e+002, 1.299648e+002
6.839608e+002, 1.300193e+002
6.844429e+002, 1.298512e+002
6.849250e+002, 1.296635e+002
6.854071e+002, 1.296291e+002
6.858892e+002, 1.295662e+002
6.863713e+002, 1.291684e+002
6.868535e+002, 1.283803e+002
6.873356e+002, 1.278627e+002
6.878177e+002, 1.281270e+002
6.882998e+002, 1.286313e+002
6.887819e+002, 1.289025e+002
6.892640e+002, 1.289311e+002
6.897462e+002, 1.287183e+002
6.902283e+002, 1.282581e+002
6.907104e+002, 1.277974e+002
6.911925e+002, 1.277206e+002
6.916746e+002, 1.280905e+002
6.921567e+002, 1.282788e+002
6.926389e+002, 1.282714e+002
6.931210e+002, 1.280913e+002
6.936031e+002, 1.276020e+002
6.940852e+002, 1.270438e+002
6.945673e+002, 1.266445e+002
6.950494e+002, 1.264340e+002
6.955316e+002, 1.263361e+002
6.960137e+002, 1.263589e+002
6.964958e+002, 1.264364e+002
6.969779e+002, 1.265277e+002
6.974600e+002, 1.266064e+002
6.979421e+002, 1.265646e+002
6.984243e+002, 1.263654e+002
6.989064e+002, 1.260150e+002
6.993885e+002, 1.254721e+002
6.998706e+002, 1.246968e+002
7.003527e+002, 1.242522e+002
7.008348e+002, 1.242954e+002
7.013170e+002, 1.244899e+002
7.017991e+002, 1.250919e+002
7.022812e+002, 1.256111e+002
7.027633e+002, 1.254139e+002
7.032454e+002, 1.245716e+002
7.037275e+002, 1.239457e+002
7.042097e+002, 1.242715e+002
7.046918e+002, 1.249617e+002
7.051739e+002, 1.251215e+002
7.056560e+002, 1.248117e+002
7.061381e+002, 1.243373e+002
7.066202e+002, 1.237249e+002
7.071024e+002, 1.233019e+002
7.075845e+002, 1.234928e+002
7.080666e+002, 1.242806e+002
7.085487e+002, 1.246062e+002
7.090308e+002, 1.240676e+002
7.095129e+002, 1.236233e+002
7.099951e+002, 1.233818e+002
7.104772e+002, 1.233099e+002
7.109593e+002, 1.234898e+002
7.114414e+002, 1.238292e+002
7.119235e+002, 1.240329e+002
7.124056e+002, 1.239143e+002
7.128878e+002, 1.236058e+002
7.133699e+002, 1.232726e+002
7.138520e+002, 1.229215e+002
7.143341e+002, 1.226181e+002
7.148162e+002, 1.223817e+002
7.152983e+002, 1.221388e+002
7.157805e+002, 1.217504e+002
7.162626e+002, 1.213065e+002
7.167447e+002, 1.213294e+002
7.172268e+002, 1.224618e+002
7.177089e+002, 1.231122e+002
7.181910e+002, 1.228923e+002
7.186732e+002, 1.223782e+002
7.191553e+002, 1.217871e+002
7.196374e+002, 1.212683e+002
7.201195e+002, 1.210791e+002
7.206016e+002, 1.213788e+002
7.210837e+002, 1.218242e+002
7.215659e+002, 1.219351e+002
7.220480e+002, 1.217770e+002
7.225301e+002, 1.217325e+002
7.230122e+002, 1.218615e+002
7.234943e+002, 1.219661e+002
7.239764e+002, 1.219345e+002
7.244586e+002, 1.217940e+002
7.249407e+002, 1.215994e+002
7.254228e+002, 1.212867e+002
7.259049e+002, 1.210774e+002
7.263870e+002, 1.210497e+002
7.268691e+002, 1.210619e+002
7.273513e+002, 1.210990e+002
7.278334e+002, 1.211029e+002
7.283155e+002, 1.209614e+002
7.287976e+002, 1.206451e+002
7.292797e+002, 1.203109e+002
7.297618e+002, 1.201275e+002
7.302440e+002, 1.200629e+002
7.307261e+002, 1.199938e+002
7.312082e+002, 1.199148e+002
7.316903e+002, 1.198959e+002
7.321724e+002, 1.200089e+002
7.326545e+002, 1.201178e+002
7.331367e+002, 1.199776e+002
7.336188e+002, 1.194986e+002
7.341009e+002, 1.193068e+002
7.345830e+002, 1.196226e+002
7.350651e+002, 1.199570e+002
7.355472e+002, 1.201821e+002
7.360294e+002, 1.203143e+002
7.365115e+002, 1.203751e+002
7.369936e+002, 1.203717e+002
7.374757e+002, 1.203109e+002
7.379578e+002, 1.202010e+002
7.384399e+002, 1.200328e+002
7.389221e+002, 1.197398e+002
7.394042e+002, 1.193363e+002
7.398863e+002, 1.190270e+002
7.403684e+002, 1.188486e+002
7.408505e+002, 1.188368e+002
7.413326e+002, 1.190826e+002
7.418148e+002, 1.195512e+002
7.422969e+002, 1.198397e+002
7.427790e+002, 1.199127e+002
7.432611e+002, 1.198705e+002
7.437432e+002, 1.196317e+002
7.442253e+002, 1.193586e+002
7.447075e+002, 1.190967e+002
7.451896e+002, 1.189084e+002
7.456717e+002, 1.189580e+002
7.461538e+002, 1.193830e+002
7.466359e+002, 1.198077e+002
7.471180e+002, 1.196821e+002
7.476002e+002, 1.191735e+002
7.480823e+002, 1.189051e+002
7.485644e+002, 1.189538e+002
7.490465e+002, 1.190640e+002
7.495286e+002, 1.191205e+002
7.500107e+002, 1.190865e+002
7.504929e+002, 1.188516e+002
7.509750e+002, 1.182192e+002
7.514571e+002, 1.178774e+002
7.519392e+002, 1.181912e+002
7.524213e+002, 1.183651e+002
7.529034e+002, 1.178335e+002
7.533856e+002, 1.170848e+002
7.538677e+002, 1.168606e+002
7.543498e+002, 1.173082e+002
7.548319e+002, 1.177990e+002
7.553140e+002, 1.178024e+002
7.557961e+002, 1.175867e+002
7.562783e+002, 1.175679e+002
7.567604e+002, 1.177380e+002
7.572425e+002, 1.180521e+002
7.577246e+002, 1.185133e+002
7.582067e+002, 1.189213e+002
7.586888e+002, 1.190416e+002
7.591710e+002, 1.188750e+002
7.596531e+002, 1.185554e+002
7.601352e+002, 1.177353e+002
7.606173e+002, 1.173023e+002
7.610994e+002, 1.178022e+002
7.615815e+002, 1.183576e+002
7.620637e+002, 1.181956e+002
7.625458e+002, 1.174953e+002
7.630279e+002, 1.170562e+002
7.635100e+002, 1.173188e+002
7.639921e+002, 1.176964e+002
7.644742e+002, 1.176848e+002
7.649564e+002, 1.174605e+002
7.654385e+002, 1.173574e+002
7.659206e+002, 1.174032e+002
7.664027e+002, 1.174185e+002
7.668848e+002, 1.172811e+002
7.673669e+002, 1.170805e+002
7.678491e+002, 1.170417e+002
7.683312e+002, 1.172229e+002
7.688133e+002, 1.173426e+002
7.692954e+002, 1.172944e+002
7.697775e+002, 1.173288e+002
7.702596e+002, 1.177744e+002
7.707418e+002, 1.182604e+002
7.712239e+002, 1.181059e+002
7.717060e+002, 1.171288e+002
7.721881e+002, 1.167527e+002
7.726702e+002, 1.183202e+002
7.731523e+002, 1.199693e+002
7.736345e+002, 1.200226e+002
7.741166e+002, 1.190305e+002
7.745987e+002, 1.181718e+002
7.750808e+002, 1.177954e+002
7.755629e+002, 1.175880e+002
7.760450e+002, 1.172249e+002
7.765272e+002, 1.167749e+002
7.770093e+002, 1.165862e+002
7.774914e+002, 1.166995e+002
7.779735e+002, 1.168692e+002
7.784556e+002, 1.170991e+002
7.789377e+002, 1.172802e+002
7.794199e+002, 1.172704e+002
7.799020e+002, 1.171179e+002
7.803841e+002, 1.170657e+002
7.808662e+002, 1.172282e+002
7.813483e+002, 1.173332e+002
7.818304e+002, 1.172362e+002
7.823126e+002, 1.171220e+002
7.827947e+002, 1.171510e+002
7.832768e+002, 1.172941e+002
7.837589e+002, 1.173955e+002
7.842410e+002, 1.173753e+002
7.847231e+002, 1.174879e+002
7.852053e+002, 1.183929e+002
7.856874e+002, 1.197154e+002
7.861695e+002, 1.197413e+002
7.866516e+002, 1.183235e+002
7.871337e+002, 1.170491e+002
7.876158e+002, 1.165909e+002
7.880980e+002, 1.166992e+002
7.885801e+002, 1.171088e+002
7.890622e+002, 1.179512e+002
7.895443e+002, 1.182213e+002
7.900264e+002, 1.169917e+002
7.905085e+002, 1.163976e+002
7.909907e+002, 1.174497e+002
7.914728e+002, 1.189407e+002
7.919549e+002, 1.199455e+002
7.924370e+002, 1.203235e+002
7.929191e+002, 1.201202e+002
7.934012e+002, 1.190703e+002
7.938834e+002, 1.178844e+002
7.943655e+002, 1.171886e+002
7.948476e+002, 1.168929e+002
7.953297e+002, 1.169420e+002
7.958118e+002, 1.172643e+002
7.962939e+002, 1.174152e+002
7.967761e+002, 1.170850e+002
7.972582e+002, 1.164841e+002
7.977403e+002, 1.161075e+002
7.982224e+002, 1.159766e+002
7.987045e+002, 1.159720e+002
7.991866e+002, 1.161208e+002
7.996688e+002, 1.163510e+002
8.001509e+002, 1.167914e+002
8.006330e+002, 1.172157e+002
8.011151e+002, 1.172714e+002
8.015972e+002, 1.169024e+002
8.020793e+002, 1.166973e+002
8.025615e+002, 1.171354e+002
8.030436e+002, 1.174562e+002
8.035257e+002, 1.169645e+002
8.040078e+002, 1.161526e+002
8.044899e+002, 1.157998e+002
8.049720e+002, 1.160082e+002
8.054542e+002, 1.163047e+002
8.059363e+002, 1.163163e+002
8.064184e+002, 1.161822e+002
8.069005e+002, 1.162652e+002
8.073826e+002, 1.165474e+002
8.078647e+002, 1.165770e+002
8.083469e+002, 1.162092e+002
8.088290e+002, 1.159115e+002
8.093111e+002, 1.160492e+002
8.097932e+002, 1.164702e+002
8.102753e+002, 1.167128e+002
8.107574e+002, 1.167282e+002
8.112396e+002, 1.166564e+002
8.117217e+002, 1.163722e+002
8.122038e+002, 1.161428e+002
8.126859e+002, 1.161436e+002
8.131680e+002, 1.162381e+002
8.136501e+002, 1.162283e+002
8.141323e+002, 1.160809e+002
8.146144e+002, 1.159398e+002
8.150965e+002, 1.159108e+002
8.155786e+002, 1.159210e+002
8.160607e+002, 1.158563e+002
8.165428e+002, 1.157650e+002
8.170250e+002, 1.158220e+002
8.175071e+002, 1.160492e+002
8.179892e+002, 1.162094e+002
8.184713e+002, 1.160884e+002
8.189534e+002, 1.157720e+002
8.194355e+002, 1.155745e+002
8.199177e+002, 1.155192e+002
8.203998e+002, 1.154558e+002
8.208819e+002, 1.152829e+002
8.213640e+002, 1.152472e+002
8.218461e+002, 1.156981e+002
8.223282e+002, 1.163202e+002
8.228104e+002, 1.164651e+002
8.232925e+002, 1.159943e+002
8.237746e+002, 1.155363e+002
8.242567e+002, 1.150811e+002
8.247388e+002, 1.148100e+002
8.252209e+002, 1.149620e+002
8.257031e+002, 1.153022e+002
8.261852e+002, 1.155247e+002
8.266673e+002, 1.155552e+002
8.271494e+002, 1.154576e+002
8.276315e+002, 1.152476e+002
8.281136e+002, 1.149754e+002
8.285958e+002, 1.146690e+002
8.290779e+002, 1.143619e+002
8.295600e+002, 1.142307e+002
8.300421e+002, 1.143116e+002
8.305242e+002, 1.144943e+002
8.310063e+002, 1.147214e+002
8.314885e+002, 1.149507e+002
8.319706e+002, 1.150380e+002
8.324527e+002, 1.148963e+002
8.329348e+002, 1.148464e+002
8.334169e+002, 1.150370e+002
8.338990e+002, 1.151299e+002
8.343812e+002, 1.147759e+002
8.348633e+002, 1.143729e+002
8.353454e+002, 1.145460e+002
8.358275e+002, 1.153702e+002
8.363096e+002, 1.158715e+002
8.367917e+002, 1.154647e+002
8.372739e+002, 1.149254e+002
8.377560e+002, 1.147148e+002
8.382381e+002, 1.146847e+002
8.387202e+002, 1.146241e+002
8.392023e+002, 1.144957e+002
8.396844e+002, 1.143461e+002
8.401666e+002, 1.141954e+002
8.406487e+002, 1.140818e+002
8.411308e+002, 1.141256e+002
8.416129e+002, 1.142893e+002
8.420950e+002, 1.142659e+002
8.425771e+002, 1.140037e+002
8.430593e+002, 1.138316e+002
8.435414e+002, 1.139734e+002
8.440235e+002, 1.142068e+002
8.445056e+002, 1.140725e+002
8.449877e+002, 1.134095e+002
8.454698e+002, 1.132048e+002
8.459520e+002, 1.140246e+002
8.464341e+002, 1.145561e+002
8.469162e+002, 1.143457e+002
8.473983e+002, 1.138536e+002
8.478804e+002, 1.133865e+002
8.483625e+002, 1.129968e+002
8.488447e+002, 1.127634e+002
8.493268e+002, 1.127086e+002
8.498089e+002, 1.128195e+002
8.502910e+002, 1.131979e+002
8.507731e+002, 1.136654e+002
8.512552e+002, 1.141069e+002
8.517374e+002, 1.144392e+002
8.522195e+002, 1.144739e+002
8.527016e+002, 1.141234e+002
8.531837e+002, 1.136272e+002
8.536658e+002, 1.132460e+002
8.541479e+002, 1.129829e+002
8.546301e+002, 1.128873e+002
8.551122e+002, 1.129645e+002
8.555943e+002, 1.129980e+002
8.560764e+002, 1.129170e+002
8.565585e+002, 1.127501e+002
8.570406e+002, 1.124802e+002
8.575228e+002, 1.121380e+002
8.580049e+002, 1.121101e+002
8.584870e+002, 1.128173e+002
8.589691e+002, 1.131207e+002
8.594512e+002, 1.125045e+002
8.599333e+002, 1.119051e+002
8.604155e+002, 1.118999e+002
8.608976e+002, 1.122341e+002
8.613797e+002, 1.123862e+002
8.618618e+002, 1.122306e+002
8.623439e+002, 1.121029e+002
8.628260e+002, 1.122256e+002
8.633082e+002, 1.123509e+002
8.637903e+002, 1.122892e+002
8.642724e+002, 1.120870e+002
8.647545e+002, 1.117571e+002
8.652366e+002, 1.113563e+002
8.657188e+002, 1.111491e+002
8.662009e+002, 1.114004e+002
8.666830e+002, 1.118599e+002
8.671651e+002, 1.121112e+002
8.676472e+002, 1.121474e+002
8.681293e+002, 1.118267e+002
8.686115e+002, 1.111069e+002
8.690936e+002, 1.105113e+002
8.695757e+002, 1.103675e+002
8.700578e+002, 1.105045e+002
8.705399e+002, 1.105855e+002
8.710220e+002, 1.106092e+002
8.715042e+002, 1.105821e+002
8.719863e+002, 1.105308e+002
8.724684e+002, 1.103876e+002
8.729505e+002, 1.099869e+002
8.734326e+002, 1.095939e+002
8.739147e+002, 1.094774e+002
8.743969e+002, 1.096003e+002
8.748790e+002, 1.096864e+002
8.753611e+002, 1.097315e+002
8.758432e+002, 1.096673e+002
8.763253e+002, 1.093128e+002
8.768074e+002, 1.089719e+002
8.772896e+002, 1.090093e+002
8.777717e+002, 1.092658e+002
8.782538e+002, 1.093076e+002
8.787359e+002, 1.089788e+002
8.792180e+002, 1.085917e+002
8.797001e+002, 1.084734e+002
8.801823e+002, 1.084706e+002
8.806644e+002, 1.082429e+002
8.811465e+002, 1.078596e+002
8.816286e+002, 1.076499e+002
8.821107e+002, 1.076980e+002
8.825928e+002, 1.078618e+002
8.830750e+002, 1.080370e+002
8.835571e+002, 1.081915e+002
8.840392e+002, 1.082086e+002
8.845213e+002, 1.080725e+002
8.850034e+002, 1.078752e+002
8.854855e+002, 1.075742e+002
8.859677e+002, 1.073361e+002
8.864498e+002, 1.073131e+002
8.869319e+002, 1.073551e+002
8.874140e+002, 1.071549e+002
8.878961e+002, 1.066376e+002
8.883782e+002, 1.063883e+002
8.888604e+002, 1.067242e+002
8.893425e+002, 1.069422e+002
8.898246e+002, 1.068290e+002
8.903067e+002, 1.065376e+002
8.907888e+002, 1.060570e+002
8.912709e+002, 1.055244e+002
8.917531e+002, 1.053356e+002
8.922352e+002, 1.057541e+002
8.927173e+002, 1.061244e+002
8.931994e+002, 1.059884e+002
8.936815e+002, 1.055708e+002
8.941636e+002, 1.049475e+002
8.946458e+002, 1.042916e+002
8.951279e+002, 1.040347e+002
8.956100e+002, 1.042856e+002
8.960921e+002, 1.046809e+002
8.965742e+002, 1.049227e+002
8.970563e+002, 1.049979e+002
8.975385e+002, 1.048024e+002
8.980206e+002, 1.043632e+002
8.985027e+002, 1.040405e+002
8.989848e+002, 1.038969e+002
8.994669e+002, 1.038730e+002
8.999490e+002, 1.039442e+002
9.004312e+002, 1.040823e+002
9.009133e+002, 1.042399e+002
9.013954e+002, 1.044558e+002
9.018775e+002, 1.045208e+002
9.023596e+002, 1.044944e+002
9.028417e+002, 1.042061e+002
9.033239e+002, 1.032194e+002
9.038060e+002, 1.022609e+002
9.042881e+002, 1.021539e+002
9.047702e+002, 1.027494e+002
9.052523e+002, 1.030668e+002
9.057344e+002, 1.027067e+002
9.062166e+002, 1.024783e+002
9.066987e+002, 1.027598e+002
9.071808e+002, 1.030637e+002
9.076629e+002, 1.029814e+002
9.081450e+002, 1.026816e+002
9.086271e+002, 1.025455e+002
9.091093e+002, 1.026647e+002
9.095914e+002, 1.027255e+002
9.100735e+002, 1.024476e+002
9.105556e+002, 1.020579e+002
9.110377e+002, 1.017892e+002
9.115198e+002, 1.016055e+002
9.120020e+002, 1.013750e+002
9.124841e+002, 1.011183e+002
9.129662e+002, 1.011402e+002
9.134483e+002, 1.016809e+002
9.139304e+002, 1.022565e+002
9.144125e+002, 1.018339e+002
9.148947e+002, 1.005985e+002
9.153768e+002, 1.001398e+002
9.158589e+002, 1.005597e+002
9.163410e+002, 1.009172e+002
9.168231e+002, 1.008612e+002
9.173052e+002, 1.006520e+002
9.177874e+002, 1.005543e+002
9.182695e+002, 1.005706e+002
9.187516e+002, 1.007563e+002
9.192337e+002, 1.012952e+002
9.197158e+002, 1.015536e+002
9.201979e+002, 1.012662e+002
9.206801e+002, 1.009548e+002
9.211622e+002, 1.009998e+002
9.216443e+002, 1.011643e+002
9.221264e+002, 1.010257e+002
9.226085e+002, 1.005077e+002
9.230906e+002, 1.001573e+002
9.235728e+002, 1.001116e+002
9.240549e+002, 1.001671e+002
9.245370e+002, 1.003584e+002
9.250191e+002, 1.005320e+002
9.255012e+002, 1.005351e+002
9.259833e+002, 1.003904e+002
9.264655e+002, 1.001944e+002
9.269476e+002, 9.994888e+001
9.274297e+002, 9.979964e+001
9.279118e+002, 9.994766e+001
9.283939e+002, 1.001649e+002
9.288760e+002, 1.001458e+002
9.293582e+002, 9.999607e+001
9.298403e+002, 1.000680e+002
9.303224e+002, 1.003979e+002
9.308045e+002, 1.005271e+002
9.312866e+002, 9.999364e+001
9.317687e+002, 9.923380e+001
9.322509e+002, 9.918227e+001
9.327330e+002, 9.964938e+001
9.332151e+002, 9.965288e+001
9.336972e+002, 9.911794e+001
9.341793e+002, 9.898289e+001
9.346614e+002, 9.977837e+001
9.351436e+002, 1.006912e+002
9.356257e+002, 1.004286e+002
9.361078e+002, 9.907887e+001
9.365899e+002, 9.849990e+001
9.370720e+002, 9.892712e+001
9.375541e+002, 9.918144e+001
9.380363e+002, 9.899168e+001
9.385184e+002, 9.863560e+001
9.390005e+002, 9.821616e+001
9.394826e+002, 9.782294e+001
9.399647e+002, 9.772196e+001
9.404468e+002, 9.803869e+001
9.409290e+002, 9.830469e+001
9.414111e+002, 9.857241e+001
9.418932e+002, 9.872594e+001
9.423753e+002, 9.860262e+001
9.428574e+002, 9.844939e+001
9.433395e+002, 9.857180e+001
9.438217e+002, 9.889548e+001
9.443038e+002, 9.899982e+001
9.447859e+002, 9.867391e+001
9.452680e+002, 9.834877e+001
9.457501e+002, 9.810117e+001
9.462322e+002, 9.798627e+001
9.467144e+002, 9.818954e+001
9.471965e+002, 9.849558e+001
9.476786e+002, 9.847417e+001
9.481607e+002, 9.808704e+001
9.486428e+002, 9.786691e+001
9.491249e+002, 9.836983e+001
9.496071e+002, 9.890601e+001
9.500892e+002, 9.861852e+001
9.505713e+002, 9.795566e+001
9.510534e+002, 9.763688e+001
9.515355e+002, 9.770731e+001
9.520176e+002, 9.799612e+001
9.524998e+002, 9.841859e+001
9.529819e+002, 9.870144e+001
9.534640e+002, 9.837232e+001
9.539461e+002, 9.770274e+001
9.544282e+002, 9.763351e+001
9.549103e+002, 9.806341e+001
9.553925e+002, 9.810148e+001
9.558746e+002, 9.755809e+001
9.563567e+002, 9.724241e+001
9.568388e+002, 9.777861e+001
9.573209e+002, 9.868227e+001
9.578030e+002, 9.888192e+001
9.582852e+002, 9.831815e+001
9.587673e+002, 9.764990e+001
9.592494e+002, 9.673485e+001
9.597315e+002, 9.637041e+001
9.602136e+002, 9.708743e+001
9.606957e+002, 9.782746e+001
9.611779e+002, 9.746185e+001
9.616600e+002, 9.625784e+001
9.621421e+002, 9.566766e+001
9.626242e+002, 9.605743e+001
9.631063e+002, 9.633472e+001
9.635884e+002, 9.640411e+001
9.640706e+002, 9.647060e+001
9.645527e+002, 9.660720e+001
9.650348e+002, 9.678132e+001
9.655169e+002, 9.697489e+001
9.659990e+002, 9.718191e+001
9.664811e+002, 9.734040e+001
9.669633e+002, 9.747725e+001
9.674454e+002, 9.751286e+001
9.679275e+002, 9.730531e+001
9.684096e+002, 9.711279e+001
9.688917e+002, 9.714860e+001
9.693738e+002, 9.730366e+001
9.698560e+002, 9.738463e+001
9.703381e+002, 9.735392e+001
9.708202e+002, 9.729546e+001
9.713023e+002, 9.731412e+001
9.717844e+002, 9.724425e+001
9.722665e+002, 9.681749e+001
9.727487e+002, 9.635083e+001
9.732308e+002, 9.623815e+001
9.737129e+002, 9.643800e+001
9.741950e+002, 9.674095e+001
9.746771e+002, 9.706468e+001
9.751592e+002, 9.731038e+001
9.756414e+002, 9.737337e+001
9.761235e+002, 9.731546e+001
9.766056e+002, 9.716582e+001
9.770877e+002, 9.698093e+001
9.775698e+002, 9.689754e+001
9.780519e+002, 9.692847e+001
9.785341e+002, 9.699097e+001
9.790162e+002, 9.703577e+001
9.794983e+002, 9.709093e+001
9.799804e+002, 9.727292e+001
9.804625e+002, 9.749693e+001
9.809446e+002, 9.736956e+001
9.814268e+002, 9.692409e+001
9.819089e+002, 9.653777e+001
9.823910e+002, 9.631013e+001
9.828731e+002, 9.624014e+001
9.833552e+002, 9.634452e+001
9.838373e+002, 9.655666e+001
9.843195e+002, 9.674723e+001
9.848016e+002, 9.692472e+001
9.852837e+002, 9.682815e+001
9.857658e+002, 9.636772e+001
9.862479e+002, 9.612699e+001
9.867300e+002, 9.637619e+001
9.872122e+002, 9.670909e+001
9.876943e+002, 9.669125e+001
9.881764e+002, 9.641209e+001
9.886585e+002, 9.638767e+001
9.891406e+002, 9.678777e+001
9.896227e+002, 9.692945e+001
9.901049e+002, 9.659219e+001
9.905870e+002, 9.635410e+001
9.910691e+002, 9.652972e+001
9.915512e+002, 9.684483e+001
9.920333e+002, 9.699305e+001
9.925154e+002, 9.697591e+001
9.929976e+002, 9.687134e+001
9.934797e+002, 9.656520e+001
9.939618e+002, 9.634634e+001
9.944439e+002, 9.622102e+001
9.949260e+002, 9.619393e+001
9.954081e+002, 9.636266e+001
9.958903e+002, 9.657842e+001
9.963724e+002, 9.662794e+001
9.968545e+002, 9.650037e+001
9.973366e+002, 9.638929e+001
9.978187e+002, 9.625560e+001
9.983008e+002, 9.624670e+001
9.987830e+002, 9.658159e+001
9.992651e+002, 9.688274e+001
9.997472e+002, 9.682689e+001
1.000229e+003, 9.656258e+001
1.000711e+003, 9.637532e+001
1.001194e+003, 9.631989e+001
1.001676e+003, 9.624906e+001
1.002158e+003, 9.595797e+001
1.002640e+003, 9.580359e+001
1.003122e+003, 9.616978e+001
1.003604e+003, 9.663653e+001
1.004086e+003, 9.678780e+001
1.004568e+003, 9.665791e+001
1.005050e+003, 9.637801e+001
1.005533e+003, 9.599815e+001
1.006015e+003, 9.578760e+001
1.006497e+003, 9.619788e+001
1.006979e+003, 9.660606e+001
1.007461e+003, 9.615002e+001
1.007943e+003, 9.542512e+001
1.008425e+003, 9.553469e+001
1.008907e+003, 9.631011e+001
1.009390e+003, 9.668658e+001
1.009872e+003, 9.621413e+001
1.010354e+003, 9.559376e+001
1.010836e+003, 9.549280e+001
1.011318e+003, 9.569131e+001
1.011800e+003, 9.583682e+001
1.012282e+003, 9.598939e+001
1.012764e+003, 9.643494e+001
1.013246e+003, 9.710749e+001
1.013729e+003, 9.741902e+001
1.014211e+003, 9.705161e+001
1.014693e+003, 9.646853e+001
1.015175e+003, 9.623031e+001
1.015657e+003, 9.626822e+001
1.016139e+003, 9.651383e+001
1.016621e+003, 9.687701e+001
1.017103e+003, 9.677073e+001
1.017586e+003, 9.613245e+001
1.018068e+003, 9.573574e+001
1.018550e+003, 9.607888e+001
1.019032e+003, 9.673424e+001
1.019514e+003, 9.702941e+001
1.019996e+003, 9.699503e+001
1.020478e+003, 9.675959e+001
1.020960e+003, 9.633289e+001
1.021442e+003, 9.613290e+001
1.021925e+003, 9.626517e+001
1.022407e+003, 9.645772e+001
1.022889e+003, 9.652251e+001
1.023371e+003, 9.653143e+001
1.023853e+003, 9.667297e+001
1.024335e+003, 9.694991e+001
1.024817e+003, 9.684242e+001
1.025299e+003, 9.625822e+001
1.025781e+003, 9.604412e+001
1.026264e+003, 9.649402e+001
1.026746e+003, 9.697254e+001
1.027228e+003, 9.699814e+001
1.027710e+003, 9.674171e+001
1.028192e+003, 9.660303e+001
1.028674e+003, 9.659633e+001
1.029156e+003, 9.659083e+001
1.029638e+003, 9.656010e+001
1.030120e+003, 9.664050e+001
1.030603e+003, 9.694652e+001
1.031085e+003, 9.719350e+001
1.031567e+003, 9.714915e+001
1.032049e+003, 9.689131e+001
1.032531e+003, 9.660245e+001
1.033013e+003, 9.623137e+001
1.033495e+003, 9.608366e+001
1.033977e+003, 9.633463e+001
1.034460e+003, 9.642500e+001
1.034942e+003, 9.607877e+001
1.035424e+003, 9.573067e+001
1.035906e+003, 9.573659e+001
1.036388e+003, 9.599619e+001
1.036870e+003, 9.624524e+001
1.037352e+003, 9.654441e+001
1.037834e+003, 9.661469e+001
1.038317e+003, 9.625928e+001
1.038799e+003, 9.597501e+001
1.039281e+003, 9.580939e+001
1.039763e+003, 9.581962e+001
1.040245e+003, 9.626460e+001
1.040727e+003, 9.689408e+001
1.041209e+003, 9.695866e+001
1.041691e+003, 9.621793e+001
1.042173e+003, 9.567718e+001
1.042656e+003, 9.536587e+001
1.043138e+003, 9.523084e+001
1.043620e+003, 9.537720e+001
1.044102e+003, 9.558586e+001
1.044584e+003, 9.577611e+001
1.045066e+003, 9.588731e+001
1.045548e+003, 9.572872e+001
1.046030e+003, 9.516483e+001
1.046512e+003, 9.482678e+001
1.046995e+003, 9.489128e+001
1.047477e+003, 9.504537e+001
1.047959e+003, 9.534147e+001
1.048441e+003, 9.556242e+001
1.048923e+003, 9.544432e+001
1.049405e+003, 9.513984e+001
1.049887e+003, 9.500096e+001
1.050369e+003, 9.506493e+001
1.050852e+003, 9.532385e+001
1.051334e+003, 9.612122e+001
1.051816e+003, 9.666236e+001
1.052298e+003, 9.646310e+001
1.052780e+003, 9.609372e+001
1.053262e+003, 9.607032e+001
1.053744e+003, 9.623169e+001
1.054226e+003, 9.611501e+001
1.054708e+003, 9.560105e+001
1.055191e+003, 9.519252e+001
1.055673e+003, 9.492045e+001
1.056155e+003, 9.491096e+001
1.056637e+003, 9.544678e+001
1.057119e+003, 9.605309e+001
1.057601e+003, 9.646523e+001
1.058083e+003, 9.660412e+001
1.058565e+003, 9.627995e+001
1.059047e+003, 9.542488e+001
1.059530e+003, 9.478004e+001
1.060012e+003, 9.474404e+001
1.060494e+003, 9.477238e+001
1.060976e+003, 9.460645e+001
1.061458e+003, 9.443822e+001
1.061940e+003, 9.448136e+001
1.062422e+003, 9.462722e+001
1.062904e+003, 9.459494e+001
1.063387e+003, 9.433469e+001
1.063869e+003, 9.425731e+001
1.064351e+003, 9.481806e+001
1.064833e+003, 9.519997e+001
1.065315e+003, 9.479398e+001
1.065797e+003, 9.428701e+001
1.066279e+003, 9.427795e+001
1.066761e+003, 9.458260e+001
1.067244e+003, 9.486895e+001
1.067726e+003, 9.505702e+001
1.068208e+003, 9.503081e+001
1.068690e+003, 9.451993e+001
1.069172e+003, 9.408448e+001
1.069654e+003, 9.402956e+001
1.070136e+003, 9.410336e+001
1.070618e+003, 9.411731e+001
1.071100e+003, 9.411007e+001
1.071583e+003, 9.421544e+001
1.072065e+003, 9.442514e+001
1.072547e+003, 9.449667e+001
1.073029e+003, 9.424740e+001
1.073511e+003, 9.398866e+001
1.073993e+003, 9.386980e+001
1.074475e+003, 9.379601e+001
1.074957e+003, 9.369307e+001
1.075439e+003, 9.358754e+001
1.075922e+003, 9.349568e+001
1.076404e+003, 9.344036e+001
1.076886e+003, 9.352452e+001
1.077368e+003, 9.389980e+001
1.077850e+003, 9.416013e+001
1.078332e+003, 9.391606e+001
1.078814e+003, 9.370054e+001
1.079297e+003, 9.403714e+001
1.079779e+003, 9.455354e+001
1.080261e+003, 9.474094e+001
1.080743e+003, 9.459188e+001
1.081225e+003, 9.438532e+001
1.081707e+003, 9.419553e+001
1.082189e+003, 9.402175e+001
1.082671e+003, 9.377400e+001
1.083153e+003, 9.364378e+001
1.083635e+003, 9.388596e+001
1.084118e+003, 9.422192e+001
1.084600e+003, 9.437797e+001
1.085082e+003, 9.432371e+001
1.085564e+003, 9.406054e+001
1.086046e+003, 9.353662e+001
1.086528e+003, 9.310084e+001
1.087010e+003, 9.291283e+001
1.087492e+003, 9.283952e+001
1.087975e+003, 9.292986e+001
1.088457e+003, 9.299815e+001
1.088939e+003, 9.271756e+001
1.089421e+003, 9.229216e+001
1.089903e+003, 9.232520e+001
1.090385e+003, 9.300565e+001
1.090867e+003, 9.343522e+001
1.091349e+003, 9.303201e+001
1.091832e+003, 9.261064e+001
1.092314e+003, 9.253944e+001
1.092796e+003, 9.261306e+001
1.093278e+003, 9.270518e+001
1.093760e+003, 9.278462e+001
1.094242e+003, 9.284828e+001
1.094724e+003, 9.289297e+001
1.095206e+003, 9.282278e+001
1.095688e+003, 9.237331e+001
1.096171e+003, 9.212751e+001
1.096653e+003, 9.247447e+001
1.097135e+003, 9.290051e+001
1.097617e+003, 9.307385e+001
1.098099e+003, 9.308302e+001
1.098581e+003, 9.309772e+001
1.099063e+003, 9.312927e+001
1.099545e+003, 9.306815e+001
1.100027e+003, 9.277799e+001
1.100510e+003, 9.257832e+001
1.100992e+003, 9.254522e+001
1.101474e+003, 9.262749e+001
1.101956e+003, 9.299422e+001
1.102438e+003, 9.332181e+001
1.102920e+003, 9.309985e+001
1.103402e+003, 9.246191e+001
1.103884e+003, 9.219630e+001
1.104367e+003, 9.259557e+001
1.104849e+003, 9.294580e+001
1.105331e+003, 9.310390e+001
1.105813e+003, 9.321730e+001
1.106295e+003, 9.346562e+001
1.106777e+003, 9.358845e+001
1.107259e+003, 9.315518e+001
1.107741e+003, 9.242599e+001
1.108224e+003, 9.219992e+001
1.108706e+003, 9.270726e+001
1.109188e+003, 9.304089e+001
1.109670e+003, 9.307058e+001
1.110152e+003, 9.299186e+001
1.110634e+003, 9.279771e+001
1.111116e+003, 9.256234e+001
1.111598e+003, 9.229325e+001
1.112080e+003, 9.203051e+001
1.112563e+003, 9.185356e+001
1.113045e+003, 9.177111e+001
1.113527e+003, 9.170712e+001
1.114009e+003, 9.172938e+001
1.114491e+003, 9.165482e+001
1.114973e+003, 9.128453e+001
1.115455e+003, 9.106240e+001
1.115937e+003, 9.131911e+001
1.116419e+003, 9.173275e+001
1.116902e+003, 9.187560e+001
1.117384e+003, 9.177481e+001
1.117866e+003, 9.176614e+001
1.118348e+003, 9.193203e+001
1.118830e+003, 9.199179e+001
1.119312e+003, 9.186861e+001
1.119794e+003, 9.177341e+001
1.120276e+003, 9.178287e+001
1.120759e+003, 9.184741e+001
1.121241e+003, 9.194751e+001
1.121723e+003, 9.205006e+001
1.122205e+003, 9.201979e+001
1.122687e+003, 9.179015e+001
1.123169e+003, 9.174741e+001
1.123651e+003, 9.195602e+001
1.124133e+003, 9.214457e+001
1.124615e+003, 9.226796e+001
1.125098e+003, 9.228568e+001
1.125580e+003, 9.214302e+001
1.126062e+003, 9.192873e+001
1.126544e+003, 9.181081e+001
1.127026e+003, 9.178905e+001
1.127508e+003, 9.185603e+001
1.127990e+003, 9.204138e+001
1.128472e+003, 9.203175e+001
1.128954e+003, 9.174767e+001
1.129437e+003, 9.150074e+001
1.129919e+003, 9.144118e+001
1.130401e+003, 9.149946e+001
1.130883e+003, 9.160021e+001
1.131365e+003, 9.173408e+001
1.131847e+003, 9.186293e+001
1.132329e+003, 9.198814e+001
1.132811e+003, 9.218336e+001
1.133294e+003, 9.244617e+001
1.133776e+003, 9.243434e+001
1.134258e+003, 9.203287e+001
1.134740e+003, 9.164133e+001
1.135222e+003, 9.159591e+001
1.135704e+003, 9.176293e+001
1.136186e+003, 9.191854e+001
1.136668e+003, 9.205873e+001
1.137151e+003, 9.212792e+001
1.137633e+003, 9.215868e+001
1.138115e+003, 9.235330e+001
1.138597e+003, 9.272179e+001
1.139079e+003, 9.305472e+001
1.139561e+003, 9.324022e+001
1.140043e+003, 9.318398e+001
1.140525e+003, 9.259898e+001
1.141007e+003, 9.181747e+001
1.141490e+003, 9.144119e+001
1.141972e+003, 9.138338e+001
1.142454e+003, 9.148702e+001
1.142936e+003, 9.171341e+001
1.143418e+003, 9.210172e+001
1.143900e+003, 9.262823e+001
1.144382e+003, 9.295477e+001
1.144864e+003, 9.270321e+001
1.145346e+003, 9.237976e+001
1.145829e+003, 9.266971e+001
1.146311e+003, 9.309380e+001
1.146793e+003, 9.299302e+001
1.147275e+003, 9.256170e+001
1.147757e+003, 9.215266e+001
1.148239e+003, 9.189703e+001
1.148721e+003, 9.198365e+001
1.149203e+003, 9.257844e+001
1.149686e+003, 9.314570e+001
1.150168e+003, 9.345952e+001
1.150650e+003, 9.348808e+001
1.151132e+003, 9.294090e+001
1.151614e+003, 9.230418e+001
1.152096e+003, 9.214690e+001
1.152578e+003, 9.236440e+001
1.153060e+003, 9.260250e+001
1.153542e+003, 9.278548e+001
1.154025e+003, 9.284928e+001
1.154507e+003, 9.264722e+001
1.154989e+003, 9.249437e+001
1.155471e+003, 9.261709e+001
1.155953e+003, 9.269770e+001
1.156435e+003, 9.245816e+001
1.156917e+003, 9.209061e+001
1.157399e+003, 9.184421e+001
1.157881e+003, 9.173488e+001
1.158364e+003, 9.171012e+001
1.158846e+003, 9.171337e+001
1.159328e+003, 9.189944e+001
1.159810e+003, 9.256490e+001
1.160292e+003, 9.302633e+001
1.160774e+003, 9.303590e+001
1.161256e+003, 9.282753e+001
1.161738e+003, 9.247868e+001
1.162221e+003, 9.209616e+001
1.162703e+003, 9.195276e+001
1.163185e+003, 9.208482e+001
1.163667e+003, 9.213484e+001
1.164149e+003, 9.197461e+001
1.164631e+003, 9.217257e+001
1.165113e+003, 9.303349e+001
1.165595e+003, 9.359205e+001
1.166078e+003, 9.327569e+001
1.166560e+003, 9.264995e+001
1.167042e+003, 9.239558e+001
1.167524e+003, 9.245725e+001
1.168006e+003, 9.263095e+001
1.168488e+003, 9.292861e+001
1.168970e+003, 9.295473e+001
1.169452e+003, 9.267638e+001
1.169934e+003, 9.257923e+001
1.170417e+003, 9.280556e+001
1.170899e+003, 9.318032e+001
1.171381e+003, 9.360133e+001
1.171863e+003, 9.392973e+001
1.172345e+003, 9.382530e+001
1.172827e+003, 9.345706e+001
1.173309e+003, 9.350528e+001
1.173791e+003, 9.382967e+001
1.174273e+003, 9.385870e+001
1.174756e+003, 9.356673e+001
1.175238e+003, 9.329855e+001
1.175720e+003, 9.318374e+001
1.176202e+003, 9.301219e+001
1.176684e+003, 9.249839e+001
1.177166e+003, 9.204340e+001
1.177648e+003, 9.229790e+001
1.178130e+003, 9.282484e+001
1.178613e+003, 9.300997e+001
1.179095e+003, 9.293799e+001
1.179577e+003, 9.277457e+001
1.180059e+003, 9.263173e+001
1.180541e+003, 9.283522e+001
1.181023e+003, 9.363528e+001
1.181505e+003, 9.408784e+001
1.181987e+003, 9.311726e+001
1.182469e+003, 9.220618e+001
1.182952e+003, 9.255344e+001
1.183434e+003, 9.325304e+001
1.183916e+003, 9.341695e+001
1.184398e+003, 9.321401e+001
1.184880e+003, 9.310458e+001
1.185362e+003, 9.315976e+001
1.185844e+003, 9.326814e+001
1.186326e+003, 9.356578e+001
1.186808e+003, 9.366341e+001
1.187291e+003, 9.319677e+001
1.187773e+003, 9.288245e+001
1.188255e+003, 9.322657e+001
1.188737e+003, 9.369817e+001
1.189219e+003, 9.379021e+001
1.189701e+003, 9.360307e+001
1.190183e+003, 9.343557e+001
1.190665e+003, 9.327553e+001
1.191148e+003, 9.320572e+001
1.191630e+003, 9.327699e+001
1.192112e+003, 9.328038e+001
1.192594e+003, 9.312717e+001
1.193076e+003, 9.308823e+001
1.193558e+003, 9.336141e+001
1.194040e+003, 9.363309e+001
1.194522e+003, 9.344539e+001
1.195005e+003, 9.298147e+001
1.195487e+003, 9.306242e+001
1.195969e+003, 9.366325e+001
1.196451e+003, 9.416087e+001
1.196933e+003, 9.451840e+001
1.197415e+003, 9.469337e+001
1.197897e+003, 9.467814e+001
1.198379e+003, 9.451399e+001
1.198861e+003, 9.421779e+001
1.199344e+003, 9.388484e+001
1.199826e+003, 9.358765e+001
1.200308e+003, 9.337997e+001
1.200790e+003, 9.343901e+001
1.201272e+003, 9.364457e+001
1.201754e+003, 9.377329e+001
1.202236e+003, 9.378777e+001
1.202718e+003, 9.361011e+001
1.203200e+003, 9.326716e+001
1.203683e+003, 9.310850e+001
1.204165e+003, 9.342879e+001
1.204647e+003, 9.375370e+001
1.205129e+003, 9.362846e+001
1.205611e+003, 9.346054e+001
1.206093e+003, 9.362105e+001
1.206575e+003, 9.392564e+001
1.207057e+003, 9.412606e+001
1.207540e+003, 9.425265e+001
1.208022e+003, 9.452016e+001
1.208504e+003, 9.499974e+001
1.208986e+003, 9.521678e+001
1.209468e+003, 9.481041e+001
1.209950e+003, 9.450268e+001
1.210432e+003, 9.451481e+001
1.210914e+003, 9.458581e+001
1.211396e+003, 9.456508e+001
1.211879e+003, 9.455415e+001
1.212361e+003, 9.467397e+001
1.212843e+003, 9.489214e+001
1.213325e+003, 9.509414e+001
1.213807e+003, 9.532142e+001
1.214289e+003, 9.529807e+001
1.214771e+003, 9.493093e+001
1.215253e+003, 9.468758e+001
1.215735e+003, 9.466473e+001
1.216218e+003, 9.477851e+001
1.216700e+003, 9.501114e+001
1.217182e+003, 9.522029e+001
1.217664e+003, 9.521851e+001
1.218146e+003, 9.507104e+001
1.218628e+003, 9.491435e+001
1.219110e+003, 9.479490e+001
1.219592e+003, 9.507983e+001
1.220075e+003, 9.566077e+001
1.220557e+003, 9.588071e+001
1.221039e+003, 9.562553e+001
1.221521e+003, 9.525615e+001
1.222003e+003, 9.496581e+001
1.222485e+003, 9.476192e+001
1.222967e+003, 9.457661e+001
1.223449e+003, 9.455749e+001
1.223932e+003, 9.514442e+001
1.224414e+003, 9.579430e+001
1.224896e+003, 9.568070e+001
1.225378e+003, 9.510359e+001
1.225860e+003, 9.472900e+001
1.226342e+003, 9.467445e+001
1.226824e+003, 9.477239e+001
1.227306e+003, 9.505348e+001
1.227788e+003, 9.522561e+001
1.228271e+003, 9.513970e+001
1.228753e+003, 9.499136e+001
1.229235e+003, 9.480008e+001
1.229717e+003, 9.464091e+001
1.230199e+003, 9.456275e+001
1.230681e+003, 9.456133e+001
1.231163e+003, 9.463497e+001
1.231645e+003, 9.478163e+001
1.232127e+003, 9.492786e+001
1.232610e+003, 9.511872e+001
1.233092e+003, 9.515469e+001
1.233574e+003, 9.497599e+001
1.234056e+003, 9.479483e+001
1.234538e+003, 9.463517e+001
1.235020e+003, 9.471745e+001
1.235502e+003, 9.526750e+001
1.235984e+003, 9.587797e+001
1.236467e+003, 9.574392e+001
1.236949e+003, 9.510561e+001
1.237431e+003, 9.502647e+001
1.237913e+003, 9.537577e+001
1.238395e+003, 9.552514e+001
1.238877e+003, 9.549124e+001
1.239359e+003, 9.578973e+001
1.239841e+003, 9.649943e+001
1.240323e+003, 9.698947e+001
1.240806e+003, 9.682525e+001
1.241288e+003, 9.645360e+001
1.241770e+003, 9.614507e+001
1.242252e+003, 9.599779e+001
1.242734e+003, 9.627140e+001
1.243216e+003, 9.663540e+001
1.243698e+003, 9.672930e+001
1.244180e+003, 9.656071e+001
1.244662e+003, 9.612516e+001
1.245145e+003, 9.547083e+001
1.245627e+003, 9.514624e+001
1.246109e+003, 9.555259e+001
1.246591e+003, 9.582267e+001
1.247073e+003, 9.549670e+001
1.247555e+003, 9.544970e+001
1.248037e+003, 9.635139e+001
1.248519e+003, 9.716220e+001
1.249002e+003, 9.708312e+001
1.249484e+003, 9.650311e+001
1.249966e+003, 9.609725e+001
1.250448e+003, 9.586335e+001
1.250930e+003, 9.573555e+001
1.251412e+003, 9.570435e+001
1.251894e+003, 9.595692e+001
1.252376e+003, 9.652541e+001
1.252859e+003, 9.680701e+001
1.253341e+003, 9.662182e+001
1.253823e+003, 9.650365e+001
1.254305e+003, 9.682919e+001
1.254787e+003, 9.728435e+001
1.255269e+003, 9.746096e+001
1.255751e+003, 9.745069e+001
1.256233e+003, 9.737186e+001
1.256715e+003, 9.726518e+001
1.257198e+003, 9.718522e+001
1.257680e+003, 9.715102e+001
1.258162e+003, 9.720462e+001
1.258644e+003, 9.733646e+001
1.259126e+003, 9.743745e+001
1.259608e+003, 9.742263e+001
1.260090e+003, 9.752626e+001
1.260572e+003, 9.807167e+001
1.261054e+003, 9.847962e+001
1.261537e+003, 9.849382e+001
1.262019e+003, 9.824400e+001
1.262501e+003, 9.758791e+001
1.262983e+003, 9.688161e+001
1.263465e+003, 9.668067e+001
1.263947e+003, 9.693925e+001
1.264429e+003, 9.730641e+001
1.264911e+003, 9.788818e+001
1.265394e+003, 9.819733e+001
1.265876e+003, 9.818962e+001
1.266358e+003, 9.804977e+001
1.266840e+003, 9.777516e+001
1.267322e+003, 9.772488e+001
1.267804e+003, 9.812422e+001
1.268286e+003, 9.854614e+001
1.268768e+003, 9.833468e+001
1.269250e+003, 9.805644e+001
1.269733e+003, 9.950674e+001
1.270215e+003, 1.016923e+002
1.270697e+003, 1.019482e+002
1.271179e+003, 1.008081e+002
1.271661e+003, 9.986892e+001
1.272143e+003, 9.944606e+001
1.272625e+003, 9.938614e+001
1.273107e+003, 9.963008e+001
1.273589e+003, 9.980738e+001
1.274072e+003, 9.975584e+001
1.274554e+003, 9.950084e+001
1.275036e+003, 9.854325e+001
1.275518e+003, 9.796767e+001
1.276000e+003, 9.907555e+001
1.276482e+003, 1.004888e+002
1.276964e+003, 1.005006e+002
1.277446e+003, 9.952517e+001
1.277929e+003, 9.905077e+001
1.278411e+003, 9.912771e+001
1.278893e+003, 9.921408e+001
1.279375e+003, 9.931536e+001
1.279857e+003, 9.941834e+001
1.280339e+003, 9.952915e+001
1.280821e+003, 9.960870e+001
1.281303e+003, 9.964983e+001
1.281786e+003, 9.968105e+001
1.282268e+003, 9.971188e+001
##END=



