##NAMES=Magnesioalterite
##RRUFFID=R180015
##IDEAL CHEMISTRY=Mg_2_Fe^3+^_4_(S^6+^O_4_)_4_((C_2_)^6+^O_4_)_2_(OH)_4_&#183;17H_2_O
##LOCALITY=Near Marble Canyon, Coconino County, Arizona, USA
##OWNER=RRUFF
##SOURCE=Malcom Alter
##DESCRIPTION=Isolated or aggregates of yellow brown prismatic crystals on petrified wood, associated with greenish prismatic alterite, gypsum, alunogen, and sulfur. Type sample.
##STATUS=The identification of this mineral is confirmed by single-crystal X-ray diffraction and chemical analysis.
##URL=rruff.info/R180015
##MEASURED CHEMISTRY=(Mg_0.74_Zn_0.60_Fe^2+^_0.58_Mn_0.09_)Fe^3+^_4_(SO_4_)_4.0_(C_2_O_4_)_2.0_(OH)_4.0_Â·17H_2_O
8.813672e+001, 7.142747e+001
8.861884e+001, 7.240750e+001
8.910095e+001, 7.338090e+001
8.958307e+001, 7.457144e+001
9.006519e+001, 7.570071e+001
9.054730e+001, 7.631020e+001
9.102942e+001, 7.645892e+001
9.151154e+001, 7.658488e+001
9.199365e+001, 7.721889e+001
9.247577e+001, 7.819072e+001
9.295789e+001, 7.897350e+001
9.344000e+001, 7.931051e+001
9.392212e+001, 7.925904e+001
9.440424e+001, 7.901051e+001
9.488635e+001, 7.861699e+001
9.536847e+001, 7.823592e+001
9.585059e+001, 7.802726e+001
9.633270e+001, 7.798171e+001
9.681482e+001, 7.811900e+001
9.729694e+001, 7.855930e+001
9.777905e+001, 7.927209e+001
9.826117e+001, 7.976348e+001
9.874329e+001, 7.992824e+001
9.922540e+001, 7.991764e+001
9.970752e+001, 8.011971e+001
1.001896e+002, 8.057240e+001
1.006718e+002, 8.105433e+001
1.011539e+002, 8.139098e+001
1.016360e+002, 8.153101e+001
1.021181e+002, 8.178651e+001
1.026002e+002, 8.223445e+001
1.030823e+002, 8.284043e+001
1.035645e+002, 8.329276e+001
1.040466e+002, 8.336974e+001
1.045287e+002, 8.359351e+001
1.050108e+002, 8.447070e+001
1.054929e+002, 8.647022e+001
1.059750e+002, 8.826826e+001
1.064572e+002, 8.956308e+001
1.069393e+002, 9.028600e+001
1.074214e+002, 9.126202e+001
1.079035e+002, 9.279758e+001
1.083856e+002, 9.444670e+001
1.088677e+002, 9.569557e+001
1.093499e+002, 9.605656e+001
1.098320e+002, 9.652526e+001
1.103141e+002, 9.740044e+001
1.107962e+002, 9.896520e+001
1.112783e+002, 1.001177e+002
1.117604e+002, 1.003977e+002
1.122426e+002, 1.003077e+002
1.127247e+002, 1.006079e+002
1.132068e+002, 1.018079e+002
1.136889e+002, 1.031139e+002
1.141710e+002, 1.041784e+002
1.146531e+002, 1.047910e+002
1.151353e+002, 1.054772e+002
1.156174e+002, 1.065440e+002
1.160995e+002, 1.078113e+002
1.165816e+002, 1.088375e+002
1.170637e+002, 1.092317e+002
1.175458e+002, 1.094511e+002
1.180280e+002, 1.098121e+002
1.185101e+002, 1.104708e+002
1.189922e+002, 1.111778e+002
1.194743e+002, 1.118328e+002
1.199564e+002, 1.124325e+002
1.204385e+002, 1.129518e+002
1.209207e+002, 1.133102e+002
1.214028e+002, 1.135983e+002
1.218849e+002, 1.139124e+002
1.223670e+002, 1.142160e+002
1.228491e+002, 1.146142e+002
1.233312e+002, 1.153079e+002
1.238134e+002, 1.162770e+002
1.242955e+002, 1.171403e+002
1.247776e+002, 1.175531e+002
1.252597e+002, 1.176316e+002
1.257418e+002, 1.176157e+002
1.262239e+002, 1.174224e+002
1.267061e+002, 1.172405e+002
1.271882e+002, 1.173880e+002
1.276703e+002, 1.178771e+002
1.281524e+002, 1.185852e+002
1.286345e+002, 1.195846e+002
1.291166e+002, 1.207714e+002
1.295988e+002, 1.216892e+002
1.300809e+002, 1.218429e+002
1.305630e+002, 1.215117e+002
1.310451e+002, 1.217002e+002
1.315272e+002, 1.225303e+002
1.320093e+002, 1.236274e+002
1.324915e+002, 1.244787e+002
1.329736e+002, 1.250824e+002
1.334557e+002, 1.256233e+002
1.339378e+002, 1.262263e+002
1.344199e+002, 1.268777e+002
1.349020e+002, 1.273414e+002
1.353842e+002, 1.275578e+002
1.358663e+002, 1.276144e+002
1.363484e+002, 1.277041e+002
1.368305e+002, 1.278268e+002
1.373126e+002, 1.279539e+002
1.377947e+002, 1.279693e+002
1.382769e+002, 1.277951e+002
1.387590e+002, 1.280956e+002
1.392411e+002, 1.291463e+002
1.397232e+002, 1.306706e+002
1.402053e+002, 1.314922e+002
1.406874e+002, 1.314266e+002
1.411696e+002, 1.310635e+002
1.416517e+002, 1.307961e+002
1.421338e+002, 1.306512e+002
1.426159e+002, 1.305552e+002
1.430980e+002, 1.305459e+002
1.435801e+002, 1.306104e+002
1.440623e+002, 1.305648e+002
1.445444e+002, 1.304788e+002
1.450265e+002, 1.302210e+002
1.455086e+002, 1.296280e+002
1.459907e+002, 1.281742e+002
1.464728e+002, 1.272325e+002
1.469550e+002, 1.271783e+002
1.474371e+002, 1.280879e+002
1.479192e+002, 1.286521e+002
1.484013e+002, 1.285876e+002
1.488834e+002, 1.283431e+002
1.493655e+002, 1.283362e+002
1.498477e+002, 1.290220e+002
1.503298e+002, 1.294558e+002
1.508119e+002, 1.293596e+002
1.512940e+002, 1.285977e+002
1.517761e+002, 1.280733e+002
1.522583e+002, 1.280899e+002
1.527404e+002, 1.282590e+002
1.532225e+002, 1.281724e+002
1.537046e+002, 1.275194e+002
1.541867e+002, 1.268666e+002
1.546688e+002, 1.263229e+002
1.551510e+002, 1.258584e+002
1.556331e+002, 1.256376e+002
1.561152e+002, 1.259906e+002
1.565973e+002, 1.265366e+002
1.570794e+002, 1.267619e+002
1.575615e+002, 1.260956e+002
1.580437e+002, 1.254734e+002
1.585258e+002, 1.253655e+002
1.590079e+002, 1.260731e+002
1.594900e+002, 1.265272e+002
1.599721e+002, 1.260240e+002
1.604542e+002, 1.250921e+002
1.609364e+002, 1.246586e+002
1.614185e+002, 1.257281e+002
1.619006e+002, 1.269080e+002
1.623827e+002, 1.273152e+002
1.628648e+002, 1.264261e+002
1.633469e+002, 1.256607e+002
1.638291e+002, 1.259043e+002
1.643112e+002, 1.267632e+002
1.647933e+002, 1.273248e+002
1.652754e+002, 1.267951e+002
1.657575e+002, 1.260243e+002
1.662396e+002, 1.257293e+002
1.667218e+002, 1.263717e+002
1.672039e+002, 1.269021e+002
1.676860e+002, 1.264130e+002
1.681681e+002, 1.252172e+002
1.686502e+002, 1.242784e+002
1.691323e+002, 1.242590e+002
1.696145e+002, 1.247188e+002
1.700966e+002, 1.252497e+002
1.705787e+002, 1.258327e+002
1.710608e+002, 1.263464e+002
1.715429e+002, 1.267141e+002
1.720250e+002, 1.269343e+002
1.725072e+002, 1.269938e+002
1.729893e+002, 1.267238e+002
1.734714e+002, 1.263307e+002
1.739535e+002, 1.261275e+002
1.744356e+002, 1.263580e+002
1.749177e+002, 1.266113e+002
1.753999e+002, 1.264654e+002
1.758820e+002, 1.259347e+002
1.763641e+002, 1.251828e+002
1.768462e+002, 1.240593e+002
1.773283e+002, 1.228128e+002
1.778104e+002, 1.219423e+002
1.782926e+002, 1.218078e+002
1.787747e+002, 1.219353e+002
1.792568e+002, 1.217041e+002
1.797389e+002, 1.211245e+002
1.802210e+002, 1.203212e+002
1.807031e+002, 1.192876e+002
1.811853e+002, 1.181112e+002
1.816674e+002, 1.170264e+002
1.821495e+002, 1.160382e+002
1.826316e+002, 1.152315e+002
1.831137e+002, 1.149065e+002
1.835958e+002, 1.150675e+002
1.840780e+002, 1.152739e+002
1.845601e+002, 1.150821e+002
1.850422e+002, 1.145709e+002
1.855243e+002, 1.140457e+002
1.860064e+002, 1.135045e+002
1.864885e+002, 1.130485e+002
1.869707e+002, 1.131262e+002
1.874528e+002, 1.137993e+002
1.879349e+002, 1.143880e+002
1.884170e+002, 1.140831e+002
1.888991e+002, 1.129823e+002
1.893812e+002, 1.118487e+002
1.898634e+002, 1.108156e+002
1.903455e+002, 1.099391e+002
1.908276e+002, 1.094612e+002
1.913097e+002, 1.094165e+002
1.917918e+002, 1.095658e+002
1.922739e+002, 1.097432e+002
1.927561e+002, 1.099439e+002
1.932382e+002, 1.098996e+002
1.937203e+002, 1.093500e+002
1.942024e+002, 1.084388e+002
1.946845e+002, 1.080546e+002
1.951666e+002, 1.082902e+002
1.956488e+002, 1.087327e+002
1.961309e+002, 1.089083e+002
1.966130e+002, 1.088052e+002
1.970951e+002, 1.086188e+002
1.975772e+002, 1.083828e+002
1.980593e+002, 1.081056e+002
1.985415e+002, 1.078731e+002
1.990236e+002, 1.076837e+002
1.995057e+002, 1.075510e+002
1.999878e+002, 1.074856e+002
2.004699e+002, 1.074856e+002
2.009520e+002, 1.076013e+002
2.014342e+002, 1.079205e+002
2.019163e+002, 1.084370e+002
2.023984e+002, 1.087397e+002
2.028805e+002, 1.088077e+002
2.033626e+002, 1.087135e+002
2.038447e+002, 1.085035e+002
2.043269e+002, 1.081378e+002
2.048090e+002, 1.078532e+002
2.052911e+002, 1.077434e+002
2.057732e+002, 1.078102e+002
2.062553e+002, 1.078901e+002
2.067374e+002, 1.079884e+002
2.072196e+002, 1.080840e+002
2.077017e+002, 1.081414e+002
2.081838e+002, 1.081443e+002
2.086659e+002, 1.081579e+002
2.091480e+002, 1.082502e+002
2.096301e+002, 1.084436e+002
2.101123e+002, 1.083199e+002
2.105944e+002, 1.077074e+002
2.110765e+002, 1.070007e+002
2.115586e+002, 1.067458e+002
2.120407e+002, 1.069980e+002
2.125228e+002, 1.075641e+002
2.130050e+002, 1.085353e+002
2.134871e+002, 1.100057e+002
2.139692e+002, 1.108813e+002
2.144513e+002, 1.109980e+002
2.149334e+002, 1.106984e+002
2.154155e+002, 1.104200e+002
2.158977e+002, 1.101098e+002
2.163798e+002, 1.099611e+002
2.168619e+002, 1.101282e+002
2.173440e+002, 1.106970e+002
2.178261e+002, 1.108428e+002
2.183082e+002, 1.103678e+002
2.187904e+002, 1.096705e+002
2.192725e+002, 1.093112e+002
2.197546e+002, 1.093973e+002
2.202367e+002, 1.096011e+002
2.207188e+002, 1.098646e+002
2.212009e+002, 1.102174e+002
2.216831e+002, 1.104362e+002
2.221652e+002, 1.104377e+002
2.226473e+002, 1.103855e+002
2.231294e+002, 1.105419e+002
2.236115e+002, 1.111038e+002
2.240936e+002, 1.114793e+002
2.245758e+002, 1.114637e+002
2.250579e+002, 1.109893e+002
2.255400e+002, 1.105862e+002
2.260221e+002, 1.101936e+002
2.265042e+002, 1.099244e+002
2.269863e+002, 1.099701e+002
2.274685e+002, 1.105399e+002
2.279506e+002, 1.110304e+002
2.284327e+002, 1.112744e+002
2.289148e+002, 1.112441e+002
2.293969e+002, 1.111768e+002
2.298790e+002, 1.110614e+002
2.303612e+002, 1.109142e+002
2.308433e+002, 1.107451e+002
2.313254e+002, 1.105031e+002
2.318075e+002, 1.103258e+002
2.322896e+002, 1.102643e+002
2.327717e+002, 1.103343e+002
2.332539e+002, 1.103693e+002
2.337360e+002, 1.103836e+002
2.342181e+002, 1.103508e+002
2.347002e+002, 1.102357e+002
2.351823e+002, 1.100107e+002
2.356644e+002, 1.097592e+002
2.361466e+002, 1.095024e+002
2.366287e+002, 1.092457e+002
2.371108e+002, 1.089518e+002
2.375929e+002, 1.085823e+002
2.380750e+002, 1.082221e+002
2.385571e+002, 1.079649e+002
2.390393e+002, 1.078512e+002
2.395214e+002, 1.077781e+002
2.400035e+002, 1.077911e+002
2.404856e+002, 1.079103e+002
2.409677e+002, 1.076854e+002
2.414498e+002, 1.067839e+002
2.419320e+002, 1.058557e+002
2.424141e+002, 1.055596e+002
2.428962e+002, 1.062899e+002
2.433783e+002, 1.068995e+002
2.438604e+002, 1.071422e+002
2.443425e+002, 1.070160e+002
2.448247e+002, 1.069776e+002
2.453068e+002, 1.070141e+002
2.457889e+002, 1.071464e+002
2.462710e+002, 1.074003e+002
2.467531e+002, 1.078149e+002
2.472352e+002, 1.082842e+002
2.477174e+002, 1.088974e+002
2.481995e+002, 1.096234e+002
2.486816e+002, 1.099000e+002
2.491637e+002, 1.095011e+002
2.496458e+002, 1.089250e+002
2.501279e+002, 1.085625e+002
2.506101e+002, 1.084715e+002
2.510922e+002, 1.084745e+002
2.515743e+002, 1.085572e+002
2.520564e+002, 1.087205e+002
2.525385e+002, 1.089509e+002
2.530206e+002, 1.092212e+002
2.535028e+002, 1.096015e+002
2.539849e+002, 1.101668e+002
2.544670e+002, 1.110642e+002
2.549491e+002, 1.117779e+002
2.554312e+002, 1.121058e+002
2.559133e+002, 1.121781e+002
2.563955e+002, 1.128139e+002
2.568776e+002, 1.144705e+002
2.573597e+002, 1.159881e+002
2.578418e+002, 1.165040e+002
2.583239e+002, 1.154185e+002
2.588061e+002, 1.149869e+002
2.592882e+002, 1.156074e+002
2.597703e+002, 1.169634e+002
2.602524e+002, 1.178236e+002
2.607345e+002, 1.179915e+002
2.612166e+002, 1.180414e+002
2.616988e+002, 1.183578e+002
2.621809e+002, 1.191485e+002
2.626630e+002, 1.194865e+002
2.631451e+002, 1.191696e+002
2.636272e+002, 1.184540e+002
2.641093e+002, 1.179910e+002
2.645915e+002, 1.177278e+002
2.650736e+002, 1.178311e+002
2.655557e+002, 1.185907e+002
2.660378e+002, 1.203604e+002
2.665199e+002, 1.212094e+002
2.670020e+002, 1.207656e+002
2.674842e+002, 1.196565e+002
2.679663e+002, 1.192882e+002
2.684484e+002, 1.199550e+002
2.689305e+002, 1.205065e+002
2.694126e+002, 1.203568e+002
2.698947e+002, 1.193330e+002
2.703769e+002, 1.186156e+002
2.708590e+002, 1.182680e+002
2.713411e+002, 1.181311e+002
2.718232e+002, 1.180222e+002
2.723053e+002, 1.180130e+002
2.727874e+002, 1.177336e+002
2.732696e+002, 1.168921e+002
2.737517e+002, 1.154317e+002
2.742338e+002, 1.145318e+002
2.747159e+002, 1.143770e+002
2.751980e+002, 1.144163e+002
2.756801e+002, 1.138035e+002
2.761623e+002, 1.124014e+002
2.766444e+002, 1.111868e+002
2.771265e+002, 1.105554e+002
2.776086e+002, 1.104541e+002
2.780907e+002, 1.100837e+002
2.785728e+002, 1.093772e+002
2.790550e+002, 1.085980e+002
2.795371e+002, 1.080312e+002
2.800192e+002, 1.076876e+002
2.805013e+002, 1.074272e+002
2.809834e+002, 1.071927e+002
2.814655e+002, 1.070122e+002
2.819477e+002, 1.071039e+002
2.824298e+002, 1.075299e+002
2.829119e+002, 1.079309e+002
2.833940e+002, 1.079048e+002
2.838761e+002, 1.074588e+002
2.843582e+002, 1.070848e+002
2.848404e+002, 1.068835e+002
2.853225e+002, 1.068259e+002
2.858046e+002, 1.069157e+002
2.862867e+002, 1.071790e+002
2.867688e+002, 1.072943e+002
2.872509e+002, 1.069168e+002
2.877331e+002, 1.061012e+002
2.882152e+002, 1.053013e+002
2.886973e+002, 1.045072e+002
2.891794e+002, 1.038719e+002
2.896615e+002, 1.039065e+002
2.901436e+002, 1.046039e+002
2.906258e+002, 1.052011e+002
2.911079e+002, 1.050763e+002
2.915900e+002, 1.043924e+002
2.920721e+002, 1.038250e+002
2.925542e+002, 1.034338e+002
2.930363e+002, 1.032418e+002
2.935185e+002, 1.034212e+002
2.940006e+002, 1.039273e+002
2.944827e+002, 1.043262e+002
2.949648e+002, 1.043348e+002
2.954469e+002, 1.040575e+002
2.959290e+002, 1.037364e+002
2.964112e+002, 1.033660e+002
2.968933e+002, 1.030498e+002
2.973754e+002, 1.029213e+002
2.978575e+002, 1.029592e+002
2.983396e+002, 1.030852e+002
2.988217e+002, 1.033805e+002
2.993039e+002, 1.037078e+002
2.997860e+002, 1.037544e+002
3.002681e+002, 1.034928e+002
3.007502e+002, 1.032350e+002
3.012323e+002, 1.034103e+002
3.017144e+002, 1.038345e+002
3.021966e+002, 1.040561e+002
3.026787e+002, 1.036749e+002
3.031608e+002, 1.031287e+002
3.036429e+002, 1.030572e+002
3.041250e+002, 1.034337e+002
3.046071e+002, 1.037170e+002
3.050893e+002, 1.032848e+002
3.055714e+002, 1.025126e+002
3.060535e+002, 1.020324e+002
3.065356e+002, 1.022512e+002
3.070177e+002, 1.026054e+002
3.074998e+002, 1.025147e+002
3.079820e+002, 1.020626e+002
3.084641e+002, 1.016960e+002
3.089462e+002, 1.018645e+002
3.094283e+002, 1.021990e+002
3.099104e+002, 1.022675e+002
3.103925e+002, 1.018278e+002
3.108747e+002, 1.013535e+002
3.113568e+002, 1.011948e+002
3.118389e+002, 1.012648e+002
3.123210e+002, 1.013206e+002
3.128031e+002, 1.011918e+002
3.132852e+002, 1.010330e+002
3.137674e+002, 1.010097e+002
3.142495e+002, 1.012449e+002
3.147316e+002, 1.013181e+002
3.152137e+002, 1.008195e+002
3.156958e+002, 1.000406e+002
3.161779e+002, 9.947927e+001
3.166601e+002, 9.972918e+001
3.171422e+002, 9.992703e+001
3.176243e+002, 9.951822e+001
3.181064e+002, 9.834988e+001
3.185885e+002, 9.731038e+001
3.190706e+002, 9.671770e+001
3.195528e+002, 9.641227e+001
3.200349e+002, 9.621276e+001
3.205170e+002, 9.634048e+001
3.209991e+002, 9.631167e+001
3.214812e+002, 9.582773e+001
3.219633e+002, 9.487613e+001
3.224455e+002, 9.419908e+001
3.229276e+002, 9.424879e+001
3.234097e+002, 9.445837e+001
3.238918e+002, 9.440311e+001
3.243739e+002, 9.373458e+001
3.248560e+002, 9.311460e+001
3.253382e+002, 9.271972e+001
3.258203e+002, 9.249612e+001
3.263024e+002, 9.209642e+001
3.267845e+002, 9.107310e+001
3.272666e+002, 9.017552e+001
3.277487e+002, 8.977982e+001
3.282309e+002, 9.062991e+001
3.287130e+002, 9.096741e+001
3.291951e+002, 9.044314e+001
3.296772e+002, 8.941631e+001
3.301593e+002, 8.879844e+001
3.306414e+002, 8.896564e+001
3.311236e+002, 8.911942e+001
3.316057e+002, 8.900077e+001
3.320878e+002, 8.856931e+001
3.325699e+002, 8.795145e+001
3.330520e+002, 8.689537e+001
3.335341e+002, 8.582121e+001
3.340163e+002, 8.541958e+001
3.344984e+002, 8.614682e+001
3.349805e+002, 8.664928e+001
3.354626e+002, 8.641807e+001
3.359447e+002, 8.539703e+001
3.364268e+002, 8.517915e+001
3.369090e+002, 8.615660e+001
3.373911e+002, 8.733278e+001
3.378732e+002, 8.763970e+001
3.383553e+002, 8.682758e+001
3.388374e+002, 8.616920e+001
3.393195e+002, 8.591055e+001
3.398017e+002, 8.597288e+001
3.402838e+002, 8.598596e+001
3.407659e+002, 8.592361e+001
3.412480e+002, 8.589840e+001
3.417301e+002, 8.605849e+001
3.422122e+002, 8.641653e+001
3.426944e+002, 8.650277e+001
3.431765e+002, 8.615498e+001
3.436586e+002, 8.567906e+001
3.441407e+002, 8.583728e+001
3.446228e+002, 8.664563e+001
3.451049e+002, 8.734138e+001
3.455871e+002, 8.738901e+001
3.460692e+002, 8.692015e+001
3.465513e+002, 8.667920e+001
3.470334e+002, 8.672138e+001
3.475155e+002, 8.686389e+001
3.479977e+002, 8.686269e+001
3.484798e+002, 8.674960e+001
3.489619e+002, 8.668936e+001
3.494440e+002, 8.685151e+001
3.499261e+002, 8.707703e+001
3.504082e+002, 8.697431e+001
3.508904e+002, 8.654321e+001
3.513725e+002, 8.612798e+001
3.518546e+002, 8.603071e+001
3.523367e+002, 8.616270e+001
3.528188e+002, 8.637296e+001
3.533009e+002, 8.678846e+001
3.537831e+002, 8.704752e+001
3.542652e+002, 8.656991e+001
3.547473e+002, 8.550503e+001
3.552294e+002, 8.454005e+001
3.557115e+002, 8.415643e+001
3.561936e+002, 8.407841e+001
3.566758e+002, 8.404224e+001
3.571579e+002, 8.404434e+001
3.576400e+002, 8.396418e+001
3.581221e+002, 8.361300e+001
3.586042e+002, 8.312589e+001
3.590863e+002, 8.276275e+001
3.595685e+002, 8.270103e+001
3.600506e+002, 8.275566e+001
3.605327e+002, 8.289296e+001
3.610148e+002, 8.313949e+001
3.614969e+002, 8.316288e+001
3.619790e+002, 8.262487e+001
3.624612e+002, 8.186716e+001
3.629433e+002, 8.124870e+001
3.634254e+002, 8.089828e+001
3.639075e+002, 8.066641e+001
3.643896e+002, 8.052100e+001
3.648717e+002, 8.045781e+001
3.653539e+002, 8.045858e+001
3.658360e+002, 8.060725e+001
3.663181e+002, 8.075686e+001
3.668002e+002, 8.082103e+001
3.672823e+002, 8.073135e+001
3.677644e+002, 8.062920e+001
3.682466e+002, 8.052735e+001
3.687287e+002, 8.041823e+001
3.692108e+002, 8.028104e+001
3.696929e+002, 8.001945e+001
3.701750e+002, 7.983164e+001
3.706571e+002, 7.983216e+001
3.711393e+002, 8.015956e+001
3.716214e+002, 8.019796e+001
3.721035e+002, 7.976652e+001
3.725856e+002, 7.918073e+001
3.730677e+002, 7.887544e+001
3.735498e+002, 7.902113e+001
3.740320e+002, 7.907201e+001
3.745141e+002, 7.886835e+001
3.749962e+002, 7.843441e+001
3.754783e+002, 7.808885e+001
3.759604e+002, 7.781145e+001
3.764425e+002, 7.767565e+001
3.769247e+002, 7.778191e+001
3.774068e+002, 7.816224e+001
3.778889e+002, 7.854149e+001
3.783710e+002, 7.889713e+001
3.788531e+002, 7.921555e+001
3.793352e+002, 7.942556e+001
3.798174e+002, 7.950978e+001
3.802995e+002, 7.966675e+001
3.807816e+002, 8.005581e+001
3.812637e+002, 8.063844e+001
3.817458e+002, 8.115769e+001
3.822279e+002, 8.161887e+001
3.827101e+002, 8.196520e+001
3.831922e+002, 8.219094e+001
3.836743e+002, 8.226909e+001
3.841564e+002, 8.204856e+001
3.846385e+002, 8.113546e+001
3.851206e+002, 8.004807e+001
3.856028e+002, 7.977942e+001
3.860849e+002, 8.030068e+001
3.865670e+002, 8.105571e+001
3.870491e+002, 8.186096e+001
3.875312e+002, 8.256168e+001
3.880133e+002, 8.288107e+001
3.884955e+002, 8.263303e+001
3.889776e+002, 8.220367e+001
3.894597e+002, 8.179673e+001
3.899418e+002, 8.146477e+001
3.904239e+002, 8.135654e+001
3.909060e+002, 8.181832e+001
3.913882e+002, 8.236344e+001
3.918703e+002, 8.254899e+001
3.923524e+002, 8.224346e+001
3.928345e+002, 8.203929e+001
3.933166e+002, 8.229678e+001
3.937987e+002, 8.280009e+001
3.942809e+002, 8.327175e+001
3.947630e+002, 8.367320e+001
3.952451e+002, 8.398916e+001
3.957272e+002, 8.422144e+001
3.962093e+002, 8.436712e+001
3.966914e+002, 8.441441e+001
3.971736e+002, 8.420387e+001
3.976557e+002, 8.399626e+001
3.981378e+002, 8.395255e+001
3.986199e+002, 8.443700e+001
3.991020e+002, 8.464068e+001
3.995841e+002, 8.425355e+001
4.000663e+002, 8.358391e+001
4.005484e+002, 8.339283e+001
4.010305e+002, 8.411699e+001
4.015126e+002, 8.477145e+001
4.019947e+002, 8.500218e+001
4.024768e+002, 8.470912e+001
4.029590e+002, 8.450620e+001
4.034411e+002, 8.437260e+001
4.039232e+002, 8.435342e+001
4.044053e+002, 8.454469e+001
4.048874e+002, 8.504187e+001
4.053695e+002, 8.542259e+001
4.058517e+002, 8.559444e+001
4.063338e+002, 8.559185e+001
4.068159e+002, 8.555213e+001
4.072980e+002, 8.546723e+001
4.077801e+002, 8.538732e+001
4.082622e+002, 8.528635e+001
4.087444e+002, 8.517989e+001
4.092265e+002, 8.531482e+001
4.097086e+002, 8.573103e+001
4.101907e+002, 8.635310e+001
4.106728e+002, 8.725452e+001
4.111549e+002, 8.835620e+001
4.116371e+002, 8.912036e+001
4.121192e+002, 8.914317e+001
4.126013e+002, 8.869218e+001
4.130834e+002, 8.808973e+001
4.135655e+002, 8.734016e+001
4.140476e+002, 8.700858e+001
4.145298e+002, 8.799474e+001
4.150119e+002, 8.962057e+001
4.154940e+002, 9.078075e+001
4.159761e+002, 9.104262e+001
4.164582e+002, 9.092542e+001
4.169403e+002, 9.061821e+001
4.174225e+002, 9.024186e+001
4.179046e+002, 9.014887e+001
4.183867e+002, 9.070669e+001
4.188688e+002, 9.149106e+001
4.193509e+002, 9.222505e+001
4.198330e+002, 9.288233e+001
4.203152e+002, 9.349751e+001
4.207973e+002, 9.415984e+001
4.212794e+002, 9.476852e+001
4.217615e+002, 9.521074e+001
4.222436e+002, 9.518656e+001
4.227257e+002, 9.527865e+001
4.232079e+002, 9.582808e+001
4.236900e+002, 9.676608e+001
4.241721e+002, 9.721871e+001
4.246542e+002, 9.648624e+001
4.251363e+002, 9.574569e+001
4.256184e+002, 9.561538e+001
4.261006e+002, 9.682401e+001
4.265827e+002, 9.728951e+001
4.270648e+002, 9.672459e+001
4.275469e+002, 9.555752e+001
4.280290e+002, 9.451529e+001
4.285111e+002, 9.354558e+001
4.289933e+002, 9.282932e+001
4.294754e+002, 9.250162e+001
4.299575e+002, 9.254739e+001
4.304396e+002, 9.242252e+001
4.309217e+002, 9.208504e+001
4.314038e+002, 9.170094e+001
4.318860e+002, 9.146201e+001
4.323681e+002, 9.137143e+001
4.328502e+002, 9.112063e+001
4.333323e+002, 9.062392e+001
4.338144e+002, 9.000656e+001
4.342965e+002, 8.940977e+001
4.347787e+002, 8.885241e+001
4.352608e+002, 8.857630e+001
4.357429e+002, 8.896548e+001
4.362250e+002, 8.969321e+001
4.367071e+002, 8.999268e+001
4.371892e+002, 8.981789e+001
4.376714e+002, 8.949002e+001
4.381535e+002, 8.919942e+001
4.386356e+002, 8.898208e+001
4.391177e+002, 8.890925e+001
4.395998e+002, 8.905973e+001
4.400819e+002, 8.929887e+001
4.405641e+002, 8.958395e+001
4.410462e+002, 8.988395e+001
4.415283e+002, 9.008719e+001
4.420104e+002, 9.003487e+001
4.424925e+002, 8.993407e+001
4.429746e+002, 8.986485e+001
4.434568e+002, 8.976320e+001
4.439389e+002, 8.998518e+001
4.444210e+002, 9.109886e+001
4.449031e+002, 9.243906e+001
4.453852e+002, 9.321348e+001
4.458673e+002, 9.270290e+001
4.463495e+002, 9.220439e+001
4.468316e+002, 9.189968e+001
4.473137e+002, 9.180002e+001
4.477958e+002, 9.199706e+001
4.482779e+002, 9.278732e+001
4.487600e+002, 9.356699e+001
4.492422e+002, 9.401724e+001
4.497243e+002, 9.395422e+001
4.502064e+002, 9.400744e+001
4.506885e+002, 9.422019e+001
4.511706e+002, 9.451401e+001
4.516527e+002, 9.472278e+001
4.521349e+002, 9.479131e+001
4.526170e+002, 9.504733e+001
4.530991e+002, 9.571665e+001
4.535812e+002, 9.667457e+001
4.540633e+002, 9.705575e+001
4.545454e+002, 9.681245e+001
4.550276e+002, 9.645383e+001
4.555097e+002, 9.644485e+001
4.559918e+002, 9.669600e+001
4.564739e+002, 9.675838e+001
4.569560e+002, 9.654319e+001
4.574381e+002, 9.619551e+001
4.579203e+002, 9.575069e+001
4.584024e+002, 9.530299e+001
4.588845e+002, 9.515302e+001
4.593666e+002, 9.586727e+001
4.598488e+002, 9.671824e+001
4.603309e+002, 9.675393e+001
4.608130e+002, 9.601299e+001
4.612951e+002, 9.529723e+001
4.617772e+002, 9.519774e+001
4.622593e+002, 9.534830e+001
4.627415e+002, 9.537768e+001
4.632236e+002, 9.502464e+001
4.637057e+002, 9.485648e+001
4.641878e+002, 9.550947e+001
4.646699e+002, 9.646922e+001
4.651520e+002, 9.674879e+001
4.656342e+002, 9.517570e+001
4.661163e+002, 9.376157e+001
4.665984e+002, 9.328231e+001
4.670805e+002, 9.391910e+001
4.675626e+002, 9.421233e+001
4.680447e+002, 9.380103e+001
4.685269e+002, 9.330322e+001
4.690090e+002, 9.316653e+001
4.694911e+002, 9.370487e+001
4.699732e+002, 9.394482e+001
4.704553e+002, 9.372816e+001
4.709374e+002, 9.324175e+001
4.714196e+002, 9.285767e+001
4.719017e+002, 9.254519e+001
4.723838e+002, 9.246691e+001
4.728659e+002, 9.278885e+001
4.733480e+002, 9.345724e+001
4.738301e+002, 9.392323e+001
4.743123e+002, 9.420712e+001
4.747944e+002, 9.418734e+001
4.752765e+002, 9.349988e+001
4.757586e+002, 9.234449e+001
4.762407e+002, 9.158909e+001
4.767228e+002, 9.144142e+001
4.772050e+002, 9.166501e+001
4.776871e+002, 9.201231e+001
4.781692e+002, 9.247662e+001
4.786513e+002, 9.303465e+001
4.791334e+002, 9.405479e+001
4.796155e+002, 9.492693e+001
4.800977e+002, 9.488815e+001
4.805798e+002, 9.393076e+001
4.810619e+002, 9.298061e+001
4.815440e+002, 9.249737e+001
4.820261e+002, 9.231448e+001
4.825082e+002, 9.230428e+001
4.829904e+002, 9.267142e+001
4.834725e+002, 9.285537e+001
4.839546e+002, 9.253740e+001
4.844367e+002, 9.193589e+001
4.849188e+002, 9.151987e+001
4.854009e+002, 9.156686e+001
4.858831e+002, 9.159407e+001
4.863652e+002, 9.147461e+001
4.868473e+002, 9.120408e+001
4.873294e+002, 9.085915e+001
4.878115e+002, 9.025451e+001
4.882936e+002, 8.979372e+001
4.887758e+002, 8.988492e+001
4.892579e+002, 9.084953e+001
4.897400e+002, 9.117791e+001
4.902221e+002, 9.060253e+001
4.907042e+002, 8.953067e+001
4.911863e+002, 8.871130e+001
4.916685e+002, 8.814457e+001
4.921506e+002, 8.775529e+001
4.926327e+002, 8.767809e+001
4.931148e+002, 8.773158e+001
4.935969e+002, 8.709312e+001
4.940790e+002, 8.575892e+001
4.945612e+002, 8.469396e+001
4.950433e+002, 8.501540e+001
4.955254e+002, 8.608997e+001
4.960075e+002, 8.674180e+001
4.964896e+002, 8.673829e+001
4.969717e+002, 8.631996e+001
4.974539e+002, 8.533714e+001
4.979360e+002, 8.412492e+001
4.984181e+002, 8.332597e+001
4.989002e+002, 8.372764e+001
4.993823e+002, 8.414938e+001
4.998644e+002, 8.388850e+001
5.003466e+002, 8.299363e+001
5.008287e+002, 8.213432e+001
5.013108e+002, 8.141184e+001
5.017929e+002, 8.085892e+001
5.022750e+002, 8.051255e+001
5.027571e+002, 8.049369e+001
5.032393e+002, 8.044701e+001
5.037214e+002, 8.033125e+001
5.042035e+002, 8.019952e+001
5.046856e+002, 8.011010e+001
5.051677e+002, 8.002663e+001
5.056498e+002, 8.008698e+001
5.061320e+002, 8.044150e+001
5.066141e+002, 8.096880e+001
5.070962e+002, 8.087131e+001
5.075783e+002, 7.997717e+001
5.080604e+002, 7.917923e+001
5.085425e+002, 7.913560e+001
5.090247e+002, 7.975549e+001
5.095068e+002, 8.016603e+001
5.099889e+002, 8.033196e+001
5.104710e+002, 8.030356e+001
5.109531e+002, 8.002397e+001
5.114352e+002, 7.958500e+001
5.119174e+002, 7.926489e+001
5.123995e+002, 7.919347e+001
5.128816e+002, 7.921643e+001
5.133637e+002, 7.910664e+001
5.138458e+002, 7.893777e+001
5.143279e+002, 7.894720e+001
5.148101e+002, 7.940644e+001
5.152922e+002, 7.998482e+001
5.157743e+002, 8.049648e+001
5.162564e+002, 8.093213e+001
5.167385e+002, 8.120915e+001
5.172206e+002, 8.112733e+001
5.177028e+002, 8.096780e+001
5.181849e+002, 8.095683e+001
5.186670e+002, 8.134863e+001
5.191491e+002, 8.160881e+001
5.196312e+002, 8.153226e+001
5.201133e+002, 8.133464e+001
5.205955e+002, 8.147160e+001
5.210776e+002, 8.195965e+001
5.215597e+002, 8.276722e+001
5.220418e+002, 8.404854e+001
5.225239e+002, 8.576386e+001
5.230060e+002, 8.679923e+001
5.234882e+002, 8.699778e+001
5.239703e+002, 8.709394e+001
5.244524e+002, 8.773092e+001
5.249345e+002, 8.884693e+001
5.254166e+002, 8.978317e+001
5.258987e+002, 9.043824e+001
5.263809e+002, 9.104684e+001
5.268630e+002, 9.199048e+001
5.273451e+002, 9.316442e+001
5.278272e+002, 9.421634e+001
5.283093e+002, 9.491936e+001
5.287914e+002, 9.552820e+001
5.292736e+002, 9.622684e+001
5.297557e+002, 9.704340e+001
5.302378e+002, 9.806843e+001
5.307199e+002, 9.963612e+001
5.312020e+002, 1.012472e+002
5.316841e+002, 1.025292e+002
5.321663e+002, 1.034077e+002
5.326484e+002, 1.041824e+002
5.331305e+002, 1.046816e+002
5.336126e+002, 1.052530e+002
5.340947e+002, 1.062420e+002
5.345768e+002, 1.081878e+002
5.350590e+002, 1.098603e+002
5.355411e+002, 1.110762e+002
5.360232e+002, 1.119753e+002
5.365053e+002, 1.128910e+002
5.369874e+002, 1.137877e+002
5.374695e+002, 1.147659e+002
5.379517e+002, 1.159509e+002
5.384338e+002, 1.173050e+002
5.389159e+002, 1.180983e+002
5.393980e+002, 1.182493e+002
5.398801e+002, 1.183121e+002
5.403622e+002, 1.189457e+002
5.408444e+002, 1.199264e+002
5.413265e+002, 1.203085e+002
5.418086e+002, 1.198858e+002
5.422907e+002, 1.191726e+002
5.427728e+002, 1.187544e+002
5.432549e+002, 1.184909e+002
5.437371e+002, 1.180871e+002
5.442192e+002, 1.174251e+002
5.447013e+002, 1.165777e+002
5.451834e+002, 1.155208e+002
5.456655e+002, 1.142921e+002
5.461476e+002, 1.130783e+002
5.466298e+002, 1.121766e+002
5.471119e+002, 1.111307e+002
5.475940e+002, 1.096643e+002
5.480761e+002, 1.076500e+002
5.485582e+002, 1.056008e+002
5.490403e+002, 1.034819e+002
5.495225e+002, 1.013772e+002
5.500046e+002, 9.936991e+001
5.504867e+002, 9.744431e+001
5.509688e+002, 9.563090e+001
5.514509e+002, 9.387186e+001
5.519330e+002, 9.226438e+001
5.524152e+002, 9.119859e+001
5.528973e+002, 9.077873e+001
5.533794e+002, 9.002365e+001
5.538615e+002, 8.837830e+001
5.543436e+002, 8.616393e+001
5.548257e+002, 8.451604e+001
5.553079e+002, 8.343784e+001
5.557900e+002, 8.247912e+001
5.562721e+002, 8.134056e+001
5.567542e+002, 8.010227e+001
5.572363e+002, 7.887659e+001
5.577184e+002, 7.766629e+001
5.582006e+002, 7.655215e+001
5.586827e+002, 7.562820e+001
5.591648e+002, 7.482846e+001
5.596469e+002, 7.405211e+001
5.601290e+002, 7.324026e+001
5.606111e+002, 7.248666e+001
5.610933e+002, 7.179121e+001
5.615754e+002, 7.117759e+001
5.620575e+002, 7.072107e+001
5.625396e+002, 7.066477e+001
5.630217e+002, 7.052331e+001
5.635038e+002, 7.010221e+001
5.639860e+002, 6.938133e+001
5.644681e+002, 6.891916e+001
5.649502e+002, 6.885550e+001
5.654323e+002, 6.879197e+001
5.659144e+002, 6.838917e+001
5.663965e+002, 6.761114e+001
5.668787e+002, 6.704128e+001
5.673608e+002, 6.674542e+001
5.678429e+002, 6.658482e+001
5.683250e+002, 6.645031e+001
5.688071e+002, 6.631295e+001
5.692892e+002, 6.601503e+001
5.697714e+002, 6.535238e+001
5.702535e+002, 6.471346e+001
5.707356e+002, 6.472533e+001
5.712177e+002, 6.521107e+001
5.716998e+002, 6.558080e+001
5.721819e+002, 6.542820e+001
5.726641e+002, 6.513539e+001
5.731462e+002, 6.493433e+001
5.736283e+002, 6.483979e+001
5.741104e+002, 6.482173e+001
5.745925e+002, 6.511593e+001
5.750746e+002, 6.531607e+001
5.755568e+002, 6.512447e+001
5.760389e+002, 6.414822e+001
5.765210e+002, 6.347203e+001
5.770031e+002, 6.324098e+001
5.774852e+002, 6.320010e+001
5.779673e+002, 6.295647e+001
5.784495e+002, 6.236294e+001
5.789316e+002, 6.211109e+001
5.794137e+002, 6.243522e+001
5.798958e+002, 6.311485e+001
5.803779e+002, 6.359777e+001
5.808600e+002, 6.388243e+001
5.813422e+002, 6.407401e+001
5.818243e+002, 6.421382e+001
5.823064e+002, 6.430376e+001
5.827885e+002, 6.432474e+001
5.832706e+002, 6.427858e+001
5.837527e+002, 6.423697e+001
5.842349e+002, 6.427541e+001
5.847170e+002, 6.433266e+001
5.851991e+002, 6.435538e+001
5.856812e+002, 6.434957e+001
5.861633e+002, 6.425309e+001
5.866454e+002, 6.382401e+001
5.871276e+002, 6.336580e+001
5.876097e+002, 6.325230e+001
5.880918e+002, 6.370092e+001
5.885739e+002, 6.432549e+001
5.890560e+002, 6.525677e+001
5.895381e+002, 6.631399e+001
5.900203e+002, 6.697539e+001
5.905024e+002, 6.722391e+001
5.909845e+002, 6.709638e+001
5.914666e+002, 6.643763e+001
5.919487e+002, 6.535072e+001
5.924308e+002, 6.481303e+001
5.929130e+002, 6.485484e+001
5.933951e+002, 6.520378e+001
5.938772e+002, 6.581457e+001
5.943593e+002, 6.656303e+001
5.948414e+002, 6.705013e+001
5.953235e+002, 6.721006e+001
5.958057e+002, 6.728098e+001
5.962878e+002, 6.737521e+001
5.967699e+002, 6.754963e+001
5.972520e+002, 6.790990e+001
5.977341e+002, 6.870557e+001
5.982162e+002, 6.937298e+001
5.986984e+002, 6.954021e+001
5.991805e+002, 6.939109e+001
5.996626e+002, 6.932631e+001
6.001447e+002, 6.935734e+001
6.006268e+002, 6.956758e+001
6.011089e+002, 7.008841e+001
6.015911e+002, 7.087218e+001
6.020732e+002, 7.138481e+001
6.025553e+002, 7.156819e+001
6.030374e+002, 7.157842e+001
6.035195e+002, 7.135632e+001
6.040016e+002, 7.087318e+001
6.044838e+002, 7.107236e+001
6.049659e+002, 7.207674e+001
6.054480e+002, 7.317307e+001
6.059301e+002, 7.354332e+001
6.064122e+002, 7.338407e+001
6.068943e+002, 7.341531e+001
6.073765e+002, 7.382789e+001
6.078586e+002, 7.427559e+001
6.083407e+002, 7.437691e+001
6.088228e+002, 7.426096e+001
6.093049e+002, 7.416150e+001
6.097870e+002, 7.417779e+001
6.102692e+002, 7.422517e+001
6.107513e+002, 7.436111e+001
6.112334e+002, 7.451511e+001
6.117155e+002, 7.443754e+001
6.121976e+002, 7.352254e+001
6.126797e+002, 7.293387e+001
6.131619e+002, 7.319939e+001
6.136440e+002, 7.438469e+001
6.141261e+002, 7.509669e+001
6.146082e+002, 7.529710e+001
6.150903e+002, 7.510243e+001
6.155724e+002, 7.439918e+001
6.160546e+002, 7.317227e+001
6.165367e+002, 7.258361e+001
6.170188e+002, 7.281637e+001
6.175009e+002, 7.314509e+001
6.179830e+002, 7.243485e+001
6.184651e+002, 7.111749e+001
6.189473e+002, 7.052795e+001
6.194294e+002, 7.129278e+001
6.199115e+002, 7.228400e+001
6.203936e+002, 7.255750e+001
6.208757e+002, 7.229100e+001
6.213578e+002, 7.185139e+001
6.218400e+002, 7.114448e+001
6.223221e+002, 7.053032e+001
6.228042e+002, 7.026482e+001
6.232863e+002, 7.027839e+001
6.237684e+002, 7.010659e+001
6.242505e+002, 6.967147e+001
6.247327e+002, 6.907655e+001
6.252148e+002, 6.829263e+001
6.256969e+002, 6.728256e+001
6.261790e+002, 6.655972e+001
6.266611e+002, 6.623182e+001
6.271432e+002, 6.592789e+001
6.276254e+002, 6.529749e+001
6.281075e+002, 6.437818e+001
6.285896e+002, 6.362223e+001
6.290717e+002, 6.309644e+001
6.295538e+002, 6.262736e+001
6.300359e+002, 6.194847e+001
6.305181e+002, 6.119401e+001
6.310002e+002, 6.063921e+001
6.314823e+002, 6.043395e+001
6.319644e+002, 6.033876e+001
6.324465e+002, 6.024863e+001
6.329286e+002, 6.014248e+001
6.334108e+002, 5.997980e+001
6.338929e+002, 5.972190e+001
6.343750e+002, 5.943069e+001
6.348571e+002, 5.906083e+001
6.353392e+002, 5.864202e+001
6.358214e+002, 5.841134e+001
6.363035e+002, 5.850797e+001
6.367856e+002, 5.856086e+001
6.372677e+002, 5.840656e+001
6.377498e+002, 5.804401e+001
6.382319e+002, 5.761546e+001
6.387141e+002, 5.707355e+001
6.391962e+002, 5.669536e+001
6.396783e+002, 5.676922e+001
6.401604e+002, 5.719707e+001
6.406425e+002, 5.775238e+001
6.411246e+002, 5.847461e+001
6.416068e+002, 5.889896e+001
6.420889e+002, 5.819958e+001
6.425710e+002, 5.706686e+001
6.430531e+002, 5.649921e+001
6.435352e+002, 5.710048e+001
6.440173e+002, 5.775887e+001
6.444995e+002, 5.804967e+001
6.449816e+002, 5.809630e+001
6.454637e+002, 5.812016e+001
6.459458e+002, 5.808521e+001
6.464279e+002, 5.810830e+001
6.469100e+002, 5.820152e+001
6.473922e+002, 5.836464e+001
6.478743e+002, 5.862469e+001
6.483564e+002, 5.903285e+001
6.488385e+002, 5.935768e+001
6.493206e+002, 5.947371e+001
6.498027e+002, 5.942198e+001
6.502849e+002, 5.933407e+001
6.507670e+002, 5.921339e+001
6.512491e+002, 5.926179e+001
6.517312e+002, 5.998311e+001
6.522133e+002, 6.082572e+001
6.526954e+002, 6.086773e+001
6.531776e+002, 5.995625e+001
6.536597e+002, 5.905880e+001
6.541418e+002, 5.871371e+001
6.546239e+002, 5.865321e+001
6.551060e+002, 5.865141e+001
6.555881e+002, 5.876637e+001
6.560703e+002, 5.875365e+001
6.565524e+002, 5.842682e+001
6.570345e+002, 5.803111e+001
6.575166e+002, 5.786547e+001
6.579987e+002, 5.801308e+001
6.584808e+002, 5.818125e+001
6.589630e+002, 5.840813e+001
6.594451e+002, 5.854699e+001
6.599272e+002, 5.817097e+001
6.604093e+002, 5.730088e+001
6.608914e+002, 5.650396e+001
6.613735e+002, 5.597151e+001
6.618557e+002, 5.567463e+001
6.623378e+002, 5.563511e+001
6.628199e+002, 5.580792e+001
6.633020e+002, 5.599174e+001
6.637841e+002, 5.620330e+001
6.642662e+002, 5.628538e+001
6.647484e+002, 5.601709e+001
6.652305e+002, 5.539457e+001
6.657126e+002, 5.498187e+001
6.661947e+002, 5.523302e+001
6.666768e+002, 5.546661e+001
6.671589e+002, 5.528217e+001
6.676411e+002, 5.451953e+001
6.681232e+002, 5.398015e+001
6.686053e+002, 5.372647e+001
6.690874e+002, 5.358018e+001
6.695695e+002, 5.339555e+001
6.700516e+002, 5.317015e+001
6.705338e+002, 5.286782e+001
6.710159e+002, 5.244843e+001
6.714980e+002, 5.208606e+001
6.719801e+002, 5.204888e+001
6.724622e+002, 5.223546e+001
6.729443e+002, 5.243589e+001
6.734265e+002, 5.267017e+001
6.739086e+002, 5.276223e+001
6.743907e+002, 5.242565e+001
6.748728e+002, 5.188999e+001
6.753549e+002, 5.159206e+001
6.758370e+002, 5.211916e+001
6.763192e+002, 5.237794e+001
6.768013e+002, 5.175928e+001
6.772834e+002, 5.061713e+001
6.777655e+002, 5.031520e+001
6.782476e+002, 5.122329e+001
6.787297e+002, 5.212184e+001
6.792119e+002, 5.259792e+001
6.796940e+002, 5.268139e+001
6.801761e+002, 5.234295e+001
6.806582e+002, 5.156256e+001
6.811403e+002, 5.106062e+001
6.816224e+002, 5.166828e+001
6.821046e+002, 5.276733e+001
6.825867e+002, 5.326509e+001
6.830688e+002, 5.310489e+001
6.835509e+002, 5.276314e+001
6.840330e+002, 5.244976e+001
6.845151e+002, 5.214621e+001
6.849973e+002, 5.176875e+001
6.854794e+002, 5.112914e+001
6.859615e+002, 5.093910e+001
6.864436e+002, 5.182402e+001
6.869257e+002, 5.287053e+001
6.874078e+002, 5.332786e+001
6.878900e+002, 5.297075e+001
6.883721e+002, 5.266986e+001
6.888542e+002, 5.246219e+001
6.893363e+002, 5.237513e+001
6.898184e+002, 5.255827e+001
6.903005e+002, 5.296278e+001
6.907827e+002, 5.313531e+001
6.912648e+002, 5.285145e+001
6.917469e+002, 5.248365e+001
6.922290e+002, 5.258120e+001
6.927111e+002, 5.296510e+001
6.931932e+002, 5.323238e+001
6.936754e+002, 5.305845e+001
6.941575e+002, 5.287038e+001
6.946396e+002, 5.288952e+001
6.951217e+002, 5.306799e+001
6.956038e+002, 5.322318e+001
6.960859e+002, 5.337706e+001
6.965681e+002, 5.343613e+001
6.970502e+002, 5.330913e+001
6.975323e+002, 5.303517e+001
6.980144e+002, 5.301842e+001
6.984965e+002, 5.330015e+001
6.989786e+002, 5.365940e+001
6.994608e+002, 5.405851e+001
6.999429e+002, 5.444145e+001
7.004250e+002, 5.448066e+001
7.009071e+002, 5.419135e+001
7.013892e+002, 5.397613e+001
7.018713e+002, 5.426726e+001
7.023535e+002, 5.472495e+001
7.028356e+002, 5.496195e+001
7.033177e+002, 5.490178e+001
7.037998e+002, 5.485033e+001
7.042819e+002, 5.496758e+001
7.047640e+002, 5.511373e+001
7.052462e+002, 5.513884e+001
7.057283e+002, 5.471154e+001
7.062104e+002, 5.494660e+001
7.066925e+002, 5.630815e+001
7.071746e+002, 5.774689e+001
7.076567e+002, 5.785967e+001
7.081389e+002, 5.657124e+001
7.086210e+002, 5.597540e+001
7.091031e+002, 5.651128e+001
7.095852e+002, 5.736748e+001
7.100673e+002, 5.734296e+001
7.105494e+002, 5.676820e+001
7.110316e+002, 5.646851e+001
7.115137e+002, 5.685643e+001
7.119958e+002, 5.738870e+001
7.124779e+002, 5.788414e+001
7.129600e+002, 5.825340e+001
7.134421e+002, 5.832377e+001
7.139243e+002, 5.758041e+001
7.144064e+002, 5.709838e+001
7.148885e+002, 5.725367e+001
7.153706e+002, 5.781606e+001
7.158527e+002, 5.803648e+001
7.163348e+002, 5.780143e+001
7.168170e+002, 5.762894e+001
7.172991e+002, 5.776358e+001
7.177812e+002, 5.805738e+001
7.182633e+002, 5.793319e+001
7.187454e+002, 5.743778e+001
7.192275e+002, 5.708389e+001
7.197097e+002, 5.728588e+001
7.201918e+002, 5.770313e+001
7.206739e+002, 5.802448e+001
7.211560e+002, 5.823140e+001
7.216381e+002, 5.829718e+001
7.221202e+002, 5.810249e+001
7.226024e+002, 5.785083e+001
7.230845e+002, 5.764543e+001
7.235666e+002, 5.749684e+001
7.240487e+002, 5.738304e+001
7.245308e+002, 5.739226e+001
7.250129e+002, 5.729932e+001
7.254951e+002, 5.691072e+001
7.259772e+002, 5.620790e+001
7.264593e+002, 5.566571e+001
7.269414e+002, 5.529068e+001
7.274235e+002, 5.504670e+001
7.279056e+002, 5.506355e+001
7.283878e+002, 5.514708e+001
7.288699e+002, 5.484888e+001
7.293520e+002, 5.403722e+001
7.298341e+002, 5.330895e+001
7.303162e+002, 5.322777e+001
7.307983e+002, 5.332558e+001
7.312805e+002, 5.313000e+001
7.317626e+002, 5.223183e+001
7.322447e+002, 5.162840e+001
7.327268e+002, 5.150038e+001
7.332089e+002, 5.159608e+001
7.336910e+002, 5.170419e+001
7.341732e+002, 5.188771e+001
7.346553e+002, 5.172754e+001
7.351374e+002, 5.111652e+001
7.356195e+002, 5.028377e+001
7.361016e+002, 4.947033e+001
7.365837e+002, 4.871241e+001
7.370659e+002, 4.813319e+001
7.375480e+002, 4.776223e+001
7.380301e+002, 4.759432e+001
7.385122e+002, 4.783229e+001
7.389943e+002, 4.823204e+001
7.394764e+002, 4.837333e+001
7.399586e+002, 4.790894e+001
7.404407e+002, 4.742162e+001
7.409228e+002, 4.710060e+001
7.414049e+002, 4.684604e+001
7.418870e+002, 4.639828e+001
7.423691e+002, 4.566079e+001
7.428513e+002, 4.504980e+001
7.433334e+002, 4.468392e+001
7.438155e+002, 4.450864e+001
7.442976e+002, 4.443702e+001
7.447797e+002, 4.445156e+001
7.452618e+002, 4.440159e+001
7.457440e+002, 4.415138e+001
7.462261e+002, 4.384290e+001
7.467082e+002, 4.362521e+001
7.471903e+002, 4.348102e+001
7.476724e+002, 4.333936e+001
7.481545e+002, 4.323236e+001
7.486367e+002, 4.306175e+001
7.491188e+002, 4.271891e+001
7.496009e+002, 4.222532e+001
7.500830e+002, 4.192127e+001
7.505651e+002, 4.190100e+001
7.510472e+002, 4.186475e+001
7.515294e+002, 4.168419e+001
7.520115e+002, 4.137420e+001
7.524936e+002, 4.101614e+001
7.529757e+002, 4.060931e+001
7.534578e+002, 4.025799e+001
7.539399e+002, 4.005922e+001
7.544221e+002, 3.995365e+001
7.549042e+002, 3.995594e+001
7.553863e+002, 4.004429e+001
7.558684e+002, 3.990778e+001
7.563505e+002, 3.906670e+001
7.568326e+002, 3.821053e+001
7.573148e+002, 3.779088e+001
7.577969e+002, 3.792417e+001
7.582790e+002, 3.801300e+001
7.587611e+002, 3.809740e+001
7.592432e+002, 3.807320e+001
7.597253e+002, 3.782045e+001
7.602075e+002, 3.733614e+001
7.606896e+002, 3.697958e+001
7.611717e+002, 3.674817e+001
7.616538e+002, 3.666456e+001
7.621359e+002, 3.681483e+001
7.626180e+002, 3.709731e+001
7.631002e+002, 3.742200e+001
7.635823e+002, 3.780459e+001
7.640644e+002, 3.792542e+001
7.645465e+002, 3.731584e+001
7.650286e+002, 3.656647e+001
7.655107e+002, 3.618211e+001
7.659929e+002, 3.639557e+001
7.664750e+002, 3.652324e+001
7.669571e+002, 3.652112e+001
7.674392e+002, 3.649315e+001
7.679213e+002, 3.665073e+001
7.684034e+002, 3.700465e+001
7.688856e+002, 3.666338e+001
7.693677e+002, 3.543692e+001
7.698498e+002, 3.422927e+001
7.703319e+002, 3.408549e+001
7.708140e+002, 3.460445e+001
7.712961e+002, 3.513021e+001
7.717783e+002, 3.559126e+001
7.722604e+002, 3.580485e+001
7.727425e+002, 3.545686e+001
7.732246e+002, 3.492224e+001
7.737067e+002, 3.458914e+001
7.741888e+002, 3.466369e+001
7.746710e+002, 3.466139e+001
7.751531e+002, 3.447517e+001
7.756352e+002, 3.433776e+001
7.761173e+002, 3.465186e+001
7.765994e+002, 3.541582e+001
7.770815e+002, 3.581305e+001
7.775637e+002, 3.566736e+001
7.780458e+002, 3.535658e+001
7.785279e+002, 3.529552e+001
7.790100e+002, 3.540269e+001
7.794921e+002, 3.554394e+001
7.799742e+002, 3.572909e+001
7.804564e+002, 3.584099e+001
7.809385e+002, 3.582402e+001
7.814206e+002, 3.570520e+001
7.819027e+002, 3.550248e+001
7.823848e+002, 3.503988e+001
7.828669e+002, 3.485103e+001
7.833491e+002, 3.510044e+001
7.838312e+002, 3.549187e+001
7.843133e+002, 3.550203e+001
7.847954e+002, 3.515472e+001
7.852775e+002, 3.490314e+001
7.857596e+002, 3.486220e+001
7.862418e+002, 3.492589e+001
7.867239e+002, 3.500980e+001
7.872060e+002, 3.509771e+001
7.876881e+002, 3.516490e+001
7.881702e+002, 3.525152e+001
7.886523e+002, 3.524803e+001
7.891345e+002, 3.503431e+001
7.896166e+002, 3.472997e+001
7.900987e+002, 3.453819e+001
7.905808e+002, 3.451730e+001
7.910629e+002, 3.448022e+001
7.915450e+002, 3.436275e+001
7.920272e+002, 3.427068e+001
7.925093e+002, 3.454184e+001
7.929914e+002, 3.509970e+001
7.934735e+002, 3.526332e+001
7.939556e+002, 3.466685e+001
7.944377e+002, 3.394578e+001
7.949199e+002, 3.388661e+001
7.954020e+002, 3.418557e+001
7.958841e+002, 3.429578e+001
7.963662e+002, 3.381834e+001
7.968483e+002, 3.337597e+001
7.973304e+002, 3.309647e+001
7.978126e+002, 3.296081e+001
7.982947e+002, 3.298046e+001
7.987768e+002, 3.325381e+001
7.992589e+002, 3.336164e+001
7.997410e+002, 3.319159e+001
8.002231e+002, 3.287943e+001
8.007053e+002, 3.264268e+001
8.011874e+002, 3.247944e+001
8.016695e+002, 3.237985e+001
8.021516e+002, 3.235961e+001
8.026337e+002, 3.237576e+001
8.031158e+002, 3.246648e+001
8.035980e+002, 3.255367e+001
8.040801e+002, 3.250274e+001
8.045622e+002, 3.210945e+001
8.050443e+002, 3.178098e+001
8.055264e+002, 3.154992e+001
8.060085e+002, 3.143320e+001
8.064907e+002, 3.151728e+001
8.069728e+002, 3.185997e+001
8.074549e+002, 3.202687e+001
8.079370e+002, 3.188779e+001
8.084191e+002, 3.160230e+001
8.089012e+002, 3.139477e+001
8.093834e+002, 3.125328e+001
8.098655e+002, 3.114433e+001
8.103476e+002, 3.102889e+001
8.108297e+002, 3.098073e+001
8.113118e+002, 3.116683e+001
8.117939e+002, 3.141998e+001
8.122761e+002, 3.145035e+001
8.127582e+002, 3.105704e+001
8.132403e+002, 3.066450e+001
8.137224e+002, 3.022238e+001
8.142045e+002, 2.988397e+001
8.146866e+002, 3.004801e+001
8.151688e+002, 3.069809e+001
8.156509e+002, 3.113302e+001
8.161330e+002, 3.114095e+001
8.166151e+002, 3.096493e+001
8.170972e+002, 3.077608e+001
8.175793e+002, 3.065203e+001
8.180615e+002, 3.074818e+001
8.185436e+002, 3.146308e+001
8.190257e+002, 3.193543e+001
8.195078e+002, 3.175808e+001
8.199899e+002, 3.119615e+001
8.204720e+002, 3.061942e+001
8.209542e+002, 2.986103e+001
8.214363e+002, 2.960976e+001
8.219184e+002, 3.013043e+001
8.224005e+002, 3.087111e+001
8.228826e+002, 3.085963e+001
8.233647e+002, 3.027151e+001
8.238469e+002, 2.988788e+001
8.243290e+002, 2.993384e+001
8.248111e+002, 3.013915e+001
8.252932e+002, 3.035925e+001
8.257753e+002, 3.056417e+001
8.262574e+002, 3.070670e+001
8.267396e+002, 3.070344e+001
8.272217e+002, 3.074855e+001
8.277038e+002, 3.088657e+001
8.281859e+002, 3.105866e+001
8.286681e+002, 3.121433e+001
8.291502e+002, 3.136105e+001
8.296323e+002, 3.137977e+001
8.301144e+002, 3.120996e+001
8.305966e+002, 3.106835e+001
8.310787e+002, 3.126357e+001
8.315608e+002, 3.166906e+001
8.320429e+002, 3.208039e+001
8.325250e+002, 3.251110e+001
8.330071e+002, 3.272903e+001
8.334893e+002, 3.239632e+001
8.339714e+002, 3.190860e+001
8.344535e+002, 3.169549e+001
8.349356e+002, 3.197822e+001
8.354177e+002, 3.207828e+001
8.358998e+002, 3.191638e+001
8.363820e+002, 3.171595e+001
8.368641e+002, 3.177690e+001
8.373462e+002, 3.203973e+001
8.378283e+002, 3.205081e+001
8.383104e+002, 3.173183e+001
8.387925e+002, 3.142694e+001
8.392747e+002, 3.164679e+001
8.397568e+002, 3.193060e+001
8.402389e+002, 3.167478e+001
8.407210e+002, 3.053284e+001
8.412031e+002, 2.974585e+001
8.416852e+002, 2.977967e+001
8.421674e+002, 3.005497e+001
8.426495e+002, 3.022250e+001
8.431316e+002, 3.024968e+001
8.436137e+002, 3.042922e+001
8.440958e+002, 3.080151e+001
8.445779e+002, 3.109218e+001
8.450601e+002, 3.098121e+001
8.455422e+002, 3.064392e+001
8.460243e+002, 3.035824e+001
8.465064e+002, 3.014898e+001
8.469885e+002, 3.008008e+001
8.474706e+002, 3.031805e+001
8.479528e+002, 3.060091e+001
8.484349e+002, 3.077350e+001
8.489170e+002, 3.082792e+001
8.493991e+002, 3.076140e+001
8.498812e+002, 3.051192e+001
8.503633e+002, 3.028900e+001
8.508455e+002, 3.020499e+001
8.513276e+002, 3.025201e+001
8.518097e+002, 3.044014e+001
8.522918e+002, 3.075613e+001
8.527739e+002, 3.101057e+001
8.532560e+002, 3.102838e+001
8.537382e+002, 3.096999e+001
8.542203e+002, 3.096709e+001
8.547024e+002, 3.101999e+001
8.551845e+002, 3.104786e+001
8.556666e+002, 3.104617e+001
8.561487e+002, 3.100220e+001
8.566309e+002, 3.091427e+001
8.571130e+002, 3.078131e+001
8.575951e+002, 3.051395e+001
8.580772e+002, 3.010299e+001
8.585593e+002, 2.990441e+001
8.590414e+002, 3.028604e+001
8.595236e+002, 3.083648e+001
8.600057e+002, 3.095960e+001
8.604878e+002, 3.074557e+001
8.609699e+002, 3.047872e+001
8.614520e+002, 3.018962e+001
8.619341e+002, 2.995868e+001
8.624163e+002, 2.977024e+001
8.628984e+002, 2.966321e+001
8.633805e+002, 2.981958e+001
8.638626e+002, 3.037475e+001
8.643447e+002, 3.064350e+001
8.648268e+002, 3.037451e+001
8.653090e+002, 2.985153e+001
8.657911e+002, 2.956279e+001
8.662732e+002, 2.946390e+001
8.667553e+002, 2.943536e+001
8.672374e+002, 2.943545e+001
8.677195e+002, 2.948914e+001
8.682017e+002, 2.972060e+001
8.686838e+002, 2.998260e+001
8.691659e+002, 3.000997e+001
8.696480e+002, 2.958442e+001
8.701301e+002, 2.935626e+001
8.706122e+002, 2.945275e+001
8.710944e+002, 2.965055e+001
8.715765e+002, 2.957896e+001
8.720586e+002, 2.930455e+001
8.725407e+002, 2.924464e+001
8.730228e+002, 2.951963e+001
8.735049e+002, 2.980300e+001
8.739871e+002, 2.982220e+001
8.744692e+002, 2.968821e+001
8.749513e+002, 2.950215e+001
8.754334e+002, 2.918827e+001
8.759155e+002, 2.907242e+001
8.763976e+002, 2.927282e+001
8.768798e+002, 2.955093e+001
8.773619e+002, 2.973454e+001
8.778440e+002, 2.982045e+001
8.783261e+002, 2.987970e+001
8.788082e+002, 2.991462e+001
8.792903e+002, 2.992042e+001
8.797725e+002, 2.981436e+001
8.802546e+002, 2.971988e+001
8.807367e+002, 2.986315e+001
8.812188e+002, 3.026856e+001
8.817009e+002, 3.050665e+001
8.821830e+002, 3.028712e+001
8.826652e+002, 2.999626e+001
8.831473e+002, 2.981131e+001
8.836294e+002, 2.972836e+001
8.841115e+002, 2.965738e+001
8.845936e+002, 2.959588e+001
8.850757e+002, 2.956217e+001
8.855579e+002, 2.953939e+001
8.860400e+002, 2.956309e+001
8.865221e+002, 2.975343e+001
8.870042e+002, 3.006372e+001
8.874863e+002, 3.030647e+001
8.879684e+002, 3.034233e+001
8.884506e+002, 3.034186e+001
8.889327e+002, 3.044026e+001
8.894148e+002, 3.056264e+001
8.898969e+002, 3.040671e+001
8.903790e+002, 2.983667e+001
8.908611e+002, 2.948357e+001
8.913433e+002, 2.955975e+001
8.918254e+002, 2.986843e+001
8.923075e+002, 3.009735e+001
8.927896e+002, 3.025156e+001
8.932717e+002, 3.033358e+001
8.937538e+002, 3.027176e+001
8.942360e+002, 3.025781e+001
8.947181e+002, 3.040446e+001
8.952002e+002, 3.066076e+001
8.956823e+002, 3.096846e+001
8.961644e+002, 3.140945e+001
8.966465e+002, 3.167908e+001
8.971287e+002, 3.169776e+001
8.976108e+002, 3.166220e+001
8.980929e+002, 3.189157e+001
8.985750e+002, 3.228422e+001
8.990571e+002, 3.241248e+001
8.995392e+002, 3.218352e+001
9.000214e+002, 3.194892e+001
9.005035e+002, 3.192596e+001
9.009856e+002, 3.204142e+001
9.014677e+002, 3.226867e+001
9.019498e+002, 3.267509e+001
9.024319e+002, 3.287666e+001
9.029141e+002, 3.273357e+001
9.033962e+002, 3.263324e+001
9.038783e+002, 3.292455e+001
9.043604e+002, 3.351959e+001
9.048425e+002, 3.362029e+001
9.053246e+002, 3.326562e+001
9.058068e+002, 3.310036e+001
9.062889e+002, 3.384644e+001
9.067710e+002, 3.471850e+001
9.072531e+002, 3.506957e+001
9.077352e+002, 3.493341e+001
9.082173e+002, 3.483291e+001
9.086995e+002, 3.482090e+001
9.091816e+002, 3.488214e+001
9.096637e+002, 3.501638e+001
9.101458e+002, 3.521908e+001
9.106279e+002, 3.552071e+001
9.111100e+002, 3.590259e+001
9.115922e+002, 3.619588e+001
9.120743e+002, 3.634948e+001
9.125564e+002, 3.637162e+001
9.130385e+002, 3.611798e+001
9.135206e+002, 3.577648e+001
9.140027e+002, 3.566500e+001
9.144849e+002, 3.618972e+001
9.149670e+002, 3.648283e+001
9.154491e+002, 3.637394e+001
9.159312e+002, 3.613140e+001
9.164133e+002, 3.614398e+001
9.168954e+002, 3.638916e+001
9.173776e+002, 3.643212e+001
9.178597e+002, 3.620241e+001
9.183418e+002, 3.589042e+001
9.188239e+002, 3.553436e+001
9.193060e+002, 3.527166e+001
9.197881e+002, 3.532963e+001
9.202703e+002, 3.585802e+001
9.207524e+002, 3.610265e+001
9.212345e+002, 3.570248e+001
9.217166e+002, 3.533199e+001
9.221987e+002, 3.541380e+001
9.226808e+002, 3.591345e+001
9.231630e+002, 3.619349e+001
9.236451e+002, 3.625487e+001
9.241272e+002, 3.614738e+001
9.246093e+002, 3.573719e+001
9.250914e+002, 3.530325e+001
9.255735e+002, 3.518431e+001
9.260557e+002, 3.531456e+001
9.265378e+002, 3.535198e+001
9.270199e+002, 3.501904e+001
9.275020e+002, 3.482717e+001
9.279841e+002, 3.494686e+001
9.284662e+002, 3.524006e+001
9.289484e+002, 3.532347e+001
9.294305e+002, 3.521252e+001
9.299126e+002, 3.519106e+001
9.303947e+002, 3.539441e+001
9.308768e+002, 3.560549e+001
9.313589e+002, 3.548717e+001
9.318411e+002, 3.526116e+001
9.323232e+002, 3.525281e+001
9.328053e+002, 3.564388e+001
9.332874e+002, 3.611613e+001
9.337695e+002, 3.677658e+001
9.342516e+002, 3.734214e+001
9.347338e+002, 3.741672e+001
9.352159e+002, 3.702866e+001
9.356980e+002, 3.702854e+001
9.361801e+002, 3.747660e+001
9.366622e+002, 3.810500e+001
9.371443e+002, 3.888463e+001
9.376265e+002, 3.960140e+001
9.381086e+002, 3.993380e+001
9.385907e+002, 3.985195e+001
9.390728e+002, 4.001942e+001
9.395549e+002, 4.064985e+001
9.400370e+002, 4.138163e+001
9.405192e+002, 4.213432e+001
9.410013e+002, 4.286831e+001
9.414834e+002, 4.339298e+001
9.419655e+002, 4.372046e+001
9.424476e+002, 4.392345e+001
9.429297e+002, 4.374910e+001
9.434119e+002, 4.377833e+001
9.438940e+002, 4.488580e+001
9.443761e+002, 4.651639e+001
9.448582e+002, 4.752199e+001
9.453403e+002, 4.707440e+001
9.458224e+002, 4.687682e+001
9.463046e+002, 4.713912e+001
9.467867e+002, 4.761444e+001
9.472688e+002, 4.795990e+001
9.477509e+002, 4.819912e+001
9.482330e+002, 4.850549e+001
9.487151e+002, 4.893334e+001
9.491973e+002, 4.921102e+001
9.496794e+002, 4.900248e+001
9.501615e+002, 4.861523e+001
9.506436e+002, 4.837554e+001
9.511257e+002, 4.842208e+001
9.516078e+002, 4.802136e+001
9.520900e+002, 4.684965e+001
9.525721e+002, 4.588771e+001
9.530542e+002, 4.588308e+001
9.535363e+002, 4.652417e+001
9.540184e+002, 4.641108e+001
9.545005e+002, 4.565834e+001
9.549827e+002, 4.496513e+001
9.554648e+002, 4.486068e+001
9.559469e+002, 4.480730e+001
9.564290e+002, 4.441562e+001
9.569111e+002, 4.381612e+001
9.573932e+002, 4.342891e+001
9.578754e+002, 4.330996e+001
9.583575e+002, 4.328654e+001
9.588396e+002, 4.334692e+001
9.593217e+002, 4.345382e+001
9.598038e+002, 4.352599e+001
9.602859e+002, 4.359691e+001
9.607681e+002, 4.382374e+001
9.612502e+002, 4.434671e+001
9.617323e+002, 4.459359e+001
9.622144e+002, 4.382752e+001
9.626965e+002, 4.295253e+001
9.631786e+002, 4.277876e+001
9.636608e+002, 4.345465e+001
9.641429e+002, 4.398641e+001
9.646250e+002, 4.434125e+001
9.651071e+002, 4.468364e+001
9.655892e+002, 4.530524e+001
9.660714e+002, 4.591733e+001
9.665535e+002, 4.575283e+001
9.670356e+002, 4.499600e+001
9.675177e+002, 4.460706e+001
9.679998e+002, 4.533370e+001
9.684819e+002, 4.616972e+001
9.689641e+002, 4.674791e+001
9.694462e+002, 4.716694e+001
9.699283e+002, 4.771523e+001
9.704104e+002, 4.842241e+001
9.708925e+002, 4.887254e+001
9.713746e+002, 4.887595e+001
9.718568e+002, 4.888123e+001
9.723389e+002, 4.954041e+001
9.728210e+002, 5.054049e+001
9.733031e+002, 5.141755e+001
9.737852e+002, 5.204979e+001
9.742673e+002, 5.259119e+001
9.747495e+002, 5.294959e+001
9.752316e+002, 5.336931e+001
9.757137e+002, 5.405292e+001
9.761958e+002, 5.500493e+001
9.766779e+002, 5.583128e+001
9.771600e+002, 5.653423e+001
9.776422e+002, 5.712944e+001
9.781243e+002, 5.734961e+001
9.786064e+002, 5.770852e+001
9.790885e+002, 5.887168e+001
9.795706e+002, 6.063974e+001
9.800527e+002, 6.204580e+001
9.805349e+002, 6.262271e+001
9.810170e+002, 6.339416e+001
9.814991e+002, 6.466279e+001
9.819812e+002, 6.610977e+001
9.824633e+002, 6.701488e+001
9.829454e+002, 6.752445e+001
9.834276e+002, 6.825821e+001
9.839097e+002, 6.943319e+001
9.843918e+002, 7.068121e+001
9.848739e+002, 7.166679e+001
9.853560e+002, 7.266995e+001
9.858381e+002, 7.400175e+001
9.863203e+002, 7.575947e+001
9.868024e+002, 7.747147e+001
9.872845e+002, 7.915850e+001
9.877666e+002, 8.072979e+001
9.882487e+002, 8.203511e+001
9.887308e+002, 8.320288e+001
9.892130e+002, 8.459292e+001
9.896951e+002, 8.615274e+001
9.901772e+002, 8.765987e+001
9.906593e+002, 8.883663e+001
9.911414e+002, 9.013184e+001
9.916235e+002, 9.185693e+001
9.921057e+002, 9.376525e+001
9.925878e+002, 9.535751e+001
9.930699e+002, 9.660792e+001
9.935520e+002, 9.783444e+001
9.940341e+002, 9.906084e+001
9.945162e+002, 1.004595e+002
9.949984e+002, 1.024701e+002
9.954805e+002, 1.046729e+002
9.959626e+002, 1.064752e+002
9.964447e+002, 1.076804e+002
9.969268e+002, 1.088588e+002
9.974089e+002, 1.096513e+002
9.978911e+002, 1.110488e+002
9.983732e+002, 1.140271e+002
9.988553e+002, 1.182081e+002
9.993374e+002, 1.205583e+002
9.998195e+002, 1.212654e+002
1.000302e+003, 1.223085e+002
1.000784e+003, 1.252077e+002
1.001266e+003, 1.285038e+002
1.001748e+003, 1.312318e+002
1.002230e+003, 1.336087e+002
1.002712e+003, 1.361991e+002
1.003194e+003, 1.390556e+002
1.003676e+003, 1.420972e+002
1.004159e+003, 1.454381e+002
1.004641e+003, 1.487194e+002
1.005123e+003, 1.514955e+002
1.005605e+003, 1.538799e+002
1.006087e+003, 1.561516e+002
1.006569e+003, 1.583826e+002
1.007051e+003, 1.604730e+002
1.007533e+003, 1.625565e+002
1.008016e+003, 1.643547e+002
1.008498e+003, 1.658050e+002
1.008980e+003, 1.668906e+002
1.009462e+003, 1.674218e+002
1.009944e+003, 1.673948e+002
1.010426e+003, 1.669124e+002
1.010908e+003, 1.658315e+002
1.011390e+003, 1.645611e+002
1.011872e+003, 1.635612e+002
1.012355e+003, 1.627381e+002
1.012837e+003, 1.618956e+002
1.013319e+003, 1.610042e+002
1.013801e+003, 1.600133e+002
1.014283e+003, 1.587681e+002
1.014765e+003, 1.576425e+002
1.015247e+003, 1.571974e+002
1.015729e+003, 1.572685e+002
1.016211e+003, 1.568663e+002
1.016694e+003, 1.559167e+002
1.017176e+003, 1.550497e+002
1.017658e+003, 1.550274e+002
1.018140e+003, 1.549579e+002
1.018622e+003, 1.540678e+002
1.019104e+003, 1.524622e+002
1.019586e+003, 1.514106e+002
1.020068e+003, 1.511960e+002
1.020551e+003, 1.502845e+002
1.021033e+003, 1.479758e+002
1.021515e+003, 1.451084e+002
1.021997e+003, 1.428431e+002
1.022479e+003, 1.411051e+002
1.022961e+003, 1.398943e+002
1.023443e+003, 1.398770e+002
1.023925e+003, 1.388980e+002
1.024407e+003, 1.358271e+002
1.024890e+003, 1.322121e+002
1.025372e+003, 1.291493e+002
1.025854e+003, 1.266600e+002
1.026336e+003, 1.237118e+002
1.026818e+003, 1.203023e+002
1.027300e+003, 1.169608e+002
1.027782e+003, 1.142152e+002
1.028264e+003, 1.114885e+002
1.028746e+003, 1.082293e+002
1.029229e+003, 1.045838e+002
1.029711e+003, 1.011068e+002
1.030193e+003, 9.774245e+001
1.030675e+003, 9.474809e+001
1.031157e+003, 9.224275e+001
1.031639e+003, 8.993964e+001
1.032121e+003, 8.721216e+001
1.032603e+003, 8.434859e+001
1.033086e+003, 8.223309e+001
1.033568e+003, 8.111366e+001
1.034050e+003, 7.974234e+001
1.034532e+003, 7.726214e+001
1.035014e+003, 7.469096e+001
1.035496e+003, 7.253770e+001
1.035978e+003, 7.080193e+001
1.036460e+003, 6.935863e+001
1.036943e+003, 6.822514e+001
1.037425e+003, 6.708544e+001
1.037907e+003, 6.571956e+001
1.038389e+003, 6.439341e+001
1.038871e+003, 6.336584e+001
1.039353e+003, 6.256942e+001
1.039835e+003, 6.192105e+001
1.040317e+003, 6.160290e+001
1.040799e+003, 6.101582e+001
1.041281e+003, 6.000433e+001
1.041764e+003, 5.903616e+001
1.042246e+003, 5.875178e+001
1.042728e+003, 5.883173e+001
1.043210e+003, 5.835620e+001
1.043692e+003, 5.731650e+001
1.044174e+003, 5.638529e+001
1.044656e+003, 5.590328e+001
1.045138e+003, 5.559344e+001
1.045621e+003, 5.533841e+001
1.046103e+003, 5.516344e+001
1.046585e+003, 5.524672e+001
1.047067e+003, 5.559753e+001
1.047549e+003, 5.562292e+001
1.048031e+003, 5.512773e+001
1.048513e+003, 5.444392e+001
1.048995e+003, 5.370940e+001
1.049478e+003, 5.309064e+001
1.049960e+003, 5.282571e+001
1.050442e+003, 5.309526e+001
1.050924e+003, 5.314687e+001
1.051406e+003, 5.286233e+001
1.051888e+003, 5.262066e+001
1.052370e+003, 5.264138e+001
1.052852e+003, 5.285002e+001
1.053334e+003, 5.310891e+001
1.053817e+003, 5.339177e+001
1.054299e+003, 5.361297e+001
1.054781e+003, 5.370356e+001
1.055263e+003, 5.376126e+001
1.055745e+003, 5.380985e+001
1.056227e+003, 5.384288e+001
1.056709e+003, 5.380006e+001
1.057191e+003, 5.367682e+001
1.057673e+003, 5.393488e+001
1.058156e+003, 5.463857e+001
1.058638e+003, 5.509460e+001
1.059120e+003, 5.434806e+001
1.059602e+003, 5.343554e+001
1.060084e+003, 5.325396e+001
1.060566e+003, 5.379744e+001
1.061048e+003, 5.436154e+001
1.061530e+003, 5.500653e+001
1.062013e+003, 5.539518e+001
1.062495e+003, 5.535885e+001
1.062977e+003, 5.519421e+001
1.063459e+003, 5.550046e+001
1.063941e+003, 5.600798e+001
1.064423e+003, 5.612391e+001
1.064905e+003, 5.553969e+001
1.065387e+003, 5.523309e+001
1.065870e+003, 5.582936e+001
1.066352e+003, 5.643835e+001
1.066834e+003, 5.648676e+001
1.067316e+003, 5.611646e+001
1.067798e+003, 5.660858e+001
1.068280e+003, 5.785482e+001
1.068762e+003, 5.887855e+001
1.069244e+003, 5.889306e+001
1.069726e+003, 5.883357e+001
1.070208e+003, 5.943339e+001
1.070691e+003, 6.029518e+001
1.071173e+003, 6.075969e+001
1.071655e+003, 6.071429e+001
1.072137e+003, 6.063717e+001
1.072619e+003, 6.053565e+001
1.073101e+003, 6.048822e+001
1.073583e+003, 6.069234e+001
1.074065e+003, 6.091737e+001
1.074548e+003, 6.068677e+001
1.075030e+003, 6.009206e+001
1.075512e+003, 5.997744e+001
1.075994e+003, 6.106305e+001
1.076476e+003, 6.184237e+001
1.076958e+003, 6.186907e+001
1.077440e+003, 6.161139e+001
1.077922e+003, 6.201823e+001
1.078405e+003, 6.287614e+001
1.078887e+003, 6.349242e+001
1.079369e+003, 6.371436e+001
1.079851e+003, 6.381398e+001
1.080333e+003, 6.392495e+001
1.080815e+003, 6.396472e+001
1.081297e+003, 6.385838e+001
1.081779e+003, 6.362660e+001
1.082261e+003, 6.350056e+001
1.082744e+003, 6.347803e+001
1.083226e+003, 6.344248e+001
1.083708e+003, 6.324263e+001
1.084190e+003, 6.316023e+001
1.084672e+003, 6.362215e+001
1.085154e+003, 6.430642e+001
1.085636e+003, 6.472370e+001
1.086118e+003, 6.469809e+001
1.086601e+003, 6.469034e+001
1.087083e+003, 6.467728e+001
1.087565e+003, 6.476575e+001
1.088047e+003, 6.519402e+001
1.088529e+003, 6.570464e+001
1.089011e+003, 6.579117e+001
1.089493e+003, 6.553741e+001
1.089975e+003, 6.532713e+001
1.090458e+003, 6.526498e+001
1.090940e+003, 6.533959e+001
1.091422e+003, 6.567521e+001
1.091904e+003, 6.597887e+001
1.092386e+003, 6.557636e+001
1.092868e+003, 6.472436e+001
1.093350e+003, 6.471625e+001
1.093832e+003, 6.573945e+001
1.094314e+003, 6.660130e+001
1.094797e+003, 6.642136e+001
1.095279e+003, 6.599055e+001
1.095761e+003, 6.568569e+001
1.096243e+003, 6.552462e+001
1.096725e+003, 6.562714e+001
1.097207e+003, 6.600310e+001
1.097689e+003, 6.615210e+001
1.098171e+003, 6.590478e+001
1.098653e+003, 6.543565e+001
1.099136e+003, 6.470580e+001
1.099618e+003, 6.396986e+001
1.100100e+003, 6.353857e+001
1.100582e+003, 6.353104e+001
1.101064e+003, 6.345513e+001
1.101546e+003, 6.330189e+001
1.102028e+003, 6.311025e+001
1.102510e+003, 6.292890e+001
1.102993e+003, 6.269476e+001
1.103475e+003, 6.223531e+001
1.103957e+003, 6.164090e+001
1.104439e+003, 6.111777e+001
1.104921e+003, 6.075001e+001
1.105403e+003, 6.044859e+001
1.105885e+003, 6.018935e+001
1.106367e+003, 6.001495e+001
1.106849e+003, 5.999909e+001
1.107332e+003, 6.010576e+001
1.107814e+003, 6.020790e+001
1.108296e+003, 6.029797e+001
1.108778e+003, 6.034890e+001
1.109260e+003, 6.059600e+001
1.109742e+003, 6.050333e+001
1.110224e+003, 5.955059e+001
1.110706e+003, 5.830869e+001
1.111188e+003, 5.778062e+001
1.111671e+003, 5.793515e+001
1.112153e+003, 5.787923e+001
1.112635e+003, 5.746544e+001
1.113117e+003, 5.714149e+001
1.113599e+003, 5.744528e+001
1.114081e+003, 5.784652e+001
1.114563e+003, 5.786135e+001
1.115045e+003, 5.753515e+001
1.115528e+003, 5.740092e+001
1.116010e+003, 5.748037e+001
1.116492e+003, 5.763189e+001
1.116974e+003, 5.786052e+001
1.117456e+003, 5.801546e+001
1.117938e+003, 5.776294e+001
1.118420e+003, 5.739069e+001
1.118902e+003, 5.729702e+001
1.119385e+003, 5.763852e+001
1.119867e+003, 5.789640e+001
1.120349e+003, 5.804682e+001
1.120831e+003, 5.811515e+001
1.121313e+003, 5.806244e+001
1.121795e+003, 5.797821e+001
1.122277e+003, 5.808379e+001
1.122759e+003, 5.831133e+001
1.123241e+003, 5.850166e+001
1.123724e+003, 5.864087e+001
1.124206e+003, 5.866625e+001
1.124688e+003, 5.853067e+001
1.125170e+003, 5.835440e+001
1.125652e+003, 5.826633e+001
1.126134e+003, 5.822974e+001
1.126616e+003, 5.807090e+001
1.127098e+003, 5.778657e+001
1.127580e+003, 5.736400e+001
1.128063e+003, 5.641574e+001
1.128545e+003, 5.577729e+001
1.129027e+003, 5.608092e+001
1.129509e+003, 5.669914e+001
1.129991e+003, 5.680462e+001
1.130473e+003, 5.641145e+001
1.130955e+003, 5.612407e+001
1.131437e+003, 5.599656e+001
1.131920e+003, 5.575806e+001
1.132402e+003, 5.509983e+001
1.132884e+003, 5.435194e+001
1.133366e+003, 5.354476e+001
1.133848e+003, 5.284541e+001
1.134330e+003, 5.293839e+001
1.134812e+003, 5.399470e+001
1.135294e+003, 5.433813e+001
1.135776e+003, 5.350855e+001
1.136259e+003, 5.246379e+001
1.136741e+003, 5.219080e+001
1.137223e+003, 5.221309e+001
1.137705e+003, 5.193453e+001
1.138187e+003, 5.127828e+001
1.138669e+003, 5.134974e+001
1.139151e+003, 5.251657e+001
1.139633e+003, 5.308089e+001
1.140115e+003, 5.226865e+001
1.140598e+003, 5.095842e+001
1.141080e+003, 5.030988e+001
1.141562e+003, 5.010196e+001
1.142044e+003, 5.002383e+001
1.142526e+003, 5.011103e+001
1.143008e+003, 4.993240e+001
1.143490e+003, 4.929927e+001
1.143972e+003, 4.877626e+001
1.144455e+003, 4.874518e+001
1.144937e+003, 4.897609e+001
1.145419e+003, 4.900083e+001
1.145901e+003, 4.882944e+001
1.146383e+003, 4.847601e+001
1.146865e+003, 4.768496e+001
1.147347e+003, 4.716401e+001
1.147829e+003, 4.712873e+001
1.148312e+003, 4.719280e+001
1.148794e+003, 4.702419e+001
1.149276e+003, 4.668713e+001
1.149758e+003, 4.655750e+001
1.150240e+003, 4.658370e+001
1.150722e+003, 4.647920e+001
1.151204e+003, 4.581468e+001
1.151686e+003, 4.536625e+001
1.152168e+003, 4.567608e+001
1.152651e+003, 4.606861e+001
1.153133e+003, 4.555836e+001
1.153615e+003, 4.428722e+001
1.154097e+003, 4.382602e+001
1.154579e+003, 4.425271e+001
1.155061e+003, 4.473681e+001
1.155543e+003, 4.475226e+001
1.156025e+003, 4.466681e+001
1.156507e+003, 4.475726e+001
1.156990e+003, 4.485658e+001
1.157472e+003, 4.455261e+001
1.157954e+003, 4.384008e+001
1.158436e+003, 4.336178e+001
1.158918e+003, 4.321333e+001
1.159400e+003, 4.318468e+001
1.159882e+003, 4.310747e+001
1.160364e+003, 4.308200e+001
1.160847e+003, 4.328853e+001
1.161329e+003, 4.363506e+001
1.161811e+003, 4.364199e+001
1.162293e+003, 4.328577e+001
1.162775e+003, 4.281628e+001
1.163257e+003, 4.223228e+001
1.163739e+003, 4.179840e+001
1.164221e+003, 4.189231e+001
1.164703e+003, 4.218909e+001
1.165186e+003, 4.242033e+001
1.165668e+003, 4.255729e+001
1.166150e+003, 4.237122e+001
1.166632e+003, 4.177887e+001
1.167114e+003, 4.137803e+001
1.167596e+003, 4.145246e+001
1.168078e+003, 4.167902e+001
1.168560e+003, 4.165255e+001
1.169042e+003, 4.151543e+001
1.169525e+003, 4.144994e+001
1.170007e+003, 4.148730e+001
1.170489e+003, 4.165168e+001
1.170971e+003, 4.202108e+001
1.171453e+003, 4.221502e+001
1.171935e+003, 4.190488e+001
1.172417e+003, 4.145869e+001
1.172899e+003, 4.146656e+001
1.173382e+003, 4.175799e+001
1.173864e+003, 4.202576e+001
1.174346e+003, 4.217904e+001
1.174828e+003, 4.235052e+001
1.175310e+003, 4.257543e+001
1.175792e+003, 4.272763e+001
1.176274e+003, 4.264693e+001
1.176756e+003, 4.247236e+001
1.177239e+003, 4.250330e+001
1.177721e+003, 4.266352e+001
1.178203e+003, 4.275465e+001
1.178685e+003, 4.251031e+001
1.179167e+003, 4.254301e+001
1.179649e+003, 4.300480e+001
1.180131e+003, 4.349702e+001
1.180613e+003, 4.358805e+001
1.181095e+003, 4.346590e+001
1.181578e+003, 4.354221e+001
1.182060e+003, 4.380123e+001
1.182542e+003, 4.411267e+001
1.183024e+003, 4.465154e+001
1.183506e+003, 4.487596e+001
1.183988e+003, 4.457698e+001
1.184470e+003, 4.419569e+001
1.184952e+003, 4.417997e+001
1.185434e+003, 4.450195e+001
1.185917e+003, 4.531369e+001
1.186399e+003, 4.651809e+001
1.186881e+003, 4.728879e+001
1.187363e+003, 4.680578e+001
1.187845e+003, 4.646852e+001
1.188327e+003, 4.658198e+001
1.188809e+003, 4.698283e+001
1.189291e+003, 4.757305e+001
1.189774e+003, 4.823402e+001
1.190256e+003, 4.851473e+001
1.190738e+003, 4.837504e+001
1.191220e+003, 4.843254e+001
1.191702e+003, 4.933474e+001
1.192184e+003, 4.997152e+001
1.192666e+003, 4.984457e+001
1.193148e+003, 4.944263e+001
1.193630e+003, 4.993665e+001
1.194113e+003, 5.099226e+001
1.194595e+003, 5.140719e+001
1.195077e+003, 5.092324e+001
1.195559e+003, 5.044451e+001
1.196041e+003, 5.024294e+001
1.196523e+003, 5.033105e+001
1.197005e+003, 5.077478e+001
1.197487e+003, 5.144902e+001
1.197969e+003, 5.212563e+001
1.198452e+003, 5.274272e+001
1.198934e+003, 5.309156e+001
1.199416e+003, 5.310815e+001
1.199898e+003, 5.290730e+001
1.200380e+003, 5.216158e+001
1.200862e+003, 5.163837e+001
1.201344e+003, 5.177910e+001
1.201826e+003, 5.237589e+001
1.202309e+003, 5.278167e+001
1.202791e+003, 5.298563e+001
1.203273e+003, 5.287305e+001
1.203755e+003, 5.225896e+001
1.204237e+003, 5.181213e+001
1.204719e+003, 5.203913e+001
1.205201e+003, 5.232476e+001
1.205683e+003, 5.231057e+001
1.206166e+003, 5.207897e+001
1.206648e+003, 5.207008e+001
1.207130e+003, 5.220491e+001
1.207612e+003, 5.212255e+001
1.208094e+003, 5.156220e+001
1.208576e+003, 5.105331e+001
1.209058e+003, 5.075249e+001
1.209540e+003, 5.066595e+001
1.210022e+003, 5.092347e+001
1.210505e+003, 5.141553e+001
1.210987e+003, 5.136152e+001
1.211469e+003, 5.086885e+001
1.211951e+003, 5.045001e+001
1.212433e+003, 5.045432e+001
1.212915e+003, 5.035271e+001
1.213397e+003, 4.979064e+001
1.213879e+003, 4.920123e+001
1.214361e+003, 4.895132e+001
1.214844e+003, 4.897478e+001
1.215326e+003, 4.878677e+001
1.215808e+003, 4.840852e+001
1.216290e+003, 4.794808e+001
1.216772e+003, 4.744242e+001
1.217254e+003, 4.687785e+001
1.217736e+003, 4.616470e+001
1.218218e+003, 4.548376e+001
1.218701e+003, 4.495227e+001
1.219183e+003, 4.458107e+001
1.219665e+003, 4.452362e+001
1.220147e+003, 4.471362e+001
1.220629e+003, 4.478926e+001
1.221111e+003, 4.444064e+001
1.221593e+003, 4.413130e+001
1.222075e+003, 4.401846e+001
1.222557e+003, 4.396370e+001
1.223040e+003, 4.383598e+001
1.223522e+003, 4.364625e+001
1.224004e+003, 4.343127e+001
1.224486e+003, 4.320149e+001
1.224968e+003, 4.301134e+001
1.225450e+003, 4.303255e+001
1.225932e+003, 4.288516e+001
1.226414e+003, 4.240758e+001
1.226896e+003, 4.184428e+001
1.227379e+003, 4.149615e+001
1.227861e+003, 4.129870e+001
1.228343e+003, 4.104301e+001
1.228825e+003, 4.070917e+001
1.229307e+003, 4.025255e+001
1.229789e+003, 3.943830e+001
1.230271e+003, 3.879491e+001
1.230753e+003, 3.843916e+001
1.231236e+003, 3.827795e+001
1.231718e+003, 3.826719e+001
1.232200e+003, 3.834415e+001
1.232682e+003, 3.836292e+001
1.233164e+003, 3.830699e+001
1.233646e+003, 3.813636e+001
1.234128e+003, 3.782550e+001
1.234610e+003, 3.737943e+001
1.235093e+003, 3.673257e+001
1.235575e+003, 3.608625e+001
1.236057e+003, 3.574960e+001
1.236539e+003, 3.561552e+001
1.237021e+003, 3.549168e+001
1.237503e+003, 3.535128e+001
1.237985e+003, 3.510850e+001
1.238467e+003, 3.450471e+001
1.238949e+003, 3.418817e+001
1.239432e+003, 3.436458e+001
1.239914e+003, 3.465043e+001
1.240396e+003, 3.447751e+001
1.240878e+003, 3.405401e+001
1.241360e+003, 3.373645e+001
1.241842e+003, 3.355422e+001
1.242324e+003, 3.346738e+001
1.242806e+003, 3.355037e+001
1.243288e+003, 3.354384e+001
1.243771e+003, 3.339567e+001
1.244253e+003, 3.314926e+001
1.244735e+003, 3.287074e+001
1.245217e+003, 3.252282e+001
1.245699e+003, 3.193151e+001
1.246181e+003, 3.112040e+001
1.246663e+003, 3.076798e+001
1.247145e+003, 3.116273e+001
1.247628e+003, 3.124651e+001
1.248110e+003, 3.070310e+001
1.248592e+003, 3.011523e+001
1.249074e+003, 3.039581e+001
1.249556e+003, 3.094104e+001
1.250038e+003, 3.100782e+001
1.250520e+003, 3.054599e+001
1.251002e+003, 3.012468e+001
1.251484e+003, 2.973487e+001
1.251967e+003, 2.955228e+001
1.252449e+003, 2.965912e+001
1.252931e+003, 2.981522e+001
1.253413e+003, 2.979315e+001
1.253895e+003, 2.966021e+001
1.254377e+003, 2.944701e+001
1.254859e+003, 2.917076e+001
1.255341e+003, 2.898462e+001
1.255823e+003, 2.890847e+001
1.256306e+003, 2.869271e+001
1.256788e+003, 2.822004e+001
1.257270e+003, 2.792002e+001
1.257752e+003, 2.847921e+001
1.258234e+003, 2.915697e+001
1.258716e+003, 2.920079e+001
1.259198e+003, 2.876097e+001
1.259680e+003, 2.866767e+001
1.260163e+003, 2.892436e+001
1.260645e+003, 2.909563e+001
1.261127e+003, 2.907639e+001
1.261609e+003, 2.901290e+001
1.262091e+003, 2.903001e+001
1.262573e+003, 2.902687e+001
1.263055e+003, 2.889666e+001
1.263537e+003, 2.870112e+001
1.264020e+003, 2.868392e+001
1.264502e+003, 2.882150e+001
1.264984e+003, 2.897215e+001
1.265466e+003, 2.912872e+001
1.265948e+003, 2.910908e+001
1.266430e+003, 2.854012e+001
1.266912e+003, 2.806807e+001
1.267394e+003, 2.806760e+001
1.267876e+003, 2.834470e+001
1.268359e+003, 2.834417e+001
1.268841e+003, 2.814773e+001
1.269323e+003, 2.807289e+001
1.269805e+003, 2.820539e+001
1.270287e+003, 2.830120e+001
1.270769e+003, 2.820344e+001
1.271251e+003, 2.811173e+001
1.271733e+003, 2.806614e+001
1.272215e+003, 2.809941e+001
1.272698e+003, 2.840982e+001
1.273180e+003, 2.882390e+001
1.273662e+003, 2.887859e+001
1.274144e+003, 2.843630e+001
1.274626e+003, 2.820048e+001
1.275108e+003, 2.842278e+001
1.275590e+003, 2.857496e+001
1.276072e+003, 2.841704e+001
1.276555e+003, 2.824592e+001
1.277037e+003, 2.867288e+001
1.277519e+003, 2.935880e+001
1.278001e+003, 2.976567e+001
1.278483e+003, 2.977776e+001
1.278965e+003, 2.988761e+001
1.279447e+003, 3.012877e+001
1.279929e+003, 3.044119e+001
1.280411e+003, 3.082377e+001
1.280894e+003, 3.121041e+001
1.281376e+003, 3.162177e+001
1.281858e+003, 3.192786e+001
1.282340e+003, 3.198581e+001
1.282822e+003, 3.177880e+001
1.283304e+003, 3.136111e+001
1.283786e+003, 3.071356e+001
1.284268e+003, 3.004911e+001
1.284750e+003, 2.939741e+001
1.285233e+003, 2.884008e+001
1.285715e+003, 2.849154e+001
1.286197e+003, 2.824390e+001
1.286679e+003, 2.801385e+001
1.287161e+003, 2.780436e+001
1.287643e+003, 2.767820e+001
1.288125e+003, 2.762408e+001
1.288607e+003, 2.746564e+001
1.289090e+003, 2.713862e+001
1.289572e+003, 2.686739e+001
1.290054e+003, 2.679851e+001
1.290536e+003, 2.683194e+001
1.291018e+003, 2.697420e+001
1.291500e+003, 2.712165e+001
1.291982e+003, 2.688329e+001
1.292464e+003, 2.639481e+001
1.292947e+003, 2.619230e+001
1.293429e+003, 2.641513e+001
1.293911e+003, 2.653571e+001
1.294393e+003, 2.612766e+001
1.294875e+003, 2.588049e+001
1.295357e+003, 2.607905e+001
1.295839e+003, 2.642260e+001
1.296321e+003, 2.620923e+001
1.296803e+003, 2.578451e+001
1.297286e+003, 2.590987e+001
1.297768e+003, 2.672730e+001
1.298250e+003, 2.712987e+001
1.298732e+003, 2.681046e+001
1.299214e+003, 2.659073e+001
1.299696e+003, 2.671717e+001
1.300178e+003, 2.692660e+001
1.300660e+003, 2.697570e+001
##END=



