##NAMES=Malhmoodite
##RRUFFID=R060462
##IDEAL CHEMISTRY=Fe^2+^Zr^4+^(PO_4_)_2_&#183;4H_2_O
##LOCALITY=Union Carbide Vanadium mine, Wilson Springs, Garland County, Arkansas, USA
##OWNER=RRUFF
##SOURCE=Michael Scott
##DESCRIPTION=White to cream spherical aggregates of acicular crystals associated with colorless albite, dark green aegirine, octahedral pyrochlore, and yellowish titanite.
##STATUS=The identification of this mineral has been determined only by Raman spectroscopy
##URL=rruff.info/R060462
8.758203e+001, 6.886751e+003
8.806415e+001, 6.818513e+003
8.854626e+001, 6.806770e+003
8.902838e+001, 6.865698e+003
8.951050e+001, 6.951677e+003
8.999261e+001, 7.055025e+003
9.047473e+001, 7.172552e+003
9.095685e+001, 7.295514e+003
9.143896e+001, 7.418347e+003
9.192108e+001, 7.540876e+003
9.240320e+001, 7.655802e+003
9.288531e+001, 7.662641e+003
9.336743e+001, 7.526572e+003
9.384955e+001, 7.305132e+003
9.433167e+001, 7.116647e+003
9.481378e+001, 6.924733e+003
9.529590e+001, 6.751108e+003
9.577802e+001, 6.595717e+003
9.626013e+001, 6.456627e+003
9.674225e+001, 6.329914e+003
9.722437e+001, 6.213236e+003
9.770648e+001, 6.110536e+003
9.818860e+001, 6.023876e+003
9.867072e+001, 5.946451e+003
9.915283e+001, 5.875886e+003
9.963495e+001, 5.810692e+003
1.001171e+002, 5.748683e+003
1.005992e+002, 5.686893e+003
1.010813e+002, 5.620353e+003
1.015634e+002, 5.562618e+003
1.020455e+002, 5.511265e+003
1.025277e+002, 5.464918e+003
1.030098e+002, 5.422355e+003
1.034919e+002, 5.382760e+003
1.039740e+002, 5.346170e+003
1.044561e+002, 5.314061e+003
1.049382e+002, 5.290676e+003
1.054204e+002, 5.265851e+003
1.059025e+002, 5.239825e+003
1.063846e+002, 5.211168e+003
1.068667e+002, 5.176729e+003
1.073488e+002, 5.133009e+003
1.078309e+002, 5.082067e+003
1.083131e+002, 5.041370e+003
1.087952e+002, 5.014907e+003
1.092773e+002, 4.992912e+003
1.097594e+002, 4.971337e+003
1.102415e+002, 4.949826e+003
1.107236e+002, 4.927678e+003
1.112058e+002, 4.903240e+003
1.116879e+002, 4.877571e+003
1.121700e+002, 4.854267e+003
1.126521e+002, 4.836384e+003
1.131342e+002, 4.820767e+003
1.136163e+002, 4.801460e+003
1.140985e+002, 4.776025e+003
1.145806e+002, 4.751827e+003
1.150627e+002, 4.733902e+003
1.155448e+002, 4.720803e+003
1.160269e+002, 4.709121e+003
1.165090e+002, 4.697504e+003
1.169912e+002, 4.685948e+003
1.174733e+002, 4.672875e+003
1.179554e+002, 4.654806e+003
1.184375e+002, 4.638010e+003
1.189196e+002, 4.625165e+003
1.194017e+002, 4.616122e+003
1.198839e+002, 4.609072e+003
1.203660e+002, 4.601709e+003
1.208481e+002, 4.592767e+003
1.213302e+002, 4.586679e+003
1.218123e+002, 4.586843e+003
1.222944e+002, 4.586770e+003
1.227766e+002, 4.581181e+003
1.232587e+002, 4.568953e+003
1.237408e+002, 4.553836e+003
1.242229e+002, 4.543089e+003
1.247050e+002, 4.543239e+003
1.251871e+002, 4.539086e+003
1.256693e+002, 4.526074e+003
1.261514e+002, 4.509722e+003
1.266335e+002, 4.497903e+003
1.271156e+002, 4.494590e+003
1.275977e+002, 4.496086e+003
1.280798e+002, 4.491048e+003
1.285620e+002, 4.477726e+003
1.290441e+002, 4.462796e+003
1.295262e+002, 4.448054e+003
1.300083e+002, 4.433637e+003
1.304904e+002, 4.420232e+003
1.309725e+002, 4.408162e+003
1.314547e+002, 4.397625e+003
1.319368e+002, 4.388390e+003
1.324189e+002, 4.379899e+003
1.329010e+002, 4.373446e+003
1.333831e+002, 4.371918e+003
1.338652e+002, 4.376683e+003
1.343474e+002, 4.379119e+003
1.348295e+002, 4.370726e+003
1.353116e+002, 4.358718e+003
1.357937e+002, 4.350847e+003
1.362758e+002, 4.350669e+003
1.367579e+002, 4.356044e+003
1.372401e+002, 4.361862e+003
1.377222e+002, 4.369834e+003
1.382043e+002, 4.375262e+003
1.386864e+002, 4.376858e+003
1.391685e+002, 4.375314e+003
1.396507e+002, 4.371630e+003
1.401328e+002, 4.366438e+003
1.406149e+002, 4.359700e+003
1.410970e+002, 4.351181e+003
1.415791e+002, 4.337942e+003
1.420612e+002, 4.325599e+003
1.425434e+002, 4.316980e+003
1.430255e+002, 4.310821e+003
1.435076e+002, 4.303621e+003
1.439897e+002, 4.291960e+003
1.444718e+002, 4.274775e+003
1.449539e+002, 4.259022e+003
1.454361e+002, 4.245453e+003
1.459182e+002, 4.232313e+003
1.464003e+002, 4.218684e+003
1.468824e+002, 4.204449e+003
1.473645e+002, 4.189883e+003
1.478466e+002, 4.175003e+003
1.483288e+002, 4.159048e+003
1.488109e+002, 4.146117e+003
1.492930e+002, 4.136606e+003
1.497751e+002, 4.129909e+003
1.502572e+002, 4.126821e+003
1.507393e+002, 4.128064e+003
1.512215e+002, 4.129254e+003
1.517036e+002, 4.123261e+003
1.521857e+002, 4.110667e+003
1.526678e+002, 4.097041e+003
1.531499e+002, 4.082826e+003
1.536320e+002, 4.068849e+003
1.541142e+002, 4.057171e+003
1.545963e+002, 4.048319e+003
1.550784e+002, 4.042318e+003
1.555605e+002, 4.039540e+003
1.560426e+002, 4.039993e+003
1.565247e+002, 4.039987e+003
1.570069e+002, 4.036194e+003
1.574890e+002, 4.028719e+003
1.579711e+002, 4.022560e+003
1.584532e+002, 4.019115e+003
1.589353e+002, 4.017280e+003
1.594174e+002, 4.016805e+003
1.598996e+002, 4.017611e+003
1.603817e+002, 4.018762e+003
1.608638e+002, 4.019756e+003
1.613459e+002, 4.021481e+003
1.618280e+002, 4.019779e+003
1.623102e+002, 4.012337e+003
1.627923e+002, 4.002675e+003
1.632744e+002, 3.992490e+003
1.637565e+002, 3.982348e+003
1.642386e+002, 3.972661e+003
1.647207e+002, 3.963814e+003
1.652029e+002, 3.954467e+003
1.656850e+002, 3.948759e+003
1.661671e+002, 3.948721e+003
1.666492e+002, 3.951131e+003
1.671313e+002, 3.953588e+003
1.676134e+002, 3.955024e+003
1.680956e+002, 3.955254e+003
1.685777e+002, 3.953710e+003
1.690598e+002, 3.947563e+003
1.695419e+002, 3.942825e+003
1.700240e+002, 3.941303e+003
1.705061e+002, 3.941175e+003
1.709883e+002, 3.939128e+003
1.714704e+002, 3.933078e+003
1.719525e+002, 3.925014e+003
1.724346e+002, 3.923889e+003
1.729167e+002, 3.938174e+003
1.733988e+002, 3.948521e+003
1.738810e+002, 3.946489e+003
1.743631e+002, 3.935673e+003
1.748452e+002, 3.924997e+003
1.753273e+002, 3.918639e+003
1.758094e+002, 3.916703e+003
1.762915e+002, 3.918166e+003
1.767737e+002, 3.926327e+003
1.772558e+002, 3.933991e+003
1.777379e+002, 3.935621e+003
1.782200e+002, 3.931777e+003
1.787021e+002, 3.928967e+003
1.791842e+002, 3.932122e+003
1.796664e+002, 3.938234e+003
1.801485e+002, 3.941297e+003
1.806306e+002, 3.939171e+003
1.811127e+002, 3.935385e+003
1.815948e+002, 3.934427e+003
1.820769e+002, 3.937094e+003
1.825591e+002, 3.937922e+003
1.830412e+002, 3.930345e+003
1.835233e+002, 3.920357e+003
1.840054e+002, 3.914646e+003
1.844875e+002, 3.916674e+003
1.849696e+002, 3.922630e+003
1.854518e+002, 3.925691e+003
1.859339e+002, 3.925167e+003
1.864160e+002, 3.923032e+003
1.868981e+002, 3.919612e+003
1.873802e+002, 3.915376e+003
1.878623e+002, 3.910276e+003
1.883445e+002, 3.903583e+003
1.888266e+002, 3.896902e+003
1.893087e+002, 3.896295e+003
1.897908e+002, 3.908083e+003
1.902729e+002, 3.917276e+003
1.907550e+002, 3.919943e+003
1.912372e+002, 3.918205e+003
1.917193e+002, 3.914635e+003
1.922014e+002, 3.910563e+003
1.926835e+002, 3.906184e+003
1.931656e+002, 3.902773e+003
1.936477e+002, 3.901344e+003
1.941299e+002, 3.900032e+003
1.946120e+002, 3.898698e+003
1.950941e+002, 3.897269e+003
1.955762e+002, 3.895741e+003
1.960583e+002, 3.894142e+003
1.965404e+002, 3.892440e+003
1.970226e+002, 3.890034e+003
1.975047e+002, 3.884553e+003
1.979868e+002, 3.880828e+003
1.984689e+002, 3.880357e+003
1.989510e+002, 3.882741e+003
1.994331e+002, 3.887219e+003
1.999153e+002, 3.893673e+003
2.003974e+002, 3.901936e+003
2.008795e+002, 3.906873e+003
2.013616e+002, 3.907920e+003
2.018437e+002, 3.907005e+003
2.023258e+002, 3.903708e+003
2.028080e+002, 3.898781e+003
2.032901e+002, 3.894808e+003
2.037722e+002, 3.894156e+003
2.042543e+002, 3.896327e+003
2.047364e+002, 3.894966e+003
2.052185e+002, 3.885366e+003
2.057007e+002, 3.876444e+003
2.061828e+002, 3.875166e+003
2.066649e+002, 3.880954e+003
2.071470e+002, 3.886532e+003
2.076291e+002, 3.886342e+003
2.081112e+002, 3.881579e+003
2.085934e+002, 3.878987e+003
2.090755e+002, 3.881116e+003
2.095576e+002, 3.884061e+003
2.100397e+002, 3.883969e+003
2.105218e+002, 3.880700e+003
2.110039e+002, 3.877611e+003
2.114861e+002, 3.876400e+003
2.119682e+002, 3.877096e+003
2.124503e+002, 3.879952e+003
2.129324e+002, 3.887380e+003
2.134145e+002, 3.895334e+003
2.138967e+002, 3.898459e+003
2.143788e+002, 3.895968e+003
2.148609e+002, 3.892229e+003
2.153430e+002, 3.887085e+003
2.158251e+002, 3.882764e+003
2.163072e+002, 3.883056e+003
2.167894e+002, 3.891667e+003
2.172715e+002, 3.903132e+003
2.177536e+002, 3.907318e+003
2.182357e+002, 3.901529e+003
2.187178e+002, 3.895792e+003
2.191999e+002, 3.894436e+003
2.196821e+002, 3.895527e+003
2.201642e+002, 3.897285e+003
2.206463e+002, 3.899335e+003
2.211284e+002, 3.901178e+003
2.216105e+002, 3.901775e+003
2.220926e+002, 3.901243e+003
2.225748e+002, 3.899125e+003
2.230569e+002, 3.893809e+003
2.235390e+002, 3.887705e+003
2.240211e+002, 3.883664e+003
2.245032e+002, 3.883242e+003
2.249853e+002, 3.885121e+003
2.254675e+002, 3.885395e+003
2.259496e+002, 3.882178e+003
2.264317e+002, 3.880494e+003
2.269138e+002, 3.882506e+003
2.273959e+002, 3.885979e+003
2.278780e+002, 3.888482e+003
2.283602e+002, 3.888811e+003
2.288423e+002, 3.887522e+003
2.293244e+002, 3.886294e+003
2.298065e+002, 3.883255e+003
2.302886e+002, 3.883033e+003
2.307707e+002, 3.888615e+003
2.312529e+002, 3.896188e+003
2.317350e+002, 3.900900e+003
2.322171e+002, 3.900341e+003
2.326992e+002, 3.896786e+003
2.331813e+002, 3.897680e+003
2.336634e+002, 3.909482e+003
2.341456e+002, 3.918167e+003
2.346277e+002, 3.922109e+003
2.351098e+002, 3.922659e+003
2.355919e+002, 3.921515e+003
2.360740e+002, 3.919467e+003
2.365561e+002, 3.915993e+003
2.370383e+002, 3.909477e+003
2.375204e+002, 3.890079e+003
2.380025e+002, 3.879536e+003
2.384846e+002, 3.885984e+003
2.389667e+002, 3.899782e+003
2.394488e+002, 3.909229e+003
2.399310e+002, 3.909430e+003
2.404131e+002, 3.903655e+003
2.408952e+002, 3.900046e+003
2.413773e+002, 3.899282e+003
2.418594e+002, 3.899807e+003
2.423415e+002, 3.901930e+003
2.428237e+002, 3.905148e+003
2.433058e+002, 3.909230e+003
2.437879e+002, 3.914201e+003
2.442700e+002, 3.919104e+003
2.447521e+002, 3.921937e+003
2.452342e+002, 3.923001e+003
2.457164e+002, 3.921534e+003
2.461985e+002, 3.915090e+003
2.466806e+002, 3.906658e+003
2.471627e+002, 3.900065e+003
2.476448e+002, 3.896456e+003
2.481269e+002, 3.895351e+003
2.486091e+002, 3.896809e+003
2.490912e+002, 3.902219e+003
2.495733e+002, 3.905036e+003
2.500554e+002, 3.901397e+003
2.505375e+002, 3.895111e+003
2.510196e+002, 3.892247e+003
2.515018e+002, 3.894787e+003
2.519839e+002, 3.899345e+003
2.524660e+002, 3.900676e+003
2.529481e+002, 3.898596e+003
2.534302e+002, 3.897828e+003
2.539123e+002, 3.900348e+003
2.543945e+002, 3.904718e+003
2.548766e+002, 3.908960e+003
2.553587e+002, 3.912807e+003
2.558408e+002, 3.916102e+003
2.563229e+002, 3.917829e+003
2.568051e+002, 3.918235e+003
2.572872e+002, 3.920232e+003
2.577693e+002, 3.926576e+003
2.582514e+002, 3.934459e+003
2.587335e+002, 3.938761e+003
2.592156e+002, 3.937945e+003
2.596978e+002, 3.936440e+003
2.601799e+002, 3.939175e+003
2.606620e+002, 3.944891e+003
2.611441e+002, 3.949702e+003
2.616262e+002, 3.951896e+003
2.621083e+002, 3.952568e+003
2.625905e+002, 3.953654e+003
2.630726e+002, 3.955502e+003
2.635547e+002, 3.956797e+003
2.640368e+002, 3.954394e+003
2.645189e+002, 3.950572e+003
2.650010e+002, 3.950502e+003
2.654832e+002, 3.960477e+003
2.659653e+002, 3.973409e+003
2.664474e+002, 3.976759e+003
2.669295e+002, 3.968029e+003
2.674116e+002, 3.959052e+003
2.678937e+002, 3.957428e+003
2.683759e+002, 3.960202e+003
2.688580e+002, 3.963952e+003
2.693401e+002, 3.968295e+003
2.698222e+002, 3.972581e+003
2.703043e+002, 3.975797e+003
2.707864e+002, 3.977822e+003
2.712686e+002, 3.979353e+003
2.717507e+002, 3.980490e+003
2.722328e+002, 3.981382e+003
2.727149e+002, 3.982164e+003
2.731970e+002, 3.982907e+003
2.736791e+002, 3.983456e+003
2.741613e+002, 3.983741e+003
2.746434e+002, 3.983857e+003
2.751255e+002, 3.983140e+003
2.756076e+002, 3.980577e+003
2.760897e+002, 3.977392e+003
2.765718e+002, 3.974048e+003
2.770540e+002, 3.970432e+003
2.775361e+002, 3.968049e+003
2.780182e+002, 3.970218e+003
2.785003e+002, 3.978183e+003
2.789824e+002, 3.982005e+003
2.794645e+002, 3.974585e+003
2.799467e+002, 3.964927e+003
2.804288e+002, 3.959117e+003
2.809109e+002, 3.958055e+003
2.813930e+002, 3.958205e+003
2.818751e+002, 3.955063e+003
2.823572e+002, 3.948083e+003
2.828394e+002, 3.944679e+003
2.833215e+002, 3.948563e+003
2.838036e+002, 3.954538e+003
2.842857e+002, 3.960863e+003
2.847678e+002, 3.966934e+003
2.852499e+002, 3.971345e+003
2.857321e+002, 3.972681e+003
2.862142e+002, 3.970880e+003
2.866963e+002, 3.967351e+003
2.871784e+002, 3.959751e+003
2.876605e+002, 3.952763e+003
2.881426e+002, 3.949156e+003
2.886248e+002, 3.948158e+003
2.891069e+002, 3.947177e+003
2.895890e+002, 3.944611e+003
2.900711e+002, 3.940423e+003
2.905532e+002, 3.934185e+003
2.910353e+002, 3.922295e+003
2.915175e+002, 3.912854e+003
2.919996e+002, 3.910639e+003
2.924817e+002, 3.912836e+003
2.929638e+002, 3.914281e+003
2.934459e+002, 3.912089e+003
2.939280e+002, 3.906613e+003
2.944102e+002, 3.899323e+003
2.948923e+002, 3.889382e+003
2.953744e+002, 3.878880e+003
2.958565e+002, 3.866417e+003
2.963386e+002, 3.854510e+003
2.968207e+002, 3.846987e+003
2.973029e+002, 3.846277e+003
2.977850e+002, 3.849508e+003
2.982671e+002, 3.849620e+003
2.987492e+002, 3.845802e+003
2.992313e+002, 3.840352e+003
2.997134e+002, 3.832829e+003
3.001956e+002, 3.824741e+003
3.006777e+002, 3.817628e+003
3.011598e+002, 3.811997e+003
3.016419e+002, 3.806957e+003
3.021240e+002, 3.800498e+003
3.026061e+002, 3.791016e+003
3.030883e+002, 3.784708e+003
3.035704e+002, 3.785792e+003
3.040525e+002, 3.787798e+003
3.045346e+002, 3.786451e+003
3.050167e+002, 3.780928e+003
3.054988e+002, 3.773234e+003
3.059810e+002, 3.765702e+003
3.064631e+002, 3.758517e+003
3.069452e+002, 3.750513e+003
3.074273e+002, 3.738522e+003
3.079094e+002, 3.728176e+003
3.083915e+002, 3.723561e+003
3.088737e+002, 3.723734e+003
3.093558e+002, 3.723839e+003
3.098379e+002, 3.718979e+003
3.103200e+002, 3.708807e+003
3.108021e+002, 3.700093e+003
3.112842e+002, 3.693092e+003
3.117664e+002, 3.687457e+003
3.122485e+002, 3.684949e+003
3.127306e+002, 3.683751e+003
3.132127e+002, 3.680039e+003
3.136948e+002, 3.670768e+003
3.141769e+002, 3.656883e+003
3.146591e+002, 3.643641e+003
3.151412e+002, 3.628566e+003
3.156233e+002, 3.618100e+003
3.161054e+002, 3.618430e+003
3.165875e+002, 3.622746e+003
3.170696e+002, 3.621705e+003
3.175518e+002, 3.610419e+003
3.180339e+002, 3.592680e+003
3.185160e+002, 3.577792e+003
3.189981e+002, 3.566064e+003
3.194802e+002, 3.556969e+003
3.199623e+002, 3.550611e+003
3.204445e+002, 3.546268e+003
3.209266e+002, 3.544305e+003
3.214087e+002, 3.544765e+003
3.218908e+002, 3.545228e+003
3.223729e+002, 3.541505e+003
3.228550e+002, 3.532018e+003
3.233372e+002, 3.523905e+003
3.238193e+002, 3.518952e+003
3.243014e+002, 3.514961e+003
3.247835e+002, 3.511304e+003
3.252656e+002, 3.507614e+003
3.257477e+002, 3.502905e+003
3.262299e+002, 3.495342e+003
3.267120e+002, 3.484420e+003
3.271941e+002, 3.475777e+003
3.276762e+002, 3.471162e+003
3.281583e+002, 3.467357e+003
3.286404e+002, 3.464031e+003
3.291226e+002, 3.460444e+003
3.296047e+002, 3.454800e+003
3.300868e+002, 3.444304e+003
3.305689e+002, 3.430309e+003
3.310510e+002, 3.422444e+003
3.315331e+002, 3.425075e+003
3.320153e+002, 3.427637e+003
3.324974e+002, 3.426509e+003
3.329795e+002, 3.422859e+003
3.334616e+002, 3.418376e+003
3.339437e+002, 3.413863e+003
3.344258e+002, 3.409055e+003
3.349080e+002, 3.403229e+003
3.353901e+002, 3.396010e+003
3.358722e+002, 3.388888e+003
3.363543e+002, 3.381740e+003
3.368365e+002, 3.375224e+003
3.373186e+002, 3.370363e+003
3.378007e+002, 3.367549e+003
3.382828e+002, 3.365022e+003
3.387649e+002, 3.359891e+003
3.392470e+002, 3.351540e+003
3.397292e+002, 3.345314e+003
3.402113e+002, 3.342653e+003
3.406934e+002, 3.342282e+003
3.411755e+002, 3.345125e+003
3.416576e+002, 3.350506e+003
3.421397e+002, 3.353871e+003
3.426219e+002, 3.349777e+003
3.431040e+002, 3.339094e+003
3.435861e+002, 3.331794e+003
3.440682e+002, 3.330594e+003
3.445503e+002, 3.329952e+003
3.450324e+002, 3.326036e+003
3.455146e+002, 3.319999e+003
3.459967e+002, 3.314800e+003
3.464788e+002, 3.312658e+003
3.469609e+002, 3.312198e+003
3.474430e+002, 3.310224e+003
3.479251e+002, 3.306665e+003
3.484073e+002, 3.301772e+003
3.488894e+002, 3.293215e+003
3.493715e+002, 3.284236e+003
3.498536e+002, 3.279113e+003
3.503357e+002, 3.279854e+003
3.508178e+002, 3.283173e+003
3.513000e+002, 3.285596e+003
3.517821e+002, 3.287142e+003
3.522642e+002, 3.288162e+003
3.527463e+002, 3.289606e+003
3.532284e+002, 3.289861e+003
3.537105e+002, 3.286910e+003
3.541927e+002, 3.280376e+003
3.546748e+002, 3.273541e+003
3.551569e+002, 3.268265e+003
3.556390e+002, 3.264478e+003
3.561211e+002, 3.262176e+003
3.566032e+002, 3.262453e+003
3.570854e+002, 3.262308e+003
3.575675e+002, 3.258074e+003
3.580496e+002, 3.250617e+003
3.585317e+002, 3.244343e+003
3.590138e+002, 3.242302e+003
3.594959e+002, 3.241973e+003
3.599781e+002, 3.238231e+003
3.604602e+002, 3.230017e+003
3.609423e+002, 3.223800e+003
3.614244e+002, 3.225855e+003
3.619065e+002, 3.233262e+003
3.623886e+002, 3.238612e+003
3.628708e+002, 3.238995e+003
3.633529e+002, 3.239013e+003
3.638350e+002, 3.243860e+003
3.643171e+002, 3.252512e+003
3.647992e+002, 3.257740e+003
3.652813e+002, 3.255148e+003
3.657635e+002, 3.248376e+003
3.662456e+002, 3.244942e+003
3.667277e+002, 3.245897e+003
3.672098e+002, 3.246627e+003
3.676919e+002, 3.244754e+003
3.681740e+002, 3.241457e+003
3.686562e+002, 3.239290e+003
3.691383e+002, 3.239121e+003
3.696204e+002, 3.238885e+003
3.701025e+002, 3.235505e+003
3.705846e+002, 3.228727e+003
3.710667e+002, 3.223351e+003
3.715489e+002, 3.219886e+003
3.720310e+002, 3.218114e+003
3.725131e+002, 3.218792e+003
3.729952e+002, 3.221618e+003
3.734773e+002, 3.223668e+003
3.739594e+002, 3.222234e+003
3.744416e+002, 3.217938e+003
3.749237e+002, 3.217249e+003
3.754058e+002, 3.224960e+003
3.758879e+002, 3.230799e+003
3.763700e+002, 3.227997e+003
3.768521e+002, 3.220475e+003
3.773343e+002, 3.216945e+003
3.778164e+002, 3.221608e+003
3.782985e+002, 3.230930e+003
3.787806e+002, 3.236696e+003
3.792627e+002, 3.237044e+003
3.797448e+002, 3.236848e+003
3.802270e+002, 3.234197e+003
3.807091e+002, 3.232345e+003
3.811912e+002, 3.235485e+003
3.816733e+002, 3.243940e+003
3.821554e+002, 3.253328e+003
3.826375e+002, 3.258900e+003
3.831197e+002, 3.260085e+003
3.836018e+002, 3.259761e+003
3.840839e+002, 3.256447e+003
3.845660e+002, 3.253333e+003
3.850481e+002, 3.252100e+003
3.855302e+002, 3.252280e+003
3.860124e+002, 3.252375e+003
3.864945e+002, 3.251330e+003
3.869766e+002, 3.249544e+003
3.874587e+002, 3.249123e+003
3.879408e+002, 3.251076e+003
3.884229e+002, 3.253337e+003
3.889051e+002, 3.255287e+003
3.893872e+002, 3.257639e+003
3.898693e+002, 3.261746e+003
3.903514e+002, 3.267875e+003
3.908335e+002, 3.274154e+003
3.913156e+002, 3.277532e+003
3.917978e+002, 3.277264e+003
3.922799e+002, 3.276076e+003
3.927620e+002, 3.272994e+003
3.932441e+002, 3.269933e+003
3.937262e+002, 3.267236e+003
3.942083e+002, 3.265326e+003
3.946905e+002, 3.265155e+003
3.951726e+002, 3.268020e+003
3.956547e+002, 3.273493e+003
3.961368e+002, 3.277098e+003
3.966189e+002, 3.278004e+003
3.971010e+002, 3.278048e+003
3.975832e+002, 3.276506e+003
3.980653e+002, 3.274986e+003
3.985474e+002, 3.275950e+003
3.990295e+002, 3.280696e+003
3.995116e+002, 3.286762e+003
3.999937e+002, 3.289447e+003
4.004759e+002, 3.287608e+003
4.009580e+002, 3.288404e+003
4.014401e+002, 3.297568e+003
4.019222e+002, 3.307011e+003
4.024043e+002, 3.310416e+003
4.028864e+002, 3.307678e+003
4.033686e+002, 3.304350e+003
4.038507e+002, 3.305021e+003
4.043328e+002, 3.308624e+003
4.048149e+002, 3.309845e+003
4.052970e+002, 3.306484e+003
4.057791e+002, 3.304646e+003
4.062613e+002, 3.310880e+003
4.067434e+002, 3.321490e+003
4.072255e+002, 3.328937e+003
4.077076e+002, 3.328869e+003
4.081897e+002, 3.326609e+003
4.086718e+002, 3.328255e+003
4.091540e+002, 3.333659e+003
4.096361e+002, 3.338958e+003
4.101182e+002, 3.341691e+003
4.106003e+002, 3.344150e+003
4.110824e+002, 3.351214e+003
4.115645e+002, 3.364990e+003
4.120467e+002, 3.375108e+003
4.125288e+002, 3.374221e+003
4.130109e+002, 3.367387e+003
4.134930e+002, 3.363384e+003
4.139751e+002, 3.364008e+003
4.144572e+002, 3.366939e+003
4.149394e+002, 3.370391e+003
4.154215e+002, 3.374379e+003
4.159036e+002, 3.377281e+003
4.163857e+002, 3.377177e+003
4.168678e+002, 3.377557e+003
4.173499e+002, 3.382772e+003
4.178321e+002, 3.390912e+003
4.183142e+002, 3.394820e+003
4.187963e+002, 3.389882e+003
4.192784e+002, 3.379048e+003
4.197605e+002, 3.372412e+003
4.202426e+002, 3.372837e+003
4.207248e+002, 3.373352e+003
4.212069e+002, 3.374063e+003
4.216890e+002, 3.374102e+003
4.221711e+002, 3.371790e+003
4.226532e+002, 3.367080e+003
4.231353e+002, 3.362588e+003
4.236175e+002, 3.361750e+003
4.240996e+002, 3.365790e+003
4.245817e+002, 3.367240e+003
4.250638e+002, 3.363465e+003
4.255459e+002, 3.360134e+003
4.260280e+002, 3.360801e+003
4.265102e+002, 3.363526e+003
4.269923e+002, 3.363855e+003
4.274744e+002, 3.358948e+003
4.279565e+002, 3.350768e+003
4.284386e+002, 3.346345e+003
4.289207e+002, 3.349407e+003
4.294029e+002, 3.349368e+003
4.298850e+002, 3.342299e+003
4.303671e+002, 3.333747e+003
4.308492e+002, 3.327982e+003
4.313313e+002, 3.325752e+003
4.318134e+002, 3.325273e+003
4.322956e+002, 3.325463e+003
4.327777e+002, 3.326384e+003
4.332598e+002, 3.325031e+003
4.337419e+002, 3.320140e+003
4.342241e+002, 3.314395e+003
4.347062e+002, 3.308663e+003
4.351883e+002, 3.303111e+003
4.356704e+002, 3.298167e+003
4.361525e+002, 3.294404e+003
4.366346e+002, 3.290802e+003
4.371168e+002, 3.284931e+003
4.375989e+002, 3.276358e+003
4.380810e+002, 3.270335e+003
4.385631e+002, 3.270457e+003
4.390452e+002, 3.272754e+003
4.395273e+002, 3.273021e+003
4.400095e+002, 3.271107e+003
4.404916e+002, 3.267376e+003
4.409737e+002, 3.261195e+003
4.414558e+002, 3.253470e+003
4.419379e+002, 3.246103e+003
4.424200e+002, 3.239339e+003
4.429022e+002, 3.232678e+003
4.433843e+002, 3.225255e+003
4.438664e+002, 3.217448e+003
4.443485e+002, 3.211208e+003
4.448306e+002, 3.205696e+003
4.453127e+002, 3.202641e+003
4.457949e+002, 3.204660e+003
4.462770e+002, 3.209994e+003
4.467591e+002, 3.214273e+003
4.472412e+002, 3.215854e+003
4.477233e+002, 3.215057e+003
4.482054e+002, 3.212241e+003
4.486876e+002, 3.206049e+003
4.491697e+002, 3.200918e+003
4.496518e+002, 3.199121e+003
4.501339e+002, 3.196966e+003
4.506160e+002, 3.190239e+003
4.510981e+002, 3.179814e+003
4.515803e+002, 3.170805e+003
4.520624e+002, 3.167634e+003
4.525445e+002, 3.169807e+003
4.530266e+002, 3.170911e+003
4.535087e+002, 3.170125e+003
4.539908e+002, 3.169105e+003
4.544730e+002, 3.167588e+003
4.549551e+002, 3.166143e+003
4.554372e+002, 3.165486e+003
4.559193e+002, 3.165792e+003
4.564014e+002, 3.166489e+003
4.568835e+002, 3.166513e+003
4.573657e+002, 3.165359e+003
4.578478e+002, 3.165798e+003
4.583299e+002, 3.171820e+003
4.588120e+002, 3.175565e+003
4.592941e+002, 3.172279e+003
4.597762e+002, 3.164090e+003
4.602584e+002, 3.156455e+003
4.607405e+002, 3.152960e+003
4.612226e+002, 3.151150e+003
4.617047e+002, 3.144690e+003
4.621868e+002, 3.131917e+003
4.626689e+002, 3.122461e+003
4.631511e+002, 3.120980e+003
4.636332e+002, 3.123738e+003
4.641153e+002, 3.128737e+003
4.645974e+002, 3.136194e+003
4.650795e+002, 3.139887e+003
4.655616e+002, 3.132742e+003
4.660438e+002, 3.119680e+003
4.665259e+002, 3.112032e+003
4.670080e+002, 3.111665e+003
4.674901e+002, 3.113565e+003
4.679722e+002, 3.114326e+003
4.684543e+002, 3.114209e+003
4.689365e+002, 3.114568e+003
4.694186e+002, 3.115989e+003
4.699007e+002, 3.117361e+003
4.703828e+002, 3.118913e+003
4.708649e+002, 3.119921e+003
4.713470e+002, 3.118567e+003
4.718292e+002, 3.114108e+003
4.723113e+002, 3.107838e+003
4.727934e+002, 3.101290e+003
4.732755e+002, 3.093275e+003
4.737576e+002, 3.089098e+003
4.742397e+002, 3.091163e+003
4.747219e+002, 3.094758e+003
4.752040e+002, 3.097155e+003
4.756861e+002, 3.098595e+003
4.761682e+002, 3.101235e+003
4.766503e+002, 3.106854e+003
4.771324e+002, 3.113469e+003
4.776146e+002, 3.112865e+003
4.780967e+002, 3.098233e+003
4.785788e+002, 3.087201e+003
4.790609e+002, 3.082674e+003
4.795430e+002, 3.081144e+003
4.800251e+002, 3.080435e+003
4.805073e+002, 3.079965e+003
4.809894e+002, 3.079589e+003
4.814715e+002, 3.079246e+003
4.819536e+002, 3.078932e+003
4.824357e+002, 3.078315e+003
4.829178e+002, 3.076913e+003
4.834000e+002, 3.076097e+003
4.838821e+002, 3.077261e+003
4.843642e+002, 3.079033e+003
4.848463e+002, 3.079509e+003
4.853284e+002, 3.077981e+003
4.858105e+002, 3.075711e+003
4.862927e+002, 3.073623e+003
4.867748e+002, 3.071747e+003
4.872569e+002, 3.070349e+003
4.877390e+002, 3.069465e+003
4.882211e+002, 3.069060e+003
4.887032e+002, 3.069067e+003
4.891854e+002, 3.069476e+003
4.896675e+002, 3.070636e+003
4.901496e+002, 3.073217e+003
4.906317e+002, 3.076097e+003
4.911138e+002, 3.078863e+003
4.915959e+002, 3.081254e+003
4.920781e+002, 3.082222e+003
4.925602e+002, 3.081053e+003
4.930423e+002, 3.078823e+003
4.935244e+002, 3.077992e+003
4.940065e+002, 3.080559e+003
4.944886e+002, 3.080605e+003
4.949708e+002, 3.075512e+003
4.954529e+002, 3.069641e+003
4.959350e+002, 3.065274e+003
4.964171e+002, 3.063061e+003
4.968992e+002, 3.063912e+003
4.973813e+002, 3.069097e+003
4.978635e+002, 3.077359e+003
4.983456e+002, 3.080817e+003
4.988277e+002, 3.074415e+003
4.993098e+002, 3.070625e+003
4.997919e+002, 3.074356e+003
5.002740e+002, 3.079298e+003
5.007562e+002, 3.080013e+003
5.012383e+002, 3.075539e+003
5.017204e+002, 3.068458e+003
5.022025e+002, 3.058983e+003
5.026846e+002, 3.047884e+003
5.031667e+002, 3.045120e+003
5.036489e+002, 3.055963e+003
5.041310e+002, 3.065417e+003
5.046131e+002, 3.062541e+003
5.050952e+002, 3.054177e+003
5.055773e+002, 3.050647e+003
5.060594e+002, 3.056053e+003
5.065416e+002, 3.062253e+003
5.070237e+002, 3.061739e+003
5.075058e+002, 3.056397e+003
5.079879e+002, 3.053255e+003
5.084700e+002, 3.054521e+003
5.089521e+002, 3.055963e+003
5.094343e+002, 3.052054e+003
5.099164e+002, 3.042838e+003
5.103985e+002, 3.037556e+003
5.108806e+002, 3.039056e+003
5.113627e+002, 3.042370e+003
5.118448e+002, 3.045769e+003
5.123270e+002, 3.048768e+003
5.128091e+002, 3.050813e+003
5.132912e+002, 3.051687e+003
5.137733e+002, 3.051149e+003
5.142554e+002, 3.048519e+003
5.147375e+002, 3.042140e+003
5.152197e+002, 3.037641e+003
5.157018e+002, 3.033848e+003
5.161839e+002, 3.032734e+003
5.166660e+002, 3.036618e+003
5.171481e+002, 3.044001e+003
5.176302e+002, 3.051906e+003
5.181124e+002, 3.058972e+003
5.185945e+002, 3.064062e+003
5.190766e+002, 3.063459e+003
5.195587e+002, 3.055084e+003
5.200408e+002, 3.047605e+003
5.205229e+002, 3.041850e+003
5.210051e+002, 3.038367e+003
5.214872e+002, 3.038852e+003
5.219693e+002, 3.042632e+003
5.224514e+002, 3.045680e+003
5.229335e+002, 3.045349e+003
5.234156e+002, 3.042845e+003
5.238978e+002, 3.039198e+003
5.243799e+002, 3.034206e+003
5.248620e+002, 3.033150e+003
5.253441e+002, 3.040679e+003
5.258262e+002, 3.052333e+003
5.263083e+002, 3.059076e+003
5.267905e+002, 3.060968e+003
5.272726e+002, 3.058934e+003
5.277547e+002, 3.049360e+003
5.282368e+002, 3.038307e+003
5.287189e+002, 3.032989e+003
5.292010e+002, 3.033663e+003
5.296832e+002, 3.035411e+003
5.301653e+002, 3.034333e+003
5.306474e+002, 3.031228e+003
5.311295e+002, 3.031600e+003
5.316116e+002, 3.040138e+003
5.320938e+002, 3.046247e+003
5.325759e+002, 3.047794e+003
5.330580e+002, 3.047272e+003
5.335401e+002, 3.046595e+003
5.340222e+002, 3.046219e+003
5.345043e+002, 3.045891e+003
5.349865e+002, 3.045150e+003
5.354686e+002, 3.044122e+003
5.359507e+002, 3.044824e+003
5.364328e+002, 3.049030e+003
5.369149e+002, 3.051607e+003
5.373970e+002, 3.049528e+003
5.378792e+002, 3.045598e+003
5.383613e+002, 3.042756e+003
5.388434e+002, 3.041677e+003
5.393255e+002, 3.040775e+003
5.398076e+002, 3.038664e+003
5.402897e+002, 3.035888e+003
5.407719e+002, 3.033610e+003
5.412540e+002, 3.031892e+003
5.417361e+002, 3.031442e+003
5.422182e+002, 3.032889e+003
5.427003e+002, 3.036150e+003
5.431824e+002, 3.040265e+003
5.436646e+002, 3.047694e+003
5.441467e+002, 3.052737e+003
5.446288e+002, 3.051795e+003
5.451109e+002, 3.048029e+003
5.455930e+002, 3.044815e+003
5.460751e+002, 3.043159e+003
5.465573e+002, 3.044052e+003
5.470394e+002, 3.049116e+003
5.475215e+002, 3.058520e+003
5.480036e+002, 3.064229e+003
5.484857e+002, 3.062290e+003
5.489678e+002, 3.061006e+003
5.494500e+002, 3.061911e+003
5.499321e+002, 3.064149e+003
5.504142e+002, 3.067574e+003
5.508963e+002, 3.071866e+003
5.513784e+002, 3.074620e+003
5.518605e+002, 3.072664e+003
5.523427e+002, 3.066288e+003
5.528248e+002, 3.059574e+003
5.533069e+002, 3.051704e+003
5.537890e+002, 3.045433e+003
5.542711e+002, 3.042853e+003
5.547532e+002, 3.042761e+003
5.552354e+002, 3.043747e+003
5.557175e+002, 3.045676e+003
5.561996e+002, 3.048422e+003
5.566817e+002, 3.052932e+003
5.571638e+002, 3.058002e+003
5.576459e+002, 3.061296e+003
5.581281e+002, 3.062379e+003
5.586102e+002, 3.061700e+003
5.590923e+002, 3.059223e+003
5.595744e+002, 3.055092e+003
5.600565e+002, 3.052360e+003
5.605386e+002, 3.052643e+003
5.610208e+002, 3.052120e+003
5.615029e+002, 3.049247e+003
5.619850e+002, 3.045428e+003
5.624671e+002, 3.041969e+003
5.629492e+002, 3.039299e+003
5.634313e+002, 3.037627e+003
5.639135e+002, 3.037412e+003
5.643956e+002, 3.038611e+003
5.648777e+002, 3.039078e+003
5.653598e+002, 3.039039e+003
5.658419e+002, 3.037828e+003
5.663240e+002, 3.034418e+003
5.668062e+002, 3.030314e+003
5.672883e+002, 3.027354e+003
5.677704e+002, 3.025965e+003
5.682525e+002, 3.024305e+003
5.687346e+002, 3.019507e+003
5.692167e+002, 3.013434e+003
5.696989e+002, 3.012251e+003
5.701810e+002, 3.017170e+003
5.706631e+002, 3.021496e+003
5.711452e+002, 3.020918e+003
5.716273e+002, 3.016501e+003
5.721094e+002, 3.012097e+003
5.725916e+002, 3.006798e+003
5.730737e+002, 3.003120e+003
5.735558e+002, 3.002248e+003
5.740379e+002, 3.003023e+003
5.745200e+002, 3.004912e+003
5.750021e+002, 3.007431e+003
5.754843e+002, 3.008967e+003
5.759664e+002, 3.007893e+003
5.764485e+002, 3.004986e+003
5.769306e+002, 3.005531e+003
5.774127e+002, 3.014775e+003
5.778948e+002, 3.018786e+003
5.783770e+002, 3.013462e+003
5.788591e+002, 3.004474e+003
5.793412e+002, 2.993692e+003
5.798233e+002, 2.982736e+003
5.803054e+002, 2.976033e+003
5.807875e+002, 2.978811e+003
5.812697e+002, 2.987406e+003
5.817518e+002, 2.993318e+003
5.822339e+002, 2.996636e+003
5.827161e+002, 2.996359e+003
5.831982e+002, 2.990655e+003
5.836803e+002, 2.982398e+003
5.841624e+002, 2.975731e+003
5.846445e+002, 2.970628e+003
5.851266e+002, 2.966517e+003
5.856088e+002, 2.965194e+003
5.860909e+002, 2.963349e+003
5.865730e+002, 2.956558e+003
5.870551e+002, 2.946397e+003
5.875372e+002, 2.938767e+003
5.880193e+002, 2.936917e+003
5.885015e+002, 2.938604e+003
5.889836e+002, 2.938935e+003
5.894657e+002, 2.937401e+003
5.899478e+002, 2.935631e+003
5.904299e+002, 2.933736e+003
5.909120e+002, 2.931530e+003
5.913942e+002, 2.928109e+003
5.918763e+002, 2.924392e+003
5.923584e+002, 2.922486e+003
5.928405e+002, 2.923716e+003
5.933226e+002, 2.925839e+003
5.938047e+002, 2.925379e+003
5.942869e+002, 2.922351e+003
5.947690e+002, 2.919145e+003
5.952511e+002, 2.916201e+003
5.957332e+002, 2.913011e+003
5.962153e+002, 2.908264e+003
5.966974e+002, 2.902692e+003
5.971796e+002, 2.899136e+003
5.976617e+002, 2.898106e+003
5.981438e+002, 2.899024e+003
5.986259e+002, 2.904392e+003
5.991080e+002, 2.910725e+003
5.995901e+002, 2.911140e+003
6.000723e+002, 2.904159e+003
6.005544e+002, 2.894899e+003
6.010365e+002, 2.888739e+003
6.015186e+002, 2.885770e+003
6.020007e+002, 2.882473e+003
6.024828e+002, 2.879038e+003
6.029650e+002, 2.875075e+003
6.034471e+002, 2.869810e+003
6.039292e+002, 2.864462e+003
6.044113e+002, 2.859804e+003
6.048934e+002, 2.856179e+003
6.053755e+002, 2.854243e+003
6.058577e+002, 2.856209e+003
6.063398e+002, 2.860419e+003
6.068219e+002, 2.860099e+003
6.073040e+002, 2.854393e+003
6.077861e+002, 2.848848e+003
6.082682e+002, 2.845510e+003
6.087504e+002, 2.844073e+003
6.092325e+002, 2.844228e+003
6.097146e+002, 2.846388e+003
6.101967e+002, 2.847676e+003
6.106788e+002, 2.846985e+003
6.111609e+002, 2.845340e+003
6.116431e+002, 2.843720e+003
6.121252e+002, 2.841994e+003
6.126073e+002, 2.839261e+003
6.130894e+002, 2.834967e+003
6.135715e+002, 2.830118e+003
6.140536e+002, 2.826901e+003
6.145358e+002, 2.825774e+003
6.150179e+002, 2.825268e+003
6.155000e+002, 2.827226e+003
6.159821e+002, 2.828000e+003
6.164642e+002, 2.824052e+003
6.169464e+002, 2.818187e+003
6.174285e+002, 2.816361e+003
6.179106e+002, 2.821825e+003
6.183927e+002, 2.828272e+003
6.188748e+002, 2.827810e+003
6.193569e+002, 2.821737e+003
6.198391e+002, 2.817043e+003
6.203212e+002, 2.815040e+003
6.208033e+002, 2.813602e+003
6.212854e+002, 2.810965e+003
6.217675e+002, 2.807427e+003
6.222496e+002, 2.804853e+003
6.227318e+002, 2.803752e+003
6.232139e+002, 2.802854e+003
6.236960e+002, 2.801449e+003
6.241781e+002, 2.800262e+003
6.246602e+002, 2.800615e+003
6.251423e+002, 2.802247e+003
6.256245e+002, 2.803434e+003
6.261066e+002, 2.803028e+003
6.265887e+002, 2.800749e+003
6.270708e+002, 2.794319e+003
6.275529e+002, 2.779857e+003
6.280350e+002, 2.770751e+003
6.285172e+002, 2.773968e+003
6.289993e+002, 2.780253e+003
6.294814e+002, 2.785295e+003
6.299635e+002, 2.788440e+003
6.304456e+002, 2.788557e+003
6.309277e+002, 2.783185e+003
6.314099e+002, 2.776265e+003
6.318920e+002, 2.771852e+003
6.323741e+002, 2.769657e+003
6.328562e+002, 2.768791e+003
6.333383e+002, 2.769183e+003
6.338204e+002, 2.769601e+003
6.343026e+002, 2.768397e+003
6.347847e+002, 2.765273e+003
6.352668e+002, 2.763390e+003
6.357489e+002, 2.763448e+003
6.362310e+002, 2.763676e+003
6.367131e+002, 2.762768e+003
6.371953e+002, 2.762131e+003
6.376774e+002, 2.764864e+003
6.381595e+002, 2.770819e+003
6.386416e+002, 2.774560e+003
6.391237e+002, 2.769358e+003
6.396058e+002, 2.757324e+003
6.400880e+002, 2.749623e+003
6.405701e+002, 2.747303e+003
6.410522e+002, 2.745136e+003
6.415343e+002, 2.740541e+003
6.420164e+002, 2.735560e+003
6.424985e+002, 2.733479e+003
6.429807e+002, 2.734629e+003
6.434628e+002, 2.734026e+003
6.439449e+002, 2.728829e+003
6.444270e+002, 2.722609e+003
6.449091e+002, 2.717412e+003
6.453912e+002, 2.713650e+003
6.458734e+002, 2.712490e+003
6.463555e+002, 2.714414e+003
6.468376e+002, 2.716964e+003
6.473197e+002, 2.716153e+003
6.478018e+002, 2.711226e+003
6.482839e+002, 2.707185e+003
6.487661e+002, 2.705105e+003
6.492482e+002, 2.702553e+003
6.497303e+002, 2.697053e+003
6.502124e+002, 2.691480e+003
6.506945e+002, 2.689975e+003
6.511766e+002, 2.693516e+003
6.516588e+002, 2.697523e+003
6.521409e+002, 2.698451e+003
6.526230e+002, 2.697425e+003
6.531051e+002, 2.697006e+003
6.535872e+002, 2.697291e+003
6.540693e+002, 2.696038e+003
6.545515e+002, 2.691441e+003
6.550336e+002, 2.685684e+003
6.555157e+002, 2.683506e+003
6.559978e+002, 2.687338e+003
6.564799e+002, 2.689123e+003
6.569620e+002, 2.688286e+003
6.574442e+002, 2.685928e+003
6.579263e+002, 2.681125e+003
6.584084e+002, 2.675589e+003
6.588905e+002, 2.672245e+003
6.593726e+002, 2.672288e+003
6.598547e+002, 2.673756e+003
6.603369e+002, 2.674815e+003
6.608190e+002, 2.675334e+003
6.613011e+002, 2.673079e+003
6.617832e+002, 2.667125e+003
6.622653e+002, 2.660519e+003
6.627474e+002, 2.653500e+003
6.632296e+002, 2.647586e+003
6.637117e+002, 2.646124e+003
6.641938e+002, 2.650898e+003
6.646759e+002, 2.654296e+003
6.651580e+002, 2.652154e+003
6.656401e+002, 2.648994e+003
6.661223e+002, 2.649921e+003
6.666044e+002, 2.653724e+003
6.670865e+002, 2.655331e+003
6.675686e+002, 2.652054e+003
6.680507e+002, 2.646427e+003
6.685328e+002, 2.642975e+003
6.690150e+002, 2.641734e+003
6.694971e+002, 2.642704e+003
6.699792e+002, 2.648561e+003
6.704613e+002, 2.653194e+003
6.709434e+002, 2.653810e+003
6.714255e+002, 2.651729e+003
6.719077e+002, 2.648670e+003
6.723898e+002, 2.644768e+003
6.728719e+002, 2.641128e+003
6.733540e+002, 2.637805e+003
6.738361e+002, 2.635498e+003
6.743182e+002, 2.635767e+003
6.748004e+002, 2.638450e+003
6.752825e+002, 2.641805e+003
6.757646e+002, 2.645186e+003
6.762467e+002, 2.647562e+003
6.767288e+002, 2.646197e+003
6.772109e+002, 2.637735e+003
6.776931e+002, 2.633414e+003
6.781752e+002, 2.635848e+003
6.786573e+002, 2.639276e+003
6.791394e+002, 2.641727e+003
6.796215e+002, 2.643339e+003
6.801036e+002, 2.644811e+003
6.805858e+002, 2.646418e+003
6.810679e+002, 2.646931e+003
6.815500e+002, 2.643892e+003
6.820321e+002, 2.638901e+003
6.825142e+002, 2.637256e+003
6.829963e+002, 2.639566e+003
6.834785e+002, 2.640902e+003
6.839606e+002, 2.638222e+003
6.844427e+002, 2.633207e+003
6.849248e+002, 2.629782e+003
6.854069e+002, 2.628891e+003
6.858890e+002, 2.627441e+003
6.863712e+002, 2.624760e+003
6.868533e+002, 2.622156e+003
6.873354e+002, 2.620713e+003
6.878175e+002, 2.619794e+003
6.882996e+002, 2.618166e+003
6.887817e+002, 2.615387e+003
6.892639e+002, 2.612132e+003
6.897460e+002, 2.608760e+003
6.902281e+002, 2.605489e+003
6.907102e+002, 2.604434e+003
6.911923e+002, 2.606489e+003
6.916744e+002, 2.607066e+003
6.921566e+002, 2.603103e+003
6.926387e+002, 2.596819e+003
6.931208e+002, 2.592531e+003
6.936029e+002, 2.590377e+003
6.940850e+002, 2.589051e+003
6.945671e+002, 2.587239e+003
6.950493e+002, 2.587198e+003
6.955314e+002, 2.591997e+003
6.960135e+002, 2.599289e+003
6.964956e+002, 2.604978e+003
6.969777e+002, 2.607471e+003
6.974598e+002, 2.607103e+003
6.979420e+002, 2.602704e+003
6.984241e+002, 2.594607e+003
6.989062e+002, 2.592587e+003
6.993883e+002, 2.599312e+003
6.998704e+002, 2.604535e+003
7.003525e+002, 2.602043e+003
7.008347e+002, 2.597076e+003
7.013168e+002, 2.597562e+003
7.017989e+002, 2.604200e+003
7.022810e+002, 2.608094e+003
7.027631e+002, 2.604544e+003
7.032452e+002, 2.599624e+003
7.037274e+002, 2.597141e+003
7.042095e+002, 2.596688e+003
7.046916e+002, 2.597236e+003
7.051737e+002, 2.598380e+003
7.056558e+002, 2.599863e+003
7.061379e+002, 2.601422e+003
7.066201e+002, 2.603041e+003
7.071022e+002, 2.604775e+003
7.075843e+002, 2.607387e+003
7.080664e+002, 2.608270e+003
7.085485e+002, 2.605571e+003
7.090306e+002, 2.601474e+003
7.095128e+002, 2.597571e+003
7.099949e+002, 2.593958e+003
7.104770e+002, 2.591330e+003
7.109591e+002, 2.589611e+003
7.114412e+002, 2.589260e+003
7.119233e+002, 2.591792e+003
7.124055e+002, 2.595661e+003
7.128876e+002, 2.597587e+003
7.133697e+002, 2.596924e+003
7.138518e+002, 2.596246e+003
7.143339e+002, 2.598459e+003
7.148160e+002, 2.602768e+003
7.152982e+002, 2.602770e+003
7.157803e+002, 2.596387e+003
7.162624e+002, 2.590565e+003
7.167445e+002, 2.586303e+003
7.172266e+002, 2.583449e+003
7.177087e+002, 2.581630e+003
7.181909e+002, 2.581036e+003
7.186730e+002, 2.582570e+003
7.191551e+002, 2.587992e+003
7.196372e+002, 2.593564e+003
7.201193e+002, 2.597785e+003
7.206014e+002, 2.600042e+003
7.210836e+002, 2.598240e+003
7.215657e+002, 2.592632e+003
7.220478e+002, 2.587301e+003
7.225299e+002, 2.585381e+003
7.230120e+002, 2.585960e+003
7.234941e+002, 2.585915e+003
7.239763e+002, 2.585187e+003
7.244584e+002, 2.584006e+003
7.249405e+002, 2.582537e+003
7.254226e+002, 2.580466e+003
7.259047e+002, 2.576705e+003
7.263868e+002, 2.572432e+003
7.268690e+002, 2.570012e+003
7.273511e+002, 2.570068e+003
7.278332e+002, 2.571933e+003
7.283153e+002, 2.576623e+003
7.287974e+002, 2.582129e+003
7.292795e+002, 2.586239e+003
7.297617e+002, 2.588563e+003
7.302438e+002, 2.588664e+003
7.307259e+002, 2.586201e+003
7.312080e+002, 2.582143e+003
7.316901e+002, 2.578207e+003
7.321722e+002, 2.574124e+003
7.326544e+002, 2.571370e+003
7.331365e+002, 2.570788e+003
7.336186e+002, 2.570357e+003
7.341007e+002, 2.569137e+003
7.345828e+002, 2.567643e+003
7.350649e+002, 2.566380e+003
7.355471e+002, 2.565383e+003
7.360292e+002, 2.565129e+003
7.365113e+002, 2.565612e+003
7.369934e+002, 2.567141e+003
7.374755e+002, 2.571883e+003
7.379576e+002, 2.577915e+003
7.384398e+002, 2.579175e+003
7.389219e+002, 2.573642e+003
7.394040e+002, 2.566333e+003
7.398861e+002, 2.563260e+003
7.403682e+002, 2.564363e+003
7.408503e+002, 2.567511e+003
7.413325e+002, 2.575047e+003
7.418146e+002, 2.579625e+003
7.422967e+002, 2.576780e+003
7.427788e+002, 2.571867e+003
7.432609e+002, 2.569003e+003
7.437430e+002, 2.568158e+003
7.442252e+002, 2.567821e+003
7.447073e+002, 2.567970e+003
7.451894e+002, 2.568016e+003
7.456715e+002, 2.567190e+003
7.461536e+002, 2.566182e+003
7.466357e+002, 2.566997e+003
7.471179e+002, 2.569404e+003
7.476000e+002, 2.569615e+003
7.480821e+002, 2.564212e+003
7.485642e+002, 2.555496e+003
7.490463e+002, 2.551259e+003
7.495284e+002, 2.552697e+003
7.500106e+002, 2.553329e+003
7.504927e+002, 2.552471e+003
7.509748e+002, 2.550459e+003
7.514569e+002, 2.545501e+003
7.519390e+002, 2.539839e+003
7.524211e+002, 2.539079e+003
7.529033e+002, 2.546905e+003
7.533854e+002, 2.552234e+003
7.538675e+002, 2.549123e+003
7.543496e+002, 2.543137e+003
7.548317e+002, 2.538782e+003
7.553138e+002, 2.536206e+003
7.557960e+002, 2.534281e+003
7.562781e+002, 2.532482e+003
7.567602e+002, 2.530996e+003
7.572423e+002, 2.530067e+003
7.577244e+002, 2.529687e+003
7.582065e+002, 2.529925e+003
7.586887e+002, 2.531018e+003
7.591708e+002, 2.531761e+003
7.596529e+002, 2.530475e+003
7.601350e+002, 2.529580e+003
7.606171e+002, 2.533768e+003
7.610992e+002, 2.543552e+003
7.615814e+002, 2.550546e+003
7.620635e+002, 2.552167e+003
7.625456e+002, 2.552592e+003
7.630277e+002, 2.554207e+003
7.635098e+002, 2.555528e+003
7.639919e+002, 2.554178e+003
7.644741e+002, 2.550065e+003
7.649562e+002, 2.545232e+003
7.654383e+002, 2.540772e+003
7.659204e+002, 2.537338e+003
7.664025e+002, 2.536466e+003
7.668846e+002, 2.538137e+003
7.673668e+002, 2.542683e+003
7.678489e+002, 2.551635e+003
7.683310e+002, 2.557992e+003
7.688131e+002, 2.554562e+003
7.692952e+002, 2.543504e+003
7.697773e+002, 2.537270e+003
7.702595e+002, 2.539983e+003
7.707416e+002, 2.541177e+003
7.712237e+002, 2.538857e+003
7.717058e+002, 2.536139e+003
7.721879e+002, 2.535205e+003
7.726700e+002, 2.535362e+003
7.731522e+002, 2.534787e+003
7.736343e+002, 2.532754e+003
7.741164e+002, 2.530595e+003
7.745985e+002, 2.530550e+003
7.750806e+002, 2.531052e+003
7.755627e+002, 2.527201e+003
7.760449e+002, 2.519344e+003
7.765270e+002, 2.514636e+003
7.770091e+002, 2.516541e+003
7.774912e+002, 2.521525e+003
7.779733e+002, 2.524476e+003
7.784554e+002, 2.525295e+003
7.789376e+002, 2.525262e+003
7.794197e+002, 2.526120e+003
7.799019e+002, 2.523624e+003
7.803840e+002, 2.512186e+003
7.808661e+002, 2.500596e+003
7.813482e+002, 2.497622e+003
7.818303e+002, 2.502542e+003
7.823124e+002, 2.507261e+003
7.827946e+002, 2.508612e+003
7.832767e+002, 2.508271e+003
7.837588e+002, 2.505437e+003
7.842409e+002, 2.502598e+003
7.847230e+002, 2.505659e+003
7.852051e+002, 2.514498e+003
7.856873e+002, 2.522206e+003
7.861694e+002, 2.523809e+003
7.866515e+002, 2.521684e+003
7.871336e+002, 2.522081e+003
7.876157e+002, 2.525677e+003
7.880978e+002, 2.528274e+003
7.885800e+002, 2.530178e+003
7.890621e+002, 2.530116e+003
7.895442e+002, 2.525574e+003
7.900263e+002, 2.519438e+003
7.905084e+002, 2.516679e+003
7.909905e+002, 2.518434e+003
7.914727e+002, 2.518849e+003
7.919548e+002, 2.514512e+003
7.924369e+002, 2.510411e+003
7.929190e+002, 2.510169e+003
7.934011e+002, 2.512143e+003
7.938832e+002, 2.512983e+003
7.943654e+002, 2.512106e+003
7.948475e+002, 2.512365e+003
7.953296e+002, 2.517204e+003
7.958117e+002, 2.524248e+003
7.962938e+002, 2.526753e+003
7.967759e+002, 2.524763e+003
7.972581e+002, 2.522917e+003
7.977402e+002, 2.522432e+003
7.982223e+002, 2.521563e+003
7.987044e+002, 2.518448e+003
7.991865e+002, 2.513638e+003
7.996686e+002, 2.510517e+003
8.001508e+002, 2.507833e+003
8.006329e+002, 2.508780e+003
8.011150e+002, 2.518726e+003
8.015971e+002, 2.527100e+003
8.020792e+002, 2.526743e+003
8.025613e+002, 2.520903e+003
8.030435e+002, 2.515852e+003
8.035256e+002, 2.513478e+003
8.040077e+002, 2.511941e+003
8.044898e+002, 2.509132e+003
8.049719e+002, 2.506866e+003
8.054540e+002, 2.509128e+003
8.059362e+002, 2.514616e+003
8.064183e+002, 2.517490e+003
8.069004e+002, 2.515702e+003
8.073825e+002, 2.512146e+003
8.078646e+002, 2.510345e+003
8.083467e+002, 2.509993e+003
8.088289e+002, 2.506478e+003
8.093110e+002, 2.497420e+003
8.097931e+002, 2.491783e+003
8.102752e+002, 2.493829e+003
8.107573e+002, 2.497310e+003
8.112394e+002, 2.496060e+003
8.117216e+002, 2.492051e+003
8.122037e+002, 2.492234e+003
8.126858e+002, 2.501460e+003
8.131679e+002, 2.507653e+003
8.136500e+002, 2.504728e+003
8.141321e+002, 2.498755e+003
8.146143e+002, 2.493190e+003
8.150964e+002, 2.489312e+003
8.155785e+002, 2.488814e+003
8.160606e+002, 2.492356e+003
8.165427e+002, 2.497863e+003
8.170248e+002, 2.504098e+003
8.175070e+002, 2.510285e+003
8.179891e+002, 2.513322e+003
8.184712e+002, 2.513170e+003
8.189533e+002, 2.512639e+003
8.194354e+002, 2.512783e+003
8.199175e+002, 2.512552e+003
8.203997e+002, 2.510502e+003
8.208818e+002, 2.506683e+003
8.213639e+002, 2.504076e+003
8.218460e+002, 2.503587e+003
8.223281e+002, 2.503006e+003
8.228102e+002, 2.500759e+003
8.232924e+002, 2.499603e+003
8.237745e+002, 2.503465e+003
8.242566e+002, 2.509705e+003
8.247387e+002, 2.511155e+003
8.252208e+002, 2.504401e+003
8.257029e+002, 2.497325e+003
8.261851e+002, 2.495847e+003
8.266672e+002, 2.495865e+003
8.271493e+002, 2.491805e+003
8.276314e+002, 2.484822e+003
8.281135e+002, 2.479639e+003
8.285956e+002, 2.478062e+003
8.290778e+002, 2.478276e+003
8.295599e+002, 2.478229e+003
8.300420e+002, 2.478004e+003
8.305241e+002, 2.478585e+003
8.310062e+002, 2.480375e+003
8.314883e+002, 2.479703e+003
8.319705e+002, 2.473941e+003
8.324526e+002, 2.468682e+003
8.329347e+002, 2.469955e+003
8.334168e+002, 2.476920e+003
8.338989e+002, 2.481532e+003
8.343810e+002, 2.481861e+003
8.348632e+002, 2.482856e+003
8.353453e+002, 2.485739e+003
8.358274e+002, 2.488656e+003
8.363095e+002, 2.489926e+003
8.367916e+002, 2.490522e+003
8.372737e+002, 2.493103e+003
8.377559e+002, 2.498665e+003
8.382380e+002, 2.502408e+003
8.387201e+002, 2.498595e+003
8.392022e+002, 2.492412e+003
8.396843e+002, 2.491894e+003
8.401664e+002, 2.495264e+003
8.406486e+002, 2.495775e+003
8.411307e+002, 2.491495e+003
8.416128e+002, 2.485941e+003
8.420949e+002, 2.482466e+003
8.425770e+002, 2.480792e+003
8.430591e+002, 2.480072e+003
8.435413e+002, 2.480756e+003
8.440234e+002, 2.479770e+003
8.445055e+002, 2.475463e+003
8.449876e+002, 2.471571e+003
8.454697e+002, 2.470688e+003
8.459518e+002, 2.472133e+003
8.464340e+002, 2.474141e+003
8.469161e+002, 2.477782e+003
8.473982e+002, 2.479168e+003
8.478803e+002, 2.475403e+003
8.483624e+002, 2.472036e+003
8.488445e+002, 2.472502e+003
8.493267e+002, 2.474775e+003
8.498088e+002, 2.475991e+003
8.502909e+002, 2.475678e+003
8.507730e+002, 2.475274e+003
8.512551e+002, 2.476244e+003
8.517372e+002, 2.477071e+003
8.522194e+002, 2.475850e+003
8.527015e+002, 2.473056e+003
8.531836e+002, 2.469390e+003
8.536657e+002, 2.465170e+003
8.541478e+002, 2.461565e+003
8.546299e+002, 2.459238e+003
8.551121e+002, 2.458469e+003
8.555942e+002, 2.460803e+003
8.560763e+002, 2.467042e+003
8.565584e+002, 2.468901e+003
8.570405e+002, 2.464207e+003
8.575226e+002, 2.460096e+003
8.580048e+002, 2.459420e+003
8.584869e+002, 2.461104e+003
8.589690e+002, 2.464370e+003
8.594511e+002, 2.469433e+003
8.599332e+002, 2.472310e+003
8.604153e+002, 2.468523e+003
8.608975e+002, 2.468153e+003
8.613796e+002, 2.479373e+003
8.618617e+002, 2.490847e+003
8.623438e+002, 2.491668e+003
8.628259e+002, 2.483798e+003
8.633080e+002, 2.475951e+003
8.637902e+002, 2.471518e+003
8.642723e+002, 2.468517e+003
8.647544e+002, 2.465283e+003
8.652365e+002, 2.462398e+003
8.657186e+002, 2.460975e+003
8.662007e+002, 2.460798e+003
8.666829e+002, 2.461356e+003
8.671650e+002, 2.462369e+003
8.676471e+002, 2.461911e+003
8.681292e+002, 2.456935e+003
8.686113e+002, 2.448684e+003
8.690934e+002, 2.444915e+003
8.695756e+002, 2.446175e+003
8.700577e+002, 2.448004e+003
8.705398e+002, 2.449561e+003
8.710219e+002, 2.451352e+003
8.715040e+002, 2.454503e+003
8.719861e+002, 2.458033e+003
8.724683e+002, 2.458174e+003
8.729504e+002, 2.451926e+003
8.734325e+002, 2.447885e+003
8.739146e+002, 2.448270e+003
8.743967e+002, 2.448431e+003
8.748788e+002, 2.446338e+003
8.753610e+002, 2.442927e+003
8.758431e+002, 2.438764e+003
8.763252e+002, 2.434200e+003
8.768073e+002, 2.431684e+003
8.772894e+002, 2.432577e+003
8.777715e+002, 2.435719e+003
8.782537e+002, 2.442248e+003
8.787358e+002, 2.449423e+003
8.792179e+002, 2.453011e+003
8.797000e+002, 2.452859e+003
8.801821e+002, 2.450826e+003
8.806642e+002, 2.447775e+003
8.811464e+002, 2.445324e+003
8.816285e+002, 2.447084e+003
8.821106e+002, 2.451918e+003
8.825927e+002, 2.453155e+003
8.830748e+002, 2.450427e+003
8.835569e+002, 2.446435e+003
8.840391e+002, 2.441732e+003
8.845212e+002, 2.437966e+003
8.850033e+002, 2.437425e+003
8.854854e+002, 2.439871e+003
8.859675e+002, 2.440462e+003
8.864496e+002, 2.438755e+003
8.869318e+002, 2.436059e+003
8.874139e+002, 2.430733e+003
8.878960e+002, 2.426380e+003
8.883781e+002, 2.426292e+003
8.888602e+002, 2.428238e+003
8.893423e+002, 2.427310e+003
8.898245e+002, 2.421917e+003
8.903066e+002, 2.418578e+003
8.907887e+002, 2.420890e+003
8.912708e+002, 2.423857e+003
8.917529e+002, 2.425411e+003
8.922350e+002, 2.425344e+003
8.927172e+002, 2.422368e+003
8.931993e+002, 2.417285e+003
8.936814e+002, 2.414440e+003
8.941635e+002, 2.417375e+003
8.946456e+002, 2.421779e+003
8.951277e+002, 2.420640e+003
8.956099e+002, 2.417509e+003
8.960920e+002, 2.422659e+003
8.965741e+002, 2.435288e+003
8.970562e+002, 2.443439e+003
8.975383e+002, 2.441294e+003
8.980204e+002, 2.434548e+003
8.985026e+002, 2.431424e+003
8.989847e+002, 2.431501e+003
8.994668e+002, 2.428874e+003
8.999489e+002, 2.422511e+003
9.004310e+002, 2.419413e+003
9.009131e+002, 2.422509e+003
9.013953e+002, 2.426762e+003
9.018774e+002, 2.428142e+003
9.023595e+002, 2.427091e+003
9.028416e+002, 2.425510e+003
9.033237e+002, 2.422807e+003
9.038058e+002, 2.420750e+003
9.042880e+002, 2.418428e+003
9.047701e+002, 2.417858e+003
9.052522e+002, 2.422496e+003
9.057343e+002, 2.427865e+003
9.062164e+002, 2.426908e+003
9.066985e+002, 2.419559e+003
9.071807e+002, 2.415923e+003
9.076628e+002, 2.423339e+003
9.081449e+002, 2.430952e+003
9.086270e+002, 2.433415e+003
9.091091e+002, 2.432425e+003
9.095912e+002, 2.428115e+003
9.100734e+002, 2.422210e+003
9.105555e+002, 2.418387e+003
9.110376e+002, 2.418231e+003
9.115197e+002, 2.421133e+003
9.120018e+002, 2.429239e+003
9.124839e+002, 2.438760e+003
9.129661e+002, 2.440070e+003
9.134482e+002, 2.434957e+003
9.139303e+002, 2.433354e+003
9.144124e+002, 2.437927e+003
9.148945e+002, 2.443792e+003
9.153766e+002, 2.446705e+003
9.158588e+002, 2.447528e+003
9.163409e+002, 2.449754e+003
9.168230e+002, 2.454068e+003
9.173051e+002, 2.452703e+003
9.177872e+002, 2.443499e+003
9.182693e+002, 2.433352e+003
9.187515e+002, 2.424416e+003
9.192336e+002, 2.417990e+003
9.197157e+002, 2.416893e+003
9.201978e+002, 2.421906e+003
9.206799e+002, 2.424369e+003
9.211620e+002, 2.421150e+003
9.216442e+002, 2.419702e+003
9.221263e+002, 2.422284e+003
9.226084e+002, 2.425731e+003
9.230905e+002, 2.428138e+003
9.235726e+002, 2.429718e+003
9.240547e+002, 2.431450e+003
9.245369e+002, 2.433906e+003
9.250190e+002, 2.434828e+003
9.255011e+002, 2.430715e+003
9.259832e+002, 2.427655e+003
9.264653e+002, 2.431157e+003
9.269474e+002, 2.437531e+003
9.274296e+002, 2.442065e+003
9.279117e+002, 2.443677e+003
9.283938e+002, 2.442249e+003
9.288759e+002, 2.435911e+003
9.293580e+002, 2.430816e+003
9.298401e+002, 2.436665e+003
9.303223e+002, 2.447355e+003
9.308044e+002, 2.450844e+003
9.312865e+002, 2.447535e+003
9.317686e+002, 2.443773e+003
9.322507e+002, 2.442172e+003
9.327328e+002, 2.442199e+003
9.332150e+002, 2.443415e+003
9.336971e+002, 2.445641e+003
9.341792e+002, 2.448457e+003
9.346613e+002, 2.451849e+003
9.351434e+002, 2.455099e+003
9.356255e+002, 2.458264e+003
9.361077e+002, 2.459771e+003
9.365898e+002, 2.458323e+003
9.370719e+002, 2.454997e+003
9.375540e+002, 2.451993e+003
9.380361e+002, 2.449117e+003
9.385182e+002, 2.447915e+003
9.390004e+002, 2.449982e+003
9.394825e+002, 2.450493e+003
9.399646e+002, 2.445587e+003
9.404467e+002, 2.441096e+003
9.409288e+002, 2.443690e+003
9.414109e+002, 2.451561e+003
9.418931e+002, 2.456697e+003
9.423752e+002, 2.457262e+003
9.428573e+002, 2.457997e+003
9.433394e+002, 2.459098e+003
9.438215e+002, 2.460888e+003
9.443036e+002, 2.464744e+003
9.447858e+002, 2.468713e+003
9.452679e+002, 2.469510e+003
9.457500e+002, 2.467209e+003
9.462321e+002, 2.466515e+003
9.467142e+002, 2.471092e+003
9.471964e+002, 2.475675e+003
9.476785e+002, 2.476524e+003
9.481606e+002, 2.476142e+003
9.486427e+002, 2.477262e+003
9.491248e+002, 2.479668e+003
9.496069e+002, 2.481871e+003
9.500891e+002, 2.483337e+003
9.505712e+002, 2.485069e+003
9.510533e+002, 2.488911e+003
9.515354e+002, 2.493001e+003
9.520175e+002, 2.494144e+003
9.524996e+002, 2.492985e+003
9.529818e+002, 2.490597e+003
9.534639e+002, 2.487591e+003
9.539460e+002, 2.486433e+003
9.544281e+002, 2.488723e+003
9.549102e+002, 2.493220e+003
9.553923e+002, 2.497951e+003
9.558745e+002, 2.502967e+003
9.563566e+002, 2.508419e+003
9.568387e+002, 2.514317e+003
9.573208e+002, 2.521770e+003
9.578029e+002, 2.531894e+003
9.582850e+002, 2.539350e+003
9.587672e+002, 2.538493e+003
9.592493e+002, 2.531642e+003
9.597314e+002, 2.528092e+003
9.602135e+002, 2.528279e+003
9.606956e+002, 2.530252e+003
9.611777e+002, 2.534735e+003
9.616599e+002, 2.539222e+003
9.621420e+002, 2.541732e+003
9.626241e+002, 2.544605e+003
9.631062e+002, 2.550657e+003
9.635883e+002, 2.559865e+003
9.640704e+002, 2.571094e+003
9.645526e+002, 2.587004e+003
9.650347e+002, 2.600860e+003
9.655168e+002, 2.612362e+003
9.659989e+002, 2.621379e+003
9.664810e+002, 2.626492e+003
9.669631e+002, 2.629693e+003
9.674453e+002, 2.634150e+003
9.679274e+002, 2.640331e+003
9.684095e+002, 2.645966e+003
9.688916e+002, 2.650360e+003
9.693737e+002, 2.654236e+003
9.698558e+002, 2.656191e+003
9.703380e+002, 2.659237e+003
9.708201e+002, 2.667873e+003
9.713022e+002, 2.679777e+003
9.717843e+002, 2.688067e+003
9.722664e+002, 2.690129e+003
9.727485e+002, 2.694159e+003
9.732307e+002, 2.706840e+003
9.737128e+002, 2.722963e+003
9.741949e+002, 2.737310e+003
9.746770e+002, 2.751456e+003
9.751591e+002, 2.769519e+003
9.756412e+002, 2.790927e+003
9.761234e+002, 2.810173e+003
9.766055e+002, 2.824045e+003
9.770876e+002, 2.836596e+003
9.775698e+002, 2.852260e+003
9.780519e+002, 2.870336e+003
9.785340e+002, 2.890923e+003
9.790161e+002, 2.912675e+003
9.794982e+002, 2.929514e+003
9.799803e+002, 2.940345e+003
9.804625e+002, 2.952069e+003
9.809446e+002, 2.970617e+003
9.814267e+002, 2.992193e+003
9.819088e+002, 3.007833e+003
9.823909e+002, 3.018327e+003
9.828730e+002, 3.031703e+003
9.833552e+002, 3.048447e+003
9.838373e+002, 3.067427e+003
9.843194e+002, 3.088520e+003
9.848015e+002, 3.110020e+003
9.852836e+002, 3.130482e+003
9.857657e+002, 3.149695e+003
9.862479e+002, 3.165697e+003
9.867300e+002, 3.176881e+003
9.872121e+002, 3.194831e+003
9.876942e+002, 3.224121e+003
9.881763e+002, 3.249511e+003
9.886584e+002, 3.261813e+003
9.891406e+002, 3.269919e+003
9.896227e+002, 3.285677e+003
9.901048e+002, 3.309134e+003
9.905869e+002, 3.332197e+003
9.910690e+002, 3.355906e+003
9.915511e+002, 3.377120e+003
9.920333e+002, 3.395881e+003
9.925154e+002, 3.411865e+003
9.929975e+002, 3.422784e+003
9.934796e+002, 3.431836e+003
9.939617e+002, 3.443615e+003
9.944438e+002, 3.458185e+003
9.949260e+002, 3.475502e+003
9.954081e+002, 3.498258e+003
9.958902e+002, 3.519986e+003
9.963723e+002, 3.538722e+003
9.968544e+002, 3.556588e+003
9.973365e+002, 3.573613e+003
9.978187e+002, 3.591323e+003
9.983008e+002, 3.613257e+003
9.987829e+002, 3.640611e+003
9.992650e+002, 3.665057e+003
9.997471e+002, 3.683288e+003
1.000229e+003, 3.699045e+003
1.000711e+003, 3.711912e+003
1.001193e+003, 3.724938e+003
1.001676e+003, 3.741285e+003
1.002158e+003, 3.760321e+003
1.002640e+003, 3.780501e+003
1.003122e+003, 3.801793e+003
1.003604e+003, 3.819355e+003
1.004086e+003, 3.828489e+003
1.004568e+003, 3.834958e+003
1.005050e+003, 3.842533e+003
1.005533e+003, 3.850892e+003
1.006015e+003, 3.860382e+003
1.006497e+003, 3.870031e+003
1.006979e+003, 3.876902e+003
1.007461e+003, 3.879554e+003
1.007943e+003, 3.880716e+003
1.008425e+003, 3.881109e+003
1.008907e+003, 3.882686e+003
1.009389e+003, 3.889603e+003
1.009872e+003, 3.899173e+003
1.010354e+003, 3.904968e+003
1.010836e+003, 3.906706e+003
1.011318e+003, 3.909439e+003
1.011800e+003, 3.916200e+003
1.012282e+003, 3.924056e+003
1.012764e+003, 3.931955e+003
1.013246e+003, 3.937179e+003
1.013729e+003, 3.932755e+003
1.014211e+003, 3.920208e+003
1.014693e+003, 3.904775e+003
1.015175e+003, 3.888181e+003
1.015657e+003, 3.872922e+003
1.016139e+003, 3.861023e+003
1.016621e+003, 3.849687e+003
1.017103e+003, 3.833443e+003
1.017585e+003, 3.813543e+003
1.018068e+003, 3.794772e+003
1.018550e+003, 3.777604e+003
1.019032e+003, 3.764537e+003
1.019514e+003, 3.756368e+003
1.019996e+003, 3.748939e+003
1.020478e+003, 3.739213e+003
1.020960e+003, 3.727079e+003
1.021442e+003, 3.712271e+003
1.021924e+003, 3.694842e+003
1.022407e+003, 3.673989e+003
1.022889e+003, 3.649446e+003
1.023371e+003, 3.626445e+003
1.023853e+003, 3.606625e+003
1.024335e+003, 3.588061e+003
1.024817e+003, 3.568913e+003
1.025299e+003, 3.549838e+003
1.025781e+003, 3.532941e+003
1.026264e+003, 3.518279e+003
1.026746e+003, 3.505611e+003
1.027228e+003, 3.496381e+003
1.027710e+003, 3.482179e+003
1.028192e+003, 3.458826e+003
1.028674e+003, 3.433191e+003
1.029156e+003, 3.411057e+003
1.029638e+003, 3.392641e+003
1.030120e+003, 3.379087e+003
1.030603e+003, 3.372510e+003
1.031085e+003, 3.362878e+003
1.031567e+003, 3.348300e+003
1.032049e+003, 3.335113e+003
1.032531e+003, 3.325530e+003
1.033013e+003, 3.318139e+003
1.033495e+003, 3.312663e+003
1.033977e+003, 3.308077e+003
1.034459e+003, 3.298957e+003
1.034942e+003, 3.282542e+003
1.035424e+003, 3.268149e+003
1.035906e+003, 3.256538e+003
1.036388e+003, 3.245788e+003
1.036870e+003, 3.236379e+003
1.037352e+003, 3.226370e+003
1.037834e+003, 3.213128e+003
1.038316e+003, 3.197325e+003
1.038799e+003, 3.182858e+003
1.039281e+003, 3.167271e+003
1.039763e+003, 3.157755e+003
1.040245e+003, 3.159096e+003
1.040727e+003, 3.160291e+003
1.041209e+003, 3.160427e+003
1.041691e+003, 3.156805e+003
1.042173e+003, 3.144544e+003
1.042656e+003, 3.125634e+003
1.043138e+003, 3.110755e+003
1.043620e+003, 3.100932e+003
1.044102e+003, 3.093848e+003
1.044584e+003, 3.093184e+003
1.045066e+003, 3.090503e+003
1.045548e+003, 3.081333e+003
1.046030e+003, 3.069846e+003
1.046512e+003, 3.059589e+003
1.046995e+003, 3.050664e+003
1.047477e+003, 3.042680e+003
1.047959e+003, 3.036146e+003
1.048441e+003, 3.029342e+003
1.048923e+003, 3.021306e+003
1.049405e+003, 3.013931e+003
1.049887e+003, 3.009424e+003
1.050369e+003, 3.004891e+003
1.050851e+003, 2.995755e+003
1.051334e+003, 2.983817e+003
1.051816e+003, 2.977394e+003
1.052298e+003, 2.981210e+003
1.052780e+003, 2.981158e+003
1.053262e+003, 2.970184e+003
1.053744e+003, 2.959259e+003
1.054226e+003, 2.954701e+003
1.054708e+003, 2.951627e+003
1.055191e+003, 2.946070e+003
1.055673e+003, 2.937362e+003
1.056155e+003, 2.923796e+003
1.056637e+003, 2.901433e+003
1.057119e+003, 2.886604e+003
1.057601e+003, 2.893620e+003
1.058083e+003, 2.898005e+003
1.058565e+003, 2.884875e+003
1.059047e+003, 2.865272e+003
1.059530e+003, 2.849861e+003
1.060012e+003, 2.838402e+003
1.060494e+003, 2.825693e+003
1.060976e+003, 2.809693e+003
1.061458e+003, 2.796520e+003
1.061940e+003, 2.790331e+003
1.062422e+003, 2.784955e+003
1.062904e+003, 2.778998e+003
1.063386e+003, 2.770775e+003
1.063869e+003, 2.756083e+003
1.064351e+003, 2.738167e+003
1.064833e+003, 2.726247e+003
1.065315e+003, 2.723399e+003
1.065797e+003, 2.720589e+003
1.066279e+003, 2.716371e+003
1.066761e+003, 2.708664e+003
1.067243e+003, 2.692310e+003
1.067726e+003, 2.675323e+003
1.068208e+003, 2.665959e+003
1.068690e+003, 2.662488e+003
1.069172e+003, 2.659940e+003
1.069654e+003, 2.657385e+003
1.070136e+003, 2.651059e+003
1.070618e+003, 2.635809e+003
1.071100e+003, 2.620796e+003
1.071583e+003, 2.610090e+003
1.072065e+003, 2.602508e+003
1.072547e+003, 2.597770e+003
1.073029e+003, 2.594783e+003
1.073511e+003, 2.592592e+003
1.073993e+003, 2.590882e+003
1.074475e+003, 2.585647e+003
1.074957e+003, 2.571082e+003
1.075439e+003, 2.557691e+003
1.075922e+003, 2.550780e+003
1.076404e+003, 2.547292e+003
1.076886e+003, 2.545857e+003
1.077368e+003, 2.545174e+003
1.077850e+003, 2.543545e+003
1.078332e+003, 2.540663e+003
1.078814e+003, 2.537354e+003
1.079296e+003, 2.534449e+003
1.079779e+003, 2.530570e+003
1.080261e+003, 2.522958e+003
1.080743e+003, 2.516186e+003
1.081225e+003, 2.516312e+003
1.081707e+003, 2.518798e+003
1.082189e+003, 2.515726e+003
1.082671e+003, 2.506544e+003
1.083153e+003, 2.497515e+003
1.083635e+003, 2.489487e+003
1.084118e+003, 2.484993e+003
1.084600e+003, 2.490612e+003
1.085082e+003, 2.494555e+003
1.085564e+003, 2.484275e+003
1.086046e+003, 2.469302e+003
1.086528e+003, 2.464120e+003
1.087010e+003, 2.468485e+003
1.087492e+003, 2.470638e+003
1.087974e+003, 2.465661e+003
1.088457e+003, 2.461045e+003
1.088939e+003, 2.460441e+003
1.089421e+003, 2.460581e+003
1.089903e+003, 2.459967e+003
1.090385e+003, 2.458554e+003
1.090867e+003, 2.457215e+003
1.091349e+003, 2.455169e+003
1.091831e+003, 2.449046e+003
1.092314e+003, 2.436294e+003
1.092796e+003, 2.426366e+003
1.093278e+003, 2.424973e+003
1.093760e+003, 2.424533e+003
1.094242e+003, 2.420724e+003
1.094724e+003, 2.416331e+003
1.095206e+003, 2.413425e+003
1.095688e+003, 2.412439e+003
1.096171e+003, 2.414695e+003
1.096653e+003, 2.421299e+003
1.097135e+003, 2.424023e+003
1.097617e+003, 2.416644e+003
1.098099e+003, 2.409899e+003
1.098581e+003, 2.409127e+003
1.099063e+003, 2.409572e+003
1.099545e+003, 2.407323e+003
1.100027e+003, 2.403501e+003
1.100510e+003, 2.401224e+003
1.100992e+003, 2.400991e+003
1.101474e+003, 2.398354e+003
1.101956e+003, 2.389747e+003
1.102438e+003, 2.382352e+003
1.102920e+003, 2.376943e+003
1.103402e+003, 2.374528e+003
1.103884e+003, 2.377279e+003
1.104366e+003, 2.382513e+003
1.104849e+003, 2.387010e+003
1.105331e+003, 2.390443e+003
1.105813e+003, 2.392655e+003
1.106295e+003, 2.394167e+003
1.106777e+003, 2.393565e+003
1.107259e+003, 2.388438e+003
1.107741e+003, 2.383765e+003
1.108223e+003, 2.382725e+003
1.108706e+003, 2.382519e+003
1.109188e+003, 2.380175e+003
1.109670e+003, 2.375865e+003
1.110152e+003, 2.371078e+003
1.110634e+003, 2.364983e+003
1.111116e+003, 2.360426e+003
1.111598e+003, 2.357898e+003
1.112080e+003, 2.356458e+003
1.112563e+003, 2.356176e+003
1.113045e+003, 2.356647e+003
1.113527e+003, 2.357678e+003
1.114009e+003, 2.359228e+003
1.114491e+003, 2.361299e+003
1.114973e+003, 2.364305e+003
1.115455e+003, 2.366174e+003
1.115937e+003, 2.366515e+003
1.116419e+003, 2.366479e+003
1.116901e+003, 2.366956e+003
1.117384e+003, 2.365936e+003
1.117866e+003, 2.359994e+003
1.118348e+003, 2.353715e+003
1.118830e+003, 2.356149e+003
1.119312e+003, 2.367687e+003
1.119794e+003, 2.371669e+003
1.120276e+003, 2.364490e+003
1.120758e+003, 2.358841e+003
1.121241e+003, 2.355748e+003
1.121723e+003, 2.354968e+003
1.122205e+003, 2.357978e+003
1.122687e+003, 2.360284e+003
1.123169e+003, 2.355760e+003
1.123651e+003, 2.346059e+003
1.124133e+003, 2.340913e+003
1.124615e+003, 2.341208e+003
1.125098e+003, 2.342228e+003
1.125580e+003, 2.344167e+003
1.126062e+003, 2.345542e+003
1.126544e+003, 2.345878e+003
1.127026e+003, 2.345715e+003
1.127508e+003, 2.345585e+003
1.127990e+003, 2.345163e+003
1.128472e+003, 2.343132e+003
1.128954e+003, 2.339397e+003
1.129437e+003, 2.338970e+003
1.129919e+003, 2.342205e+003
1.130401e+003, 2.342654e+003
1.130883e+003, 2.338710e+003
1.131365e+003, 2.334522e+003
1.131847e+003, 2.332261e+003
1.132329e+003, 2.333051e+003
1.132811e+003, 2.339937e+003
1.133293e+003, 2.350667e+003
1.133776e+003, 2.353002e+003
1.134258e+003, 2.348244e+003
1.134740e+003, 2.349303e+003
1.135222e+003, 2.357272e+003
1.135704e+003, 2.365832e+003
1.136186e+003, 2.372339e+003
1.136668e+003, 2.375315e+003
1.137150e+003, 2.372917e+003
1.137633e+003, 2.367071e+003
1.138115e+003, 2.359737e+003
1.138597e+003, 2.352595e+003
1.139079e+003, 2.351219e+003
1.139561e+003, 2.354948e+003
1.140043e+003, 2.361524e+003
1.140525e+003, 2.369257e+003
1.141007e+003, 2.371318e+003
1.141490e+003, 2.362619e+003
1.141972e+003, 2.352138e+003
1.142454e+003, 2.349329e+003
1.142936e+003, 2.352693e+003
1.143418e+003, 2.364248e+003
1.143900e+003, 2.378226e+003
1.144382e+003, 2.382252e+003
1.144864e+003, 2.376843e+003
1.145346e+003, 2.369747e+003
1.145828e+003, 2.364160e+003
1.146311e+003, 2.361199e+003
1.146793e+003, 2.363935e+003
1.147275e+003, 2.367178e+003
1.147757e+003, 2.363355e+003
1.148239e+003, 2.359554e+003
1.148721e+003, 2.366616e+003
1.149203e+003, 2.379463e+003
1.149685e+003, 2.386861e+003
1.150168e+003, 2.387055e+003
1.150650e+003, 2.387075e+003
1.151132e+003, 2.390960e+003
1.151614e+003, 2.392962e+003
1.152096e+003, 2.388108e+003
1.152578e+003, 2.382549e+003
1.153060e+003, 2.381158e+003
1.153542e+003, 2.380918e+003
1.154025e+003, 2.376644e+003
1.154507e+003, 2.370131e+003
1.154989e+003, 2.368802e+003
1.155471e+003, 2.375354e+003
1.155953e+003, 2.380896e+003
1.156435e+003, 2.383766e+003
1.156917e+003, 2.384811e+003
1.157399e+003, 2.381398e+003
1.157881e+003, 2.379258e+003
1.158364e+003, 2.385916e+003
1.158846e+003, 2.394747e+003
1.159328e+003, 2.393572e+003
1.159810e+003, 2.381766e+003
1.160292e+003, 2.372443e+003
1.160774e+003, 2.367063e+003
1.161256e+003, 2.361753e+003
1.161738e+003, 2.355199e+003
1.162220e+003, 2.350717e+003
1.162703e+003, 2.350500e+003
1.163185e+003, 2.351469e+003
1.163667e+003, 2.350586e+003
1.164149e+003, 2.348633e+003
1.164631e+003, 2.347951e+003
1.165113e+003, 2.348193e+003
1.165595e+003, 2.352623e+003
1.166077e+003, 2.362969e+003
1.166560e+003, 2.370249e+003
1.167042e+003, 2.372906e+003
1.167524e+003, 2.369951e+003
1.168006e+003, 2.359485e+003
1.168488e+003, 2.348389e+003
1.168970e+003, 2.347926e+003
1.169452e+003, 2.355291e+003
1.169934e+003, 2.355036e+003
1.170417e+003, 2.347959e+003
1.170899e+003, 2.346745e+003
1.171381e+003, 2.352146e+003
1.171863e+003, 2.356388e+003
1.172345e+003, 2.356830e+003
1.172827e+003, 2.355659e+003
1.173309e+003, 2.354478e+003
1.173791e+003, 2.353501e+003
1.174273e+003, 2.351782e+003
1.174755e+003, 2.351151e+003
1.175238e+003, 2.359230e+003
1.175720e+003, 2.371509e+003
1.176202e+003, 2.373799e+003
1.176684e+003, 2.365897e+003
1.177166e+003, 2.358101e+003
1.177648e+003, 2.354858e+003
1.178130e+003, 2.353504e+003
1.178612e+003, 2.352804e+003
1.179095e+003, 2.351669e+003
1.179577e+003, 2.347392e+003
1.180059e+003, 2.343319e+003
1.180541e+003, 2.343759e+003
1.181023e+003, 2.347574e+003
1.181505e+003, 2.352892e+003
1.181987e+003, 2.358656e+003
1.182469e+003, 2.362183e+003
1.182952e+003, 2.361716e+003
1.183434e+003, 2.360725e+003
1.183916e+003, 2.361178e+003
1.184398e+003, 2.360945e+003
1.184880e+003, 2.356080e+003
1.185362e+003, 2.352291e+003
1.185844e+003, 2.357360e+003
1.186326e+003, 2.367318e+003
1.186808e+003, 2.371639e+003
1.187291e+003, 2.368528e+003
1.187773e+003, 2.366771e+003
1.188255e+003, 2.367715e+003
1.188737e+003, 2.369310e+003
1.189219e+003, 2.372312e+003
1.189701e+003, 2.374646e+003
1.190183e+003, 2.376078e+003
1.190665e+003, 2.375603e+003
1.191147e+003, 2.371075e+003
1.191630e+003, 2.364077e+003
1.192112e+003, 2.361605e+003
1.192594e+003, 2.364747e+003
1.193076e+003, 2.367139e+003
1.193558e+003, 2.368830e+003
1.194040e+003, 2.369425e+003
1.194522e+003, 2.368725e+003
1.195004e+003, 2.367720e+003
1.195487e+003, 2.367170e+003
1.195969e+003, 2.365644e+003
1.196451e+003, 2.360599e+003
1.196933e+003, 2.353371e+003
1.197415e+003, 2.348744e+003
1.197897e+003, 2.346606e+003
1.198379e+003, 2.347399e+003
1.198861e+003, 2.350427e+003
1.199344e+003, 2.350533e+003
1.199826e+003, 2.346835e+003
1.200308e+003, 2.346383e+003
1.200790e+003, 2.354575e+003
1.201272e+003, 2.364139e+003
1.201754e+003, 2.366244e+003
1.202236e+003, 2.364378e+003
1.202718e+003, 2.363368e+003
1.203200e+003, 2.362043e+003
1.203682e+003, 2.355651e+003
1.204165e+003, 2.347291e+003
1.204647e+003, 2.347663e+003
1.205129e+003, 2.358987e+003
1.205611e+003, 2.367845e+003
1.206093e+003, 2.366085e+003
1.206575e+003, 2.361940e+003
1.207057e+003, 2.357866e+003
1.207539e+003, 2.354806e+003
1.208022e+003, 2.352764e+003
1.208504e+003, 2.352538e+003
1.208986e+003, 2.355467e+003
1.209468e+003, 2.360978e+003
1.209950e+003, 2.367132e+003
1.210432e+003, 2.374195e+003
1.210914e+003, 2.379967e+003
1.211396e+003, 2.387042e+003
1.211879e+003, 2.388198e+003
1.212361e+003, 2.377133e+003
1.212843e+003, 2.368382e+003
1.213325e+003, 2.370742e+003
1.213807e+003, 2.376894e+003
1.214289e+003, 2.377827e+003
1.214771e+003, 2.374913e+003
1.215253e+003, 2.375156e+003
1.215735e+003, 2.379135e+003
1.216218e+003, 2.380854e+003
1.216700e+003, 2.380085e+003
1.217182e+003, 2.378119e+003
1.217664e+003, 2.375198e+003
1.218146e+003, 2.371734e+003
1.218628e+003, 2.367728e+003
1.219110e+003, 2.366184e+003
1.219592e+003, 2.372006e+003
1.220074e+003, 2.381951e+003
1.220557e+003, 2.389421e+003
1.221039e+003, 2.394347e+003
1.221521e+003, 2.396961e+003
1.222003e+003, 2.396869e+003
1.222485e+003, 2.390851e+003
1.222967e+003, 2.379875e+003
1.223449e+003, 2.373045e+003
1.223931e+003, 2.375774e+003
1.224414e+003, 2.380500e+003
1.224896e+003, 2.382707e+003
1.225378e+003, 2.382983e+003
1.225860e+003, 2.382096e+003
1.226342e+003, 2.379295e+003
1.226824e+003, 2.370585e+003
1.227306e+003, 2.360681e+003
1.227788e+003, 2.360921e+003
1.228271e+003, 2.371647e+003
1.228753e+003, 2.375058e+003
1.229235e+003, 2.360244e+003
1.229717e+003, 2.351112e+003
1.230199e+003, 2.354371e+003
1.230681e+003, 2.359093e+003
1.231163e+003, 2.363070e+003
1.231645e+003, 2.365830e+003
1.232127e+003, 2.366582e+003
1.232609e+003, 2.366220e+003
1.233092e+003, 2.366101e+003
1.233574e+003, 2.366267e+003
1.234056e+003, 2.370507e+003
1.234538e+003, 2.379844e+003
1.235020e+003, 2.383928e+003
1.235502e+003, 2.381510e+003
1.235984e+003, 2.376996e+003
1.236466e+003, 2.371752e+003
1.236949e+003, 2.369207e+003
1.237431e+003, 2.372481e+003
1.237913e+003, 2.377161e+003
1.238395e+003, 2.374081e+003
1.238877e+003, 2.368079e+003
1.239359e+003, 2.373205e+003
1.239841e+003, 2.383959e+003
1.240323e+003, 2.387111e+003
1.240806e+003, 2.382928e+003
1.241288e+003, 2.377015e+003
1.241770e+003, 2.371587e+003
1.242252e+003, 2.368502e+003
1.242734e+003, 2.368871e+003
1.243216e+003, 2.371644e+003
1.243698e+003, 2.379046e+003
1.244180e+003, 2.385218e+003
1.244662e+003, 2.384540e+003
1.245145e+003, 2.381870e+003
1.245627e+003, 2.382709e+003
1.246109e+003, 2.385508e+003
1.246591e+003, 2.385829e+003
1.247073e+003, 2.383110e+003
1.247555e+003, 2.380504e+003
1.248037e+003, 2.378730e+003
1.248519e+003, 2.375965e+003
1.249001e+003, 2.371211e+003
1.249484e+003, 2.367288e+003
1.249966e+003, 2.364938e+003
1.250448e+003, 2.364067e+003
1.250930e+003, 2.364701e+003
1.251412e+003, 2.366597e+003
1.251894e+003, 2.369708e+003
1.252376e+003, 2.373607e+003
1.252858e+003, 2.374079e+003
1.253341e+003, 2.371800e+003
1.253823e+003, 2.373607e+003
1.254305e+003, 2.379472e+003
1.254787e+003, 2.384087e+003
1.255269e+003, 2.385814e+003
1.255751e+003, 2.385863e+003
1.256233e+003, 2.384727e+003
1.256715e+003, 2.384422e+003
1.257198e+003, 2.389658e+003
1.257680e+003, 2.394370e+003
1.258162e+003, 2.389959e+003
1.258644e+003, 2.382247e+003
1.259126e+003, 2.377079e+003
1.259608e+003, 2.375504e+003
1.260090e+003, 2.379025e+003
1.260572e+003, 2.387024e+003
1.261054e+003, 2.392892e+003
1.261536e+003, 2.394096e+003
1.262019e+003, 2.394796e+003
1.262501e+003, 2.394802e+003
1.262983e+003, 2.395757e+003
1.263465e+003, 2.399942e+003
1.263947e+003, 2.402731e+003
1.264429e+003, 2.400300e+003
1.264911e+003, 2.395877e+003
1.265393e+003, 2.394582e+003
1.265876e+003, 2.395701e+003
1.266358e+003, 2.393666e+003
1.266840e+003, 2.388118e+003
1.267322e+003, 2.387185e+003
1.267804e+003, 2.391170e+003
1.268286e+003, 2.393775e+003
1.268768e+003, 2.393553e+003
1.269250e+003, 2.392000e+003
1.269733e+003, 2.389936e+003
1.270215e+003, 2.389003e+003
1.270697e+003, 2.392109e+003
1.271179e+003, 2.395757e+003
1.271661e+003, 2.394583e+003
1.272143e+003, 2.390971e+003
1.272625e+003, 2.385860e+003
1.273107e+003, 2.382226e+003
1.273589e+003, 2.387218e+003
1.274072e+003, 2.398396e+003
1.274554e+003, 2.403606e+003
1.275036e+003, 2.398617e+003
1.275518e+003, 2.394586e+003
1.276000e+003, 2.397818e+003
1.276482e+003, 2.398061e+003
1.276964e+003, 2.387499e+003
1.277446e+003, 2.380352e+003
1.277929e+003, 2.385324e+003
1.278411e+003, 2.393048e+003
1.278893e+003, 2.394333e+003
1.279375e+003, 2.391960e+003
1.279857e+003, 2.393888e+003
1.280339e+003, 2.400276e+003
1.280821e+003, 2.402364e+003
1.281303e+003, 2.400413e+003
1.281786e+003, 2.397842e+003
1.282268e+003, 2.394990e+003
##END=



