##NAMES=Malhmoodite
##RRUFFID=R060462
##IDEAL CHEMISTRY=Fe^2+^Zr^4+^(PO_4_)_2_&#183;4H_2_O
##LOCALITY=Union Carbide Vanadium mine, Wilson Springs, Garland County, Arkansas, USA
##OWNER=RRUFF
##SOURCE=Michael Scott
##DESCRIPTION=White to cream spherical aggregates of acicular crystals associated with colorless albite, dark green aegirine, octahedral pyrochlore, and yellowish titanite.
##STATUS=The identification of this mineral has been determined only by Raman spectroscopy
##URL=rruff.info/R060462
8.813672e+001, 1.197404e+003
8.861884e+001, 1.211029e+003
8.910095e+001, 1.226454e+003
8.958307e+001, 1.247136e+003
9.006519e+001, 1.269088e+003
9.054730e+001, 1.287287e+003
9.102942e+001, 1.302857e+003
9.151154e+001, 1.316226e+003
9.199365e+001, 1.328603e+003
9.247577e+001, 1.339651e+003
9.295789e+001, 1.347718e+003
9.344000e+001, 1.350471e+003
9.392212e+001, 1.349220e+003
9.440424e+001, 1.348866e+003
9.488635e+001, 1.350948e+003
9.536847e+001, 1.354798e+003
9.585059e+001, 1.359390e+003
9.633270e+001, 1.364611e+003
9.681482e+001, 1.369841e+003
9.729694e+001, 1.374505e+003
9.777905e+001, 1.378671e+003
9.826117e+001, 1.383052e+003
9.874329e+001, 1.387151e+003
9.922540e+001, 1.391886e+003
9.970752e+001, 1.400545e+003
1.001896e+002, 1.414028e+003
1.006718e+002, 1.427165e+003
1.011539e+002, 1.435739e+003
1.016360e+002, 1.438433e+003
1.021181e+002, 1.443178e+003
1.026002e+002, 1.451327e+003
1.030823e+002, 1.462422e+003
1.035645e+002, 1.473129e+003
1.040466e+002, 1.483435e+003
1.045287e+002, 1.493648e+003
1.050108e+002, 1.503776e+003
1.054929e+002, 1.511400e+003
1.059750e+002, 1.523342e+003
1.064572e+002, 1.542371e+003
1.069393e+002, 1.569757e+003
1.074214e+002, 1.592987e+003
1.079035e+002, 1.611174e+003
1.083856e+002, 1.626129e+003
1.088677e+002, 1.639528e+003
1.093499e+002, 1.648972e+003
1.098320e+002, 1.659613e+003
1.103141e+002, 1.672778e+003
1.107962e+002, 1.689599e+003
1.112783e+002, 1.706250e+003
1.117604e+002, 1.721962e+003
1.122426e+002, 1.737672e+003
1.127247e+002, 1.754507e+003
1.132068e+002, 1.775864e+003
1.136889e+002, 1.795934e+003
1.141710e+002, 1.811371e+003
1.146531e+002, 1.817633e+003
1.151353e+002, 1.827209e+003
1.156174e+002, 1.846173e+003
1.160995e+002, 1.871274e+003
1.165816e+002, 1.894479e+003
1.170637e+002, 1.912426e+003
1.175458e+002, 1.927553e+003
1.180280e+002, 1.941615e+003
1.185101e+002, 1.954670e+003
1.189922e+002, 1.966974e+003
1.194743e+002, 1.977582e+003
1.199564e+002, 1.987051e+003
1.204385e+002, 1.997721e+003
1.209207e+002, 2.011411e+003
1.214028e+002, 2.026867e+003
1.218849e+002, 2.042632e+003
1.223670e+002, 2.058765e+003
1.228491e+002, 2.074818e+003
1.233312e+002, 2.090534e+003
1.238134e+002, 2.105890e+003
1.242955e+002, 2.120108e+003
1.247776e+002, 2.131296e+003
1.252597e+002, 2.140783e+003
1.257418e+002, 2.151306e+003
1.262239e+002, 2.165082e+003
1.267061e+002, 2.180322e+003
1.271882e+002, 2.193772e+003
1.276703e+002, 2.205448e+003
1.281524e+002, 2.216019e+003
1.286345e+002, 2.225093e+003
1.291166e+002, 2.233237e+003
1.295988e+002, 2.242959e+003
1.300809e+002, 2.256754e+003
1.305630e+002, 2.273306e+003
1.310451e+002, 2.288281e+003
1.315272e+002, 2.301414e+003
1.320093e+002, 2.312947e+003
1.324915e+002, 2.321997e+003
1.329736e+002, 2.328584e+003
1.334557e+002, 2.337215e+003
1.339378e+002, 2.352094e+003
1.344199e+002, 2.372671e+003
1.349020e+002, 2.388756e+003
1.353842e+002, 2.398354e+003
1.358663e+002, 2.404465e+003
1.363484e+002, 2.414527e+003
1.368305e+002, 2.429311e+003
1.373126e+002, 2.443995e+003
1.377947e+002, 2.454942e+003
1.382769e+002, 2.461430e+003
1.387590e+002, 2.469040e+003
1.392411e+002, 2.478907e+003
1.397232e+002, 2.490083e+003
1.402053e+002, 2.498498e+003
1.406874e+002, 2.504203e+003
1.411696e+002, 2.507396e+003
1.416517e+002, 2.507577e+003
1.421338e+002, 2.503111e+003
1.426159e+002, 2.500737e+003
1.430980e+002, 2.503047e+003
1.435801e+002, 2.509273e+003
1.440623e+002, 2.509157e+003
1.445444e+002, 2.498330e+003
1.450265e+002, 2.486225e+003
1.455086e+002, 2.480758e+003
1.459907e+002, 2.486483e+003
1.464728e+002, 2.491688e+003
1.469550e+002, 2.494568e+003
1.474371e+002, 2.494941e+003
1.479192e+002, 2.495987e+003
1.484013e+002, 2.499195e+003
1.488834e+002, 2.502173e+003
1.493655e+002, 2.502674e+003
1.498477e+002, 2.497120e+003
1.503298e+002, 2.492803e+003
1.508119e+002, 2.491619e+003
1.512940e+002, 2.494381e+003
1.517761e+002, 2.495436e+003
1.522583e+002, 2.493220e+003
1.527404e+002, 2.489714e+003
1.532225e+002, 2.486987e+003
1.537046e+002, 2.485612e+003
1.541867e+002, 2.484732e+003
1.546688e+002, 2.484277e+003
1.551510e+002, 2.484410e+003
1.556331e+002, 2.484452e+003
1.561152e+002, 2.484704e+003
1.565973e+002, 2.484787e+003
1.570794e+002, 2.484179e+003
1.575615e+002, 2.482931e+003
1.580437e+002, 2.480923e+003
1.585258e+002, 2.477932e+003
1.590079e+002, 2.473576e+003
1.594900e+002, 2.469424e+003
1.599721e+002, 2.465232e+003
1.604542e+002, 2.461585e+003
1.609364e+002, 2.459508e+003
1.614185e+002, 2.461233e+003
1.619006e+002, 2.463266e+003
1.623827e+002, 2.463504e+003
1.628648e+002, 2.460965e+003
1.633469e+002, 2.458026e+003
1.638291e+002, 2.455997e+003
1.643112e+002, 2.454355e+003
1.647933e+002, 2.451867e+003
1.652754e+002, 2.447296e+003
1.657575e+002, 2.442060e+003
1.662396e+002, 2.436896e+003
1.667218e+002, 2.431009e+003
1.672039e+002, 2.427092e+003
1.676860e+002, 2.429053e+003
1.681681e+002, 2.434949e+003
1.686502e+002, 2.438675e+003
1.691323e+002, 2.434288e+003
1.696145e+002, 2.427124e+003
1.700966e+002, 2.422723e+003
1.705787e+002, 2.423705e+003
1.710608e+002, 2.425761e+003
1.715429e+002, 2.425187e+003
1.720250e+002, 2.422432e+003
1.725072e+002, 2.419748e+003
1.729893e+002, 2.418193e+003
1.734714e+002, 2.417574e+003
1.739535e+002, 2.417842e+003
1.744356e+002, 2.419947e+003
1.749177e+002, 2.421699e+003
1.753999e+002, 2.420115e+003
1.758820e+002, 2.415522e+003
1.763641e+002, 2.410934e+003
1.768462e+002, 2.408593e+003
1.773283e+002, 2.407751e+003
1.778104e+002, 2.407023e+003
1.782926e+002, 2.406173e+003
1.787747e+002, 2.405175e+003
1.792568e+002, 2.403891e+003
1.797389e+002, 2.402378e+003
1.802210e+002, 2.400975e+003
1.807031e+002, 2.399925e+003
1.811853e+002, 2.399244e+003
1.816674e+002, 2.399008e+003
1.821495e+002, 2.399453e+003
1.826316e+002, 2.400237e+003
1.831137e+002, 2.400693e+003
1.835958e+002, 2.400810e+003
1.840780e+002, 2.400779e+003
1.845601e+002, 2.401174e+003
1.850422e+002, 2.401684e+003
1.855243e+002, 2.400952e+003
1.860064e+002, 2.397599e+003
1.864885e+002, 2.392989e+003
1.869707e+002, 2.390936e+003
1.874528e+002, 2.391566e+003
1.879349e+002, 2.393339e+003
1.884170e+002, 2.395091e+003
1.888991e+002, 2.396786e+003
1.893812e+002, 2.397928e+003
1.898634e+002, 2.397745e+003
1.903455e+002, 2.396953e+003
1.908276e+002, 2.399299e+003
1.913097e+002, 2.405580e+003
1.917918e+002, 2.410931e+003
1.922739e+002, 2.408377e+003
1.927561e+002, 2.398039e+003
1.932382e+002, 2.389026e+003
1.937203e+002, 2.383902e+003
1.942024e+002, 2.382427e+003
1.946845e+002, 2.384224e+003
1.951666e+002, 2.389976e+003
1.956488e+002, 2.396364e+003
1.961309e+002, 2.399096e+003
1.966130e+002, 2.397948e+003
1.970951e+002, 2.396682e+003
1.975772e+002, 2.396923e+003
1.980593e+002, 2.398394e+003
1.985415e+002, 2.397898e+003
1.990236e+002, 2.395240e+003
1.995057e+002, 2.391348e+003
1.999878e+002, 2.386583e+003
2.004699e+002, 2.380567e+003
2.009520e+002, 2.377225e+003
2.014342e+002, 2.379091e+003
2.019163e+002, 2.386026e+003
2.023984e+002, 2.390490e+003
2.028805e+002, 2.392449e+003
2.033626e+002, 2.392208e+003
2.038447e+002, 2.389465e+003
2.043269e+002, 2.383590e+003
2.048090e+002, 2.378279e+003
2.052911e+002, 2.374192e+003
2.057732e+002, 2.371222e+003
2.062553e+002, 2.372305e+003
2.067374e+002, 2.378719e+003
2.072196e+002, 2.387033e+003
2.077017e+002, 2.392363e+003
2.081838e+002, 2.393867e+003
2.086659e+002, 2.395069e+003
2.091480e+002, 2.397225e+003
2.096301e+002, 2.400460e+003
2.101123e+002, 2.402276e+003
2.105944e+002, 2.401962e+003
2.110765e+002, 2.401106e+003
2.115586e+002, 2.401984e+003
2.120407e+002, 2.404955e+003
2.125228e+002, 2.408654e+003
2.130050e+002, 2.413190e+003
2.134871e+002, 2.418880e+003
2.139692e+002, 2.421788e+003
2.144513e+002, 2.420861e+003
2.149334e+002, 2.418297e+003
2.154155e+002, 2.417197e+003
2.158977e+002, 2.418043e+003
2.163798e+002, 2.419183e+003
2.168619e+002, 2.419824e+003
2.173440e+002, 2.419671e+003
2.178261e+002, 2.422059e+003
2.183082e+002, 2.429140e+003
2.187904e+002, 2.436638e+003
2.192725e+002, 2.437773e+003
2.197546e+002, 2.429203e+003
2.202367e+002, 2.421747e+003
2.207188e+002, 2.419125e+003
2.212009e+002, 2.422287e+003
2.216831e+002, 2.423519e+003
2.221652e+002, 2.421319e+003
2.226473e+002, 2.418645e+003
2.231294e+002, 2.419972e+003
2.236115e+002, 2.427696e+003
2.240936e+002, 2.434682e+003
2.245758e+002, 2.439137e+003
2.250579e+002, 2.440846e+003
2.255400e+002, 2.441117e+003
2.260221e+002, 2.438817e+003
2.265042e+002, 2.436071e+003
2.269863e+002, 2.435744e+003
2.274685e+002, 2.438723e+003
2.279506e+002, 2.442427e+003
2.284327e+002, 2.446458e+003
2.289148e+002, 2.451014e+003
2.293969e+002, 2.454162e+003
2.298790e+002, 2.454611e+003
2.303612e+002, 2.454667e+003
2.308433e+002, 2.457456e+003
2.313254e+002, 2.465197e+003
2.318075e+002, 2.471583e+003
2.322896e+002, 2.474695e+003
2.327717e+002, 2.474094e+003
2.332539e+002, 2.474180e+003
2.337360e+002, 2.474917e+003
2.342181e+002, 2.476372e+003
2.347002e+002, 2.478785e+003
2.351823e+002, 2.482846e+003
2.356644e+002, 2.486720e+003
2.361466e+002, 2.490079e+003
2.366287e+002, 2.492941e+003
2.371108e+002, 2.495607e+003
2.375929e+002, 2.498244e+003
2.380750e+002, 2.500602e+003
2.385571e+002, 2.502339e+003
2.390393e+002, 2.503076e+003
2.395214e+002, 2.503965e+003
2.400035e+002, 2.504887e+003
2.404856e+002, 2.505757e+003
2.409677e+002, 2.508734e+003
2.414498e+002, 2.514715e+003
2.419320e+002, 2.521895e+003
2.424141e+002, 2.528745e+003
2.428962e+002, 2.535509e+003
2.433783e+002, 2.541294e+003
2.438604e+002, 2.545693e+003
2.443425e+002, 2.548650e+003
2.448247e+002, 2.551229e+003
2.453068e+002, 2.552167e+003
2.457889e+002, 2.553923e+003
2.462710e+002, 2.559113e+003
2.467531e+002, 2.570625e+003
2.472352e+002, 2.579679e+003
2.477174e+002, 2.584162e+003
2.481995e+002, 2.584345e+003
2.486816e+002, 2.586120e+003
2.491637e+002, 2.590477e+003
2.496458e+002, 2.595415e+003
2.501279e+002, 2.599137e+003
2.506101e+002, 2.600512e+003
2.510922e+002, 2.603546e+003
2.515743e+002, 2.609459e+003
2.520564e+002, 2.617853e+003
2.525385e+002, 2.625107e+003
2.530206e+002, 2.631883e+003
2.535028e+002, 2.636737e+003
2.539849e+002, 2.637417e+003
2.544670e+002, 2.629522e+003
2.549491e+002, 2.628340e+003
2.554312e+002, 2.637906e+003
2.559133e+002, 2.655679e+003
2.563955e+002, 2.668933e+003
2.568776e+002, 2.676530e+003
2.573597e+002, 2.681099e+003
2.578418e+002, 2.683565e+003
2.583239e+002, 2.682083e+003
2.588061e+002, 2.683389e+003
2.592882e+002, 2.688702e+003
2.597703e+002, 2.697036e+003
2.602524e+002, 2.704875e+003
2.607345e+002, 2.712905e+003
2.612166e+002, 2.719410e+003
2.616988e+002, 2.722754e+003
2.621809e+002, 2.720872e+003
2.626630e+002, 2.723088e+003
2.631451e+002, 2.731765e+003
2.636272e+002, 2.744027e+003
2.641093e+002, 2.751279e+003
2.645915e+002, 2.751673e+003
2.650736e+002, 2.751589e+003
2.655557e+002, 2.754173e+003
2.660378e+002, 2.760020e+003
2.665199e+002, 2.766155e+003
2.670020e+002, 2.772589e+003
2.674842e+002, 2.779242e+003
2.679663e+002, 2.786169e+003
2.684484e+002, 2.794019e+003
2.689305e+002, 2.800135e+003
2.694126e+002, 2.801594e+003
2.698947e+002, 2.796346e+003
2.703769e+002, 2.799499e+003
2.708590e+002, 2.813600e+003
2.713411e+002, 2.832697e+003
2.718232e+002, 2.846270e+003
2.723053e+002, 2.852810e+003
2.727874e+002, 2.859312e+003
2.732696e+002, 2.868675e+003
2.737517e+002, 2.881075e+003
2.742338e+002, 2.892242e+003
2.747159e+002, 2.902056e+003
2.751980e+002, 2.910875e+003
2.756801e+002, 2.918739e+003
2.761623e+002, 2.925438e+003
2.766444e+002, 2.932482e+003
2.771265e+002, 2.939960e+003
2.776086e+002, 2.948123e+003
2.780907e+002, 2.959619e+003
2.785728e+002, 2.975922e+003
2.790550e+002, 2.991771e+003
2.795371e+002, 3.000203e+003
2.800192e+002, 3.000637e+003
2.805013e+002, 3.002047e+003
2.809834e+002, 3.006776e+003
2.814655e+002, 3.014444e+003
2.819477e+002, 3.023124e+003
2.824298e+002, 3.032748e+003
2.829119e+002, 3.043351e+003
2.833940e+002, 3.055120e+003
2.838761e+002, 3.068024e+003
2.843582e+002, 3.081319e+003
2.848404e+002, 3.095237e+003
2.853225e+002, 3.109149e+003
2.858046e+002, 3.121071e+003
2.862867e+002, 3.130771e+003
2.867688e+002, 3.139535e+003
2.872509e+002, 3.147699e+003
2.877331e+002, 3.155435e+003
2.882152e+002, 3.164557e+003
2.886973e+002, 3.175668e+003
2.891794e+002, 3.187933e+003
2.896615e+002, 3.199870e+003
2.901436e+002, 3.211568e+003
2.906258e+002, 3.222032e+003
2.911079e+002, 3.231183e+003
2.915900e+002, 3.238790e+003
2.920721e+002, 3.243373e+003
2.925542e+002, 3.244095e+003
2.930363e+002, 3.243297e+003
2.935185e+002, 3.243929e+003
2.940006e+002, 3.246048e+003
2.944827e+002, 3.249842e+003
2.949648e+002, 3.257109e+003
2.954469e+002, 3.266178e+003
2.959290e+002, 3.272718e+003
2.964112e+002, 3.276550e+003
2.968933e+002, 3.277536e+003
2.973754e+002, 3.274307e+003
2.978575e+002, 3.267724e+003
2.983396e+002, 3.260882e+003
2.988217e+002, 3.255871e+003
2.993039e+002, 3.251422e+003
2.997860e+002, 3.245228e+003
3.002681e+002, 3.237113e+003
3.007502e+002, 3.228432e+003
3.012323e+002, 3.220075e+003
3.017144e+002, 3.212143e+003
3.021966e+002, 3.205286e+003
3.026787e+002, 3.201759e+003
3.031608e+002, 3.198209e+003
3.036429e+002, 3.189653e+003
3.041250e+002, 3.176370e+003
3.046071e+002, 3.162279e+003
3.050893e+002, 3.151462e+003
3.055714e+002, 3.141687e+003
3.060535e+002, 3.129512e+003
3.065356e+002, 3.111287e+003
3.070177e+002, 3.092806e+003
3.074998e+002, 3.080043e+003
3.079820e+002, 3.072131e+003
3.084641e+002, 3.065138e+003
3.089462e+002, 3.059861e+003
3.094283e+002, 3.052821e+003
3.099104e+002, 3.039383e+003
3.103925e+002, 3.015139e+003
3.108747e+002, 2.990589e+003
3.113568e+002, 2.972933e+003
3.118389e+002, 2.960849e+003
3.123210e+002, 2.950681e+003
3.128031e+002, 2.942692e+003
3.132852e+002, 2.934568e+003
3.137674e+002, 2.924193e+003
3.142495e+002, 2.910730e+003
3.147316e+002, 2.897075e+003
3.152137e+002, 2.885702e+003
3.156958e+002, 2.875107e+003
3.161779e+002, 2.862717e+003
3.166601e+002, 2.842895e+003
3.171422e+002, 2.824670e+003
3.176243e+002, 2.814550e+003
3.181064e+002, 2.814741e+003
3.185885e+002, 2.812446e+003
3.190706e+002, 2.801070e+003
3.195528e+002, 2.785652e+003
3.200349e+002, 2.771907e+003
3.205170e+002, 2.762604e+003
3.209991e+002, 2.753984e+003
3.214812e+002, 2.745133e+003
3.219633e+002, 2.735959e+003
3.224455e+002, 2.726260e+003
3.229276e+002, 2.713848e+003
3.234097e+002, 2.701975e+003
3.238918e+002, 2.693076e+003
3.243739e+002, 2.690085e+003
3.248560e+002, 2.687196e+003
3.253382e+002, 2.683677e+003
3.258203e+002, 2.679532e+003
3.263024e+002, 2.675090e+003
3.267845e+002, 2.671749e+003
3.272666e+002, 2.667040e+003
3.277487e+002, 2.659623e+003
3.282309e+002, 2.644913e+003
3.287130e+002, 2.633889e+003
3.291951e+002, 2.629315e+003
3.296772e+002, 2.628347e+003
3.301593e+002, 2.623680e+003
3.306414e+002, 2.611590e+003
3.311236e+002, 2.600166e+003
3.316057e+002, 2.592059e+003
3.320878e+002, 2.587917e+003
3.325699e+002, 2.585379e+003
3.330520e+002, 2.585783e+003
3.335341e+002, 2.586993e+003
3.340163e+002, 2.585825e+003
3.344984e+002, 2.581384e+003
3.349805e+002, 2.576379e+003
3.354626e+002, 2.571341e+003
3.359447e+002, 2.566254e+003
3.364268e+002, 2.561427e+003
3.369090e+002, 2.556604e+003
3.373911e+002, 2.552390e+003
3.378732e+002, 2.549682e+003
3.383553e+002, 2.548962e+003
3.388374e+002, 2.547715e+003
3.393195e+002, 2.545379e+003
3.398017e+002, 2.542131e+003
3.402838e+002, 2.538230e+003
3.407659e+002, 2.533012e+003
3.412480e+002, 2.529263e+003
3.417301e+002, 2.529928e+003
3.422122e+002, 2.535215e+003
3.426944e+002, 2.538505e+003
3.431765e+002, 2.539228e+003
3.436586e+002, 2.537418e+003
3.441407e+002, 2.531904e+003
3.446228e+002, 2.522608e+003
3.451049e+002, 2.514404e+003
3.455871e+002, 2.511507e+003
3.460692e+002, 2.512617e+003
3.465513e+002, 2.509754e+003
3.470334e+002, 2.501937e+003
3.475155e+002, 2.493659e+003
3.479977e+002, 2.492548e+003
3.484798e+002, 2.496987e+003
3.489619e+002, 2.498348e+003
3.494440e+002, 2.489886e+003
3.499261e+002, 2.477084e+003
3.504082e+002, 2.471870e+003
3.508904e+002, 2.474205e+003
3.513725e+002, 2.477500e+003
3.518546e+002, 2.475262e+003
3.523367e+002, 2.469813e+003
3.528188e+002, 2.466311e+003
3.533009e+002, 2.467746e+003
3.537831e+002, 2.469735e+003
3.542652e+002, 2.466736e+003
3.547473e+002, 2.459674e+003
3.552294e+002, 2.452869e+003
3.557115e+002, 2.448466e+003
3.561936e+002, 2.446027e+003
3.566758e+002, 2.445605e+003
3.571579e+002, 2.448149e+003
3.576400e+002, 2.450181e+003
3.581221e+002, 2.448935e+003
3.586042e+002, 2.445521e+003
3.590863e+002, 2.442073e+003
3.595685e+002, 2.439237e+003
3.600506e+002, 2.436960e+003
3.605327e+002, 2.435130e+003
3.610148e+002, 2.433712e+003
3.614969e+002, 2.433144e+003
3.619790e+002, 2.435407e+003
3.624612e+002, 2.437899e+003
3.629433e+002, 2.437862e+003
3.634254e+002, 2.430467e+003
3.639075e+002, 2.424368e+003
3.643896e+002, 2.423139e+003
3.648717e+002, 2.426302e+003
3.653539e+002, 2.428257e+003
3.658360e+002, 2.426126e+003
3.663181e+002, 2.423460e+003
3.668002e+002, 2.422335e+003
3.672823e+002, 2.423358e+003
3.677644e+002, 2.425341e+003
3.682466e+002, 2.430160e+003
3.687287e+002, 2.436021e+003
3.692108e+002, 2.437887e+003
3.696929e+002, 2.431498e+003
3.701750e+002, 2.425613e+003
3.706571e+002, 2.423848e+003
3.711393e+002, 2.428633e+003
3.716214e+002, 2.429249e+003
3.721035e+002, 2.423221e+003
3.725856e+002, 2.414914e+003
3.730677e+002, 2.409887e+003
3.735498e+002, 2.408724e+003
3.740320e+002, 2.409780e+003
3.745141e+002, 2.413807e+003
3.749962e+002, 2.420439e+003
3.754783e+002, 2.423452e+003
3.759604e+002, 2.421841e+003
3.764425e+002, 2.418877e+003
3.769247e+002, 2.416920e+003
3.774068e+002, 2.416009e+003
3.778889e+002, 2.416102e+003
3.783710e+002, 2.417332e+003
3.788531e+002, 2.419429e+003
3.793352e+002, 2.422200e+003
3.798174e+002, 2.425732e+003
3.802995e+002, 2.428403e+003
3.807816e+002, 2.428721e+003
3.812637e+002, 2.427051e+003
3.817458e+002, 2.425681e+003
3.822279e+002, 2.424426e+003
3.827101e+002, 2.424372e+003
3.831922e+002, 2.427920e+003
3.836743e+002, 2.434244e+003
3.841564e+002, 2.439350e+003
3.846385e+002, 2.440824e+003
3.851206e+002, 2.440545e+003
3.856028e+002, 2.442213e+003
3.860849e+002, 2.445718e+003
3.865670e+002, 2.448920e+003
3.870491e+002, 2.449768e+003
3.875312e+002, 2.449333e+003
3.880133e+002, 2.449274e+003
3.884955e+002, 2.449817e+003
3.889776e+002, 2.451250e+003
3.894597e+002, 2.455229e+003
3.899418e+002, 2.460578e+003
3.904239e+002, 2.463880e+003
3.909060e+002, 2.460005e+003
3.913882e+002, 2.455543e+003
3.918703e+002, 2.456323e+003
3.923524e+002, 2.464003e+003
3.928345e+002, 2.471410e+003
3.933166e+002, 2.474664e+003
3.937987e+002, 2.475760e+003
3.942809e+002, 2.477189e+003
3.947630e+002, 2.479600e+003
3.952451e+002, 2.482517e+003
3.957272e+002, 2.486262e+003
3.962093e+002, 2.490702e+003
3.966914e+002, 2.494188e+003
3.971736e+002, 2.494805e+003
3.976557e+002, 2.495372e+003
3.981378e+002, 2.497614e+003
3.986199e+002, 2.502044e+003
3.991020e+002, 2.507696e+003
3.995841e+002, 2.516344e+003
4.000663e+002, 2.526096e+003
4.005484e+002, 2.532234e+003
4.010305e+002, 2.531313e+003
4.015126e+002, 2.531104e+003
4.019947e+002, 2.534590e+003
4.024768e+002, 2.542755e+003
4.029590e+002, 2.548985e+003
4.034411e+002, 2.552189e+003
4.039232e+002, 2.554724e+003
4.044053e+002, 2.559598e+003
4.048874e+002, 2.567901e+003
4.053695e+002, 2.574895e+003
4.058517e+002, 2.579608e+003
4.063338e+002, 2.582385e+003
4.068159e+002, 2.584360e+003
4.072980e+002, 2.585185e+003
4.077801e+002, 2.586998e+003
4.082622e+002, 2.591626e+003
4.087444e+002, 2.598897e+003
4.092265e+002, 2.606253e+003
4.097086e+002, 2.613597e+003
4.101907e+002, 2.620662e+003
4.106728e+002, 2.626889e+003
4.111549e+002, 2.632387e+003
4.116371e+002, 2.637856e+003
4.121192e+002, 2.644027e+003
4.126013e+002, 2.650180e+003
4.130834e+002, 2.654707e+003
4.135655e+002, 2.657553e+003
4.140476e+002, 2.659663e+003
4.145298e+002, 2.661755e+003
4.150119e+002, 2.663650e+003
4.154940e+002, 2.665178e+003
4.159761e+002, 2.666614e+003
4.164582e+002, 2.667178e+003
4.169403e+002, 2.665123e+003
4.174225e+002, 2.661507e+003
4.179046e+002, 2.659341e+003
4.183867e+002, 2.661847e+003
4.188688e+002, 2.665341e+003
4.193509e+002, 2.667214e+003
4.198330e+002, 2.666956e+003
4.203152e+002, 2.666500e+003
4.207973e+002, 2.666324e+003
4.212794e+002, 2.666505e+003
4.217615e+002, 2.667121e+003
4.222436e+002, 2.668000e+003
4.227257e+002, 2.669538e+003
4.232079e+002, 2.672129e+003
4.236900e+002, 2.675669e+003
4.241721e+002, 2.678962e+003
4.246542e+002, 2.683410e+003
4.251363e+002, 2.686376e+003
4.256184e+002, 2.686214e+003
4.261006e+002, 2.678756e+003
4.265827e+002, 2.675971e+003
4.270648e+002, 2.680773e+003
4.275469e+002, 2.688749e+003
4.280290e+002, 2.691483e+003
4.285111e+002, 2.686148e+003
4.289933e+002, 2.681918e+003
4.294754e+002, 2.682046e+003
4.299575e+002, 2.686372e+003
4.304396e+002, 2.688656e+003
4.309217e+002, 2.688379e+003
4.314038e+002, 2.687624e+003
4.318860e+002, 2.689624e+003
4.323681e+002, 2.694468e+003
4.328502e+002, 2.693414e+003
4.333323e+002, 2.683208e+003
4.338144e+002, 2.669515e+003
4.342965e+002, 2.664446e+003
4.347787e+002, 2.667338e+003
4.352608e+002, 2.669813e+003
4.357429e+002, 2.667220e+003
4.362250e+002, 2.660894e+003
4.367071e+002, 2.652877e+003
4.371892e+002, 2.643062e+003
4.376714e+002, 2.634386e+003
4.381535e+002, 2.631428e+003
4.386356e+002, 2.631316e+003
4.391177e+002, 2.629024e+003
4.395998e+002, 2.622129e+003
4.400819e+002, 2.613478e+003
4.405641e+002, 2.604312e+003
4.410462e+002, 2.595066e+003
4.415283e+002, 2.587235e+003
4.420104e+002, 2.584484e+003
4.424925e+002, 2.581517e+003
4.429746e+002, 2.573354e+003
4.434568e+002, 2.556800e+003
4.439389e+002, 2.544946e+003
4.444210e+002, 2.546926e+003
4.449031e+002, 2.554091e+003
4.453852e+002, 2.556101e+003
4.458673e+002, 2.543853e+003
4.463495e+002, 2.533747e+003
4.468316e+002, 2.530140e+003
4.473137e+002, 2.532543e+003
4.477958e+002, 2.533396e+003
4.482779e+002, 2.532863e+003
4.487600e+002, 2.530576e+003
4.492422e+002, 2.526079e+003
4.497243e+002, 2.517890e+003
4.502064e+002, 2.511117e+003
4.506885e+002, 2.506259e+003
4.511706e+002, 2.502332e+003
4.516527e+002, 2.497773e+003
4.521349e+002, 2.492467e+003
4.526170e+002, 2.487225e+003
4.530991e+002, 2.482254e+003
4.535812e+002, 2.477619e+003
4.540633e+002, 2.473581e+003
4.545454e+002, 2.470004e+003
4.550276e+002, 2.468013e+003
4.555097e+002, 2.469690e+003
4.559918e+002, 2.474120e+003
4.564739e+002, 2.476503e+003
4.569560e+002, 2.475729e+003
4.574381e+002, 2.473951e+003
4.579203e+002, 2.474794e+003
4.584024e+002, 2.477169e+003
4.588845e+002, 2.477697e+003
4.593666e+002, 2.472566e+003
4.598488e+002, 2.465856e+003
4.603309e+002, 2.462422e+003
4.608130e+002, 2.462139e+003
4.612951e+002, 2.462128e+003
4.617772e+002, 2.459771e+003
4.622593e+002, 2.457169e+003
4.627415e+002, 2.456560e+003
4.632236e+002, 2.459654e+003
4.637057e+002, 2.462698e+003
4.641878e+002, 2.464776e+003
4.646699e+002, 2.465756e+003
4.651520e+002, 2.465365e+003
4.656342e+002, 2.462766e+003
4.661163e+002, 2.459604e+003
4.665984e+002, 2.456093e+003
4.670805e+002, 2.452148e+003
4.675626e+002, 2.449081e+003
4.680447e+002, 2.447579e+003
4.685269e+002, 2.446401e+003
4.690090e+002, 2.444485e+003
4.694911e+002, 2.440341e+003
4.699732e+002, 2.438515e+003
4.704553e+002, 2.439577e+003
4.709374e+002, 2.442847e+003
4.714196e+002, 2.447547e+003
4.719017e+002, 2.454534e+003
4.723838e+002, 2.459645e+003
4.728659e+002, 2.460901e+003
4.733480e+002, 2.458617e+003
4.738301e+002, 2.455645e+003
4.743123e+002, 2.451744e+003
4.747944e+002, 2.448723e+003
4.752765e+002, 2.449715e+003
4.757586e+002, 2.453458e+003
4.762407e+002, 2.454082e+003
4.767228e+002, 2.449661e+003
4.772050e+002, 2.443534e+003
4.776871e+002, 2.439546e+003
4.781692e+002, 2.437499e+003
4.786513e+002, 2.436865e+003
4.791334e+002, 2.437552e+003
4.796155e+002, 2.439371e+003
4.800977e+002, 2.443257e+003
4.805798e+002, 2.449109e+003
4.810619e+002, 2.452765e+003
4.815440e+002, 2.449265e+003
4.820261e+002, 2.443733e+003
4.825082e+002, 2.440776e+003
4.829904e+002, 2.442534e+003
4.834725e+002, 2.445378e+003
4.839546e+002, 2.450063e+003
4.844367e+002, 2.455078e+003
4.849188e+002, 2.457142e+003
4.854009e+002, 2.452744e+003
4.858831e+002, 2.448475e+003
4.863652e+002, 2.445877e+003
4.868473e+002, 2.445011e+003
4.873294e+002, 2.445635e+003
4.878115e+002, 2.448593e+003
4.882936e+002, 2.452073e+003
4.887758e+002, 2.455023e+003
4.892579e+002, 2.457716e+003
4.897400e+002, 2.458576e+003
4.902221e+002, 2.456693e+003
4.907042e+002, 2.453856e+003
4.911863e+002, 2.453906e+003
4.916685e+002, 2.456998e+003
4.921506e+002, 2.460100e+003
4.926327e+002, 2.462309e+003
4.931148e+002, 2.463524e+003
4.935969e+002, 2.462463e+003
4.940790e+002, 2.459119e+003
4.945612e+002, 2.456795e+003
4.950433e+002, 2.458733e+003
4.955254e+002, 2.463450e+003
4.960075e+002, 2.468391e+003
4.964896e+002, 2.473242e+003
4.969717e+002, 2.477616e+003
4.974539e+002, 2.481906e+003
4.979360e+002, 2.485322e+003
4.984181e+002, 2.486280e+003
4.989002e+002, 2.480671e+003
4.993823e+002, 2.475432e+003
4.998644e+002, 2.475058e+003
5.003466e+002, 2.479114e+003
5.008287e+002, 2.482372e+003
5.013108e+002, 2.480557e+003
5.017929e+002, 2.479457e+003
5.022750e+002, 2.483093e+003
5.027571e+002, 2.497684e+003
5.032393e+002, 2.505509e+003
5.037214e+002, 2.501835e+003
5.042035e+002, 2.493460e+003
5.046856e+002, 2.489375e+003
5.051677e+002, 2.492173e+003
5.056498e+002, 2.494070e+003
5.061320e+002, 2.493112e+003
5.066141e+002, 2.490017e+003
5.070962e+002, 2.488813e+003
5.075783e+002, 2.489795e+003
5.080604e+002, 2.491344e+003
5.085425e+002, 2.492188e+003
5.090247e+002, 2.492494e+003
5.095068e+002, 2.494497e+003
5.099889e+002, 2.498543e+003
5.104710e+002, 2.502769e+003
5.109531e+002, 2.504777e+003
5.114352e+002, 2.505212e+003
5.119174e+002, 2.506111e+003
5.123995e+002, 2.508877e+003
5.128816e+002, 2.511357e+003
5.133637e+002, 2.510288e+003
5.138458e+002, 2.506829e+003
5.143279e+002, 2.504680e+003
5.148101e+002, 2.506420e+003
5.152922e+002, 2.509789e+003
5.157743e+002, 2.513977e+003
5.162564e+002, 2.519145e+003
5.167385e+002, 2.522416e+003
5.172206e+002, 2.520086e+003
5.177028e+002, 2.516926e+003
5.181849e+002, 2.516779e+003
5.186670e+002, 2.524086e+003
5.191491e+002, 2.529534e+003
5.196312e+002, 2.531674e+003
5.201133e+002, 2.531733e+003
5.205955e+002, 2.532396e+003
5.210776e+002, 2.533992e+003
5.215597e+002, 2.535423e+003
5.220418e+002, 2.535883e+003
5.225239e+002, 2.535483e+003
5.230060e+002, 2.537865e+003
5.234882e+002, 2.543790e+003
5.239703e+002, 2.549639e+003
5.244524e+002, 2.551977e+003
5.249345e+002, 2.551173e+003
5.254166e+002, 2.551419e+003
5.258987e+002, 2.553156e+003
5.263809e+002, 2.555952e+003
5.268630e+002, 2.560184e+003
5.273451e+002, 2.565201e+003
5.278272e+002, 2.568813e+003
5.283093e+002, 2.568752e+003
5.287914e+002, 2.568190e+003
5.292736e+002, 2.571360e+003
5.297557e+002, 2.577352e+003
5.302378e+002, 2.581820e+003
5.307199e+002, 2.580500e+003
5.312020e+002, 2.578377e+003
5.316841e+002, 2.579362e+003
5.321663e+002, 2.584819e+003
5.326484e+002, 2.589271e+003
5.331305e+002, 2.590627e+003
5.336126e+002, 2.590709e+003
5.340947e+002, 2.591235e+003
5.345768e+002, 2.591550e+003
5.350590e+002, 2.593336e+003
5.355411e+002, 2.596997e+003
5.360232e+002, 2.602103e+003
5.365053e+002, 2.607646e+003
5.369874e+002, 2.613933e+003
5.374695e+002, 2.619542e+003
5.379517e+002, 2.623843e+003
5.384338e+002, 2.626880e+003
5.389159e+002, 2.628969e+003
5.393980e+002, 2.629939e+003
5.398801e+002, 2.630808e+003
5.403622e+002, 2.632468e+003
5.408444e+002, 2.634768e+003
5.413265e+002, 2.637186e+003
5.418086e+002, 2.639741e+003
5.422907e+002, 2.642261e+003
5.427728e+002, 2.644529e+003
5.432549e+002, 2.646660e+003
5.437371e+002, 2.648823e+003
5.442192e+002, 2.651181e+003
5.447013e+002, 2.653585e+003
5.451834e+002, 2.655963e+003
5.456655e+002, 2.658370e+003
5.461476e+002, 2.660850e+003
5.466298e+002, 2.663608e+003
5.471119e+002, 2.666333e+003
5.475940e+002, 2.669293e+003
5.480761e+002, 2.673191e+003
5.485582e+002, 2.674454e+003
5.490403e+002, 2.669145e+003
5.495225e+002, 2.663612e+003
5.500046e+002, 2.662999e+003
5.504867e+002, 2.668474e+003
5.509688e+002, 2.676792e+003
5.514509e+002, 2.689908e+003
5.519330e+002, 2.704000e+003
5.524152e+002, 2.709627e+003
5.528973e+002, 2.705758e+003
5.533794e+002, 2.701547e+003
5.538615e+002, 2.700618e+003
5.543436e+002, 2.701871e+003
5.548257e+002, 2.700605e+003
5.553079e+002, 2.696938e+003
5.557900e+002, 2.695301e+003
5.562721e+002, 2.702002e+003
5.567542e+002, 2.712055e+003
5.572363e+002, 2.716356e+003
5.577184e+002, 2.712988e+003
5.582006e+002, 2.709603e+003
5.586827e+002, 2.712568e+003
5.591648e+002, 2.718699e+003
5.596469e+002, 2.724015e+003
5.601290e+002, 2.726613e+003
5.606111e+002, 2.728854e+003
5.610933e+002, 2.732170e+003
5.615754e+002, 2.735726e+003
5.620575e+002, 2.737183e+003
5.625396e+002, 2.732973e+003
5.630217e+002, 2.729988e+003
5.635038e+002, 2.730763e+003
5.639860e+002, 2.735517e+003
5.644681e+002, 2.737860e+003
5.649502e+002, 2.736936e+003
5.654323e+002, 2.735188e+003
5.659144e+002, 2.733968e+003
5.663965e+002, 2.733198e+003
5.668787e+002, 2.734546e+003
5.673608e+002, 2.738825e+003
5.678429e+002, 2.743089e+003
5.683250e+002, 2.742382e+003
5.688071e+002, 2.737815e+003
5.692892e+002, 2.734038e+003
5.697714e+002, 2.732333e+003
5.702535e+002, 2.732411e+003
5.707356e+002, 2.734695e+003
5.712177e+002, 2.738652e+003
5.716998e+002, 2.742396e+003
5.721819e+002, 2.747838e+003
5.726641e+002, 2.750549e+003
5.731462e+002, 2.745167e+003
5.736283e+002, 2.731244e+003
5.741104e+002, 2.721440e+003
5.745925e+002, 2.723081e+003
5.750746e+002, 2.727688e+003
5.755568e+002, 2.729675e+003
5.760389e+002, 2.727029e+003
5.765210e+002, 2.724575e+003
5.770031e+002, 2.722154e+003
5.774852e+002, 2.720057e+003
5.779673e+002, 2.718753e+003
5.784495e+002, 2.718485e+003
5.789316e+002, 2.718256e+003
5.794137e+002, 2.717865e+003
5.798958e+002, 2.717450e+003
5.803779e+002, 2.717895e+003
5.808600e+002, 2.719182e+003
5.813422e+002, 2.718941e+003
5.818243e+002, 2.714436e+003
5.823064e+002, 2.707822e+003
5.827885e+002, 2.703033e+003
5.832706e+002, 2.700138e+003
5.837527e+002, 2.700267e+003
5.842349e+002, 2.708582e+003
5.847170e+002, 2.718088e+003
5.851991e+002, 2.720646e+003
5.856812e+002, 2.712799e+003
5.861633e+002, 2.704436e+003
5.866454e+002, 2.698477e+003
5.871276e+002, 2.694806e+003
5.876097e+002, 2.693349e+003
5.880918e+002, 2.698904e+003
5.885739e+002, 2.700748e+003
5.890560e+002, 2.695194e+003
5.895381e+002, 2.685280e+003
5.900203e+002, 2.680178e+003
5.905024e+002, 2.681992e+003
5.909845e+002, 2.684098e+003
5.914666e+002, 2.684171e+003
5.919487e+002, 2.682472e+003
5.924308e+002, 2.681415e+003
5.929130e+002, 2.681225e+003
5.933951e+002, 2.680036e+003
5.938772e+002, 2.674987e+003
5.943593e+002, 2.667779e+003
5.948414e+002, 2.663399e+003
5.953235e+002, 2.662425e+003
5.958057e+002, 2.663638e+003
5.962878e+002, 2.668323e+003
5.967699e+002, 2.673800e+003
5.972520e+002, 2.675815e+003
5.977341e+002, 2.670789e+003
5.982162e+002, 2.665444e+003
5.986984e+002, 2.662271e+003
5.991805e+002, 2.661143e+003
5.996626e+002, 2.661624e+003
6.001447e+002, 2.667182e+003
6.006268e+002, 2.670582e+003
6.011089e+002, 2.669074e+003
6.015911e+002, 2.663220e+003
6.020732e+002, 2.658722e+003
6.025553e+002, 2.655975e+003
6.030374e+002, 2.653989e+003
6.035195e+002, 2.652303e+003
6.040016e+002, 2.650927e+003
6.044838e+002, 2.650481e+003
6.049659e+002, 2.651228e+003
6.054480e+002, 2.651730e+003
6.059301e+002, 2.649899e+003
6.064122e+002, 2.646502e+003
6.068943e+002, 2.644013e+003
6.073765e+002, 2.642686e+003
6.078586e+002, 2.642984e+003
6.083407e+002, 2.647027e+003
6.088228e+002, 2.652832e+003
6.093049e+002, 2.656698e+003
6.097870e+002, 2.656229e+003
6.102692e+002, 2.654414e+003
6.107513e+002, 2.651753e+003
6.112334e+002, 2.648697e+003
6.117155e+002, 2.646830e+003
6.121976e+002, 2.646526e+003
6.126797e+002, 2.647395e+003
6.131619e+002, 2.649883e+003
6.136440e+002, 2.654174e+003
6.141261e+002, 2.656371e+003
6.146082e+002, 2.656502e+003
6.150903e+002, 2.654464e+003
6.155724e+002, 2.648794e+003
6.160546e+002, 2.639375e+003
6.165367e+002, 2.634608e+003
6.170188e+002, 2.635520e+003
6.175009e+002, 2.638469e+003
6.179830e+002, 2.639784e+003
6.184651e+002, 2.639744e+003
6.189473e+002, 2.639063e+003
6.194294e+002, 2.637753e+003
6.199115e+002, 2.636312e+003
6.203936e+002, 2.635802e+003
6.208757e+002, 2.635477e+003
6.213578e+002, 2.633803e+003
6.218400e+002, 2.627214e+003
6.223221e+002, 2.622054e+003
6.228042e+002, 2.622668e+003
6.232863e+002, 2.627913e+003
6.237684e+002, 2.629920e+003
6.242505e+002, 2.623815e+003
6.247327e+002, 2.618911e+003
6.252148e+002, 2.619363e+003
6.256969e+002, 2.625917e+003
6.261790e+002, 2.628544e+003
6.266611e+002, 2.626578e+003
6.271432e+002, 2.622288e+003
6.276254e+002, 2.616207e+003
6.281075e+002, 2.608712e+003
6.285896e+002, 2.604778e+003
6.290717e+002, 2.605355e+003
6.295538e+002, 2.607025e+003
6.300359e+002, 2.606200e+003
6.305181e+002, 2.603627e+003
6.310002e+002, 2.600509e+003
6.314823e+002, 2.595822e+003
6.319644e+002, 2.593170e+003
6.324465e+002, 2.597257e+003
6.329286e+002, 2.605041e+003
6.334108e+002, 2.610373e+003
6.338929e+002, 2.609620e+003
6.343750e+002, 2.607958e+003
6.348571e+002, 2.606813e+003
6.353392e+002, 2.606055e+003
6.358214e+002, 2.604753e+003
6.363035e+002, 2.602152e+003
6.367856e+002, 2.599993e+003
6.372677e+002, 2.599161e+003
6.377498e+002, 2.599596e+003
6.382319e+002, 2.599119e+003
6.387141e+002, 2.597571e+003
6.391962e+002, 2.595688e+003
6.396783e+002, 2.594451e+003
6.401604e+002, 2.593424e+003
6.406425e+002, 2.590604e+003
6.411246e+002, 2.585479e+003
6.416068e+002, 2.581106e+003
6.420889e+002, 2.581135e+003
6.425710e+002, 2.583513e+003
6.430531e+002, 2.585497e+003
6.435352e+002, 2.587024e+003
6.440173e+002, 2.587064e+003
6.444995e+002, 2.582558e+003
6.449816e+002, 2.576833e+003
6.454637e+002, 2.575618e+003
6.459458e+002, 2.585212e+003
6.464279e+002, 2.592809e+003
6.469100e+002, 2.596444e+003
6.473922e+002, 2.596483e+003
6.478743e+002, 2.593558e+003
6.483564e+002, 2.586144e+003
6.488385e+002, 2.580746e+003
6.493206e+002, 2.581055e+003
6.498027e+002, 2.585711e+003
6.502849e+002, 2.588092e+003
6.507670e+002, 2.588252e+003
6.512491e+002, 2.587900e+003
6.517312e+002, 2.588854e+003
6.522133e+002, 2.589941e+003
6.526954e+002, 2.589247e+003
6.531776e+002, 2.586505e+003
6.536597e+002, 2.583510e+003
6.541418e+002, 2.579910e+003
6.546239e+002, 2.577327e+003
6.551060e+002, 2.577473e+003
6.555881e+002, 2.583115e+003
6.560703e+002, 2.586981e+003
6.565524e+002, 2.586564e+003
6.570345e+002, 2.584587e+003
6.575166e+002, 2.584347e+003
6.579987e+002, 2.586839e+003
6.584808e+002, 2.588018e+003
6.589630e+002, 2.586890e+003
6.594451e+002, 2.584456e+003
6.599272e+002, 2.583124e+003
6.604093e+002, 2.582842e+003
6.608914e+002, 2.581982e+003
6.613735e+002, 2.578837e+003
6.618557e+002, 2.575722e+003
6.623378e+002, 2.577950e+003
6.628199e+002, 2.584158e+003
6.633020e+002, 2.588169e+003
6.637841e+002, 2.584247e+003
6.642662e+002, 2.578725e+003
6.647484e+002, 2.575104e+003
6.652305e+002, 2.573731e+003
6.657126e+002, 2.575839e+003
6.661947e+002, 2.586358e+003
6.666768e+002, 2.596581e+003
6.671589e+002, 2.601617e+003
6.676411e+002, 2.599889e+003
6.681232e+002, 2.598826e+003
6.686053e+002, 2.598513e+003
6.690874e+002, 2.598375e+003
6.695695e+002, 2.597401e+003
6.700516e+002, 2.595572e+003
6.705338e+002, 2.595856e+003
6.710159e+002, 2.599026e+003
6.714980e+002, 2.602342e+003
6.719801e+002, 2.601018e+003
6.724622e+002, 2.597285e+003
6.729443e+002, 2.596714e+003
6.734265e+002, 2.603839e+003
6.739086e+002, 2.609916e+003
6.743907e+002, 2.607865e+003
6.748728e+002, 2.600968e+003
6.753549e+002, 2.595406e+003
6.758370e+002, 2.593869e+003
6.763192e+002, 2.593015e+003
6.768013e+002, 2.592173e+003
6.772834e+002, 2.591496e+003
6.777655e+002, 2.591570e+003
6.782476e+002, 2.592929e+003
6.787297e+002, 2.593829e+003
6.792119e+002, 2.592960e+003
6.796940e+002, 2.590977e+003
6.801761e+002, 2.592561e+003
6.806582e+002, 2.597772e+003
6.811403e+002, 2.602701e+003
6.816224e+002, 2.603816e+003
6.821046e+002, 2.603012e+003
6.825867e+002, 2.603815e+003
6.830688e+002, 2.606344e+003
6.835509e+002, 2.608293e+003
6.840330e+002, 2.606477e+003
6.845151e+002, 2.604452e+003
6.849973e+002, 2.605599e+003
6.854794e+002, 2.611939e+003
6.859615e+002, 2.616920e+003
6.864436e+002, 2.619920e+003
6.869257e+002, 2.620932e+003
6.874078e+002, 2.619276e+003
6.878900e+002, 2.612720e+003
6.883721e+002, 2.610813e+003
6.888542e+002, 2.616037e+003
6.893363e+002, 2.622995e+003
6.898184e+002, 2.623027e+003
6.903005e+002, 2.616872e+003
6.907827e+002, 2.610071e+003
6.912648e+002, 2.603135e+003
6.917469e+002, 2.598098e+003
6.922290e+002, 2.598996e+003
6.927111e+002, 2.603776e+003
6.931932e+002, 2.607859e+003
6.936754e+002, 2.608435e+003
6.941575e+002, 2.608561e+003
6.946396e+002, 2.609820e+003
6.951217e+002, 2.611848e+003
6.956038e+002, 2.613281e+003
6.960859e+002, 2.612543e+003
6.965681e+002, 2.612890e+003
6.970502e+002, 2.616406e+003
6.975323e+002, 2.622345e+003
6.980144e+002, 2.622396e+003
6.984965e+002, 2.615300e+003
6.989786e+002, 2.608074e+003
6.994608e+002, 2.603757e+003
6.999429e+002, 2.602597e+003
7.004250e+002, 2.607586e+003
7.009071e+002, 2.618488e+003
7.013892e+002, 2.627274e+003
7.018713e+002, 2.624591e+003
7.023535e+002, 2.618380e+003
7.028356e+002, 2.618034e+003
7.033177e+002, 2.625613e+003
7.037998e+002, 2.631860e+003
7.042819e+002, 2.632286e+003
7.047640e+002, 2.630525e+003
7.052462e+002, 2.629260e+003
7.057283e+002, 2.628564e+003
7.062104e+002, 2.628405e+003
7.066925e+002, 2.628795e+003
7.071746e+002, 2.629549e+003
7.076567e+002, 2.630113e+003
7.081389e+002, 2.630373e+003
7.086210e+002, 2.632737e+003
7.091031e+002, 2.638045e+003
7.095852e+002, 2.643911e+003
7.100673e+002, 2.647727e+003
7.105494e+002, 2.649521e+003
7.110316e+002, 2.649275e+003
7.115137e+002, 2.645749e+003
7.119958e+002, 2.642185e+003
7.124779e+002, 2.640552e+003
7.129600e+002, 2.640447e+003
7.134421e+002, 2.641090e+003
7.139243e+002, 2.643886e+003
7.144064e+002, 2.645608e+003
7.148885e+002, 2.644159e+003
7.153706e+002, 2.641346e+003
7.158527e+002, 2.643740e+003
7.163348e+002, 2.653678e+003
7.168170e+002, 2.660553e+003
7.172991e+002, 2.659530e+003
7.177812e+002, 2.653287e+003
7.182633e+002, 2.650412e+003
7.187454e+002, 2.650593e+003
7.192275e+002, 2.651180e+003
7.197097e+002, 2.649405e+003
7.201918e+002, 2.647922e+003
7.206739e+002, 2.650230e+003
7.211560e+002, 2.655966e+003
7.216381e+002, 2.661720e+003
7.221202e+002, 2.667940e+003
7.226024e+002, 2.672035e+003
7.230845e+002, 2.671997e+003
7.235666e+002, 2.667211e+003
7.240487e+002, 2.662639e+003
7.245308e+002, 2.657104e+003
7.250129e+002, 2.653647e+003
7.254951e+002, 2.655087e+003
7.259772e+002, 2.661716e+003
7.264593e+002, 2.665885e+003
7.269414e+002, 2.667451e+003
7.274235e+002, 2.667464e+003
7.279056e+002, 2.665744e+003
7.283878e+002, 2.663446e+003
7.288699e+002, 2.662681e+003
7.293520e+002, 2.663754e+003
7.298341e+002, 2.666271e+003
7.303162e+002, 2.671691e+003
7.307983e+002, 2.677485e+003
7.312805e+002, 2.681248e+003
7.317626e+002, 2.681546e+003
7.322447e+002, 2.681468e+003
7.327268e+002, 2.680848e+003
7.332089e+002, 2.680232e+003
7.336910e+002, 2.679767e+003
7.341732e+002, 2.678860e+003
7.346553e+002, 2.681784e+003
7.351374e+002, 2.690375e+003
7.356195e+002, 2.699634e+003
7.361016e+002, 2.700771e+003
7.365837e+002, 2.695945e+003
7.370659e+002, 2.692866e+003
7.375480e+002, 2.694672e+003
7.380301e+002, 2.697309e+003
7.385122e+002, 2.695873e+003
7.389943e+002, 2.693084e+003
7.394764e+002, 2.693643e+003
7.399586e+002, 2.705246e+003
7.404407e+002, 2.713238e+003
7.409228e+002, 2.711511e+003
7.414049e+002, 2.704234e+003
7.418870e+002, 2.700273e+003
7.423691e+002, 2.700520e+003
7.428513e+002, 2.702000e+003
7.433334e+002, 2.704680e+003
7.438155e+002, 2.707574e+003
7.442976e+002, 2.707098e+003
7.447797e+002, 2.703763e+003
7.452618e+002, 2.701799e+003
7.457440e+002, 2.705281e+003
7.462261e+002, 2.709753e+003
7.467082e+002, 2.709786e+003
7.471903e+002, 2.706455e+003
7.476724e+002, 2.703781e+003
7.481545e+002, 2.702607e+003
7.486367e+002, 2.703163e+003
7.491188e+002, 2.707117e+003
7.496009e+002, 2.713894e+003
7.500830e+002, 2.715819e+003
7.505651e+002, 2.709784e+003
7.510472e+002, 2.705496e+003
7.515294e+002, 2.708544e+003
7.520115e+002, 2.717331e+003
7.524936e+002, 2.719950e+003
7.529757e+002, 2.716471e+003
7.534578e+002, 2.712576e+003
7.539399e+002, 2.712710e+003
7.544221e+002, 2.714618e+003
7.549042e+002, 2.714886e+003
7.553863e+002, 2.713527e+003
7.558684e+002, 2.713395e+003
7.563505e+002, 2.715823e+003
7.568326e+002, 2.719958e+003
7.573148e+002, 2.725693e+003
7.577969e+002, 2.733386e+003
7.582790e+002, 2.740310e+003
7.587611e+002, 2.747105e+003
7.592432e+002, 2.752115e+003
7.597253e+002, 2.753499e+003
7.602075e+002, 2.751240e+003
7.606896e+002, 2.751180e+003
7.611717e+002, 2.753601e+003
7.616538e+002, 2.755849e+003
7.621359e+002, 2.755137e+003
7.626180e+002, 2.752943e+003
7.631002e+002, 2.752001e+003
7.635823e+002, 2.752916e+003
7.640644e+002, 2.752620e+003
7.645465e+002, 2.746873e+003
7.650286e+002, 2.740967e+003
7.655107e+002, 2.739728e+003
7.659929e+002, 2.746785e+003
7.664750e+002, 2.750656e+003
7.669571e+002, 2.750230e+003
7.674392e+002, 2.748144e+003
7.679213e+002, 2.745807e+003
7.684034e+002, 2.743144e+003
7.688856e+002, 2.745234e+003
7.693677e+002, 2.753181e+003
7.698498e+002, 2.761477e+003
7.703319e+002, 2.763966e+003
7.708140e+002, 2.762802e+003
7.712961e+002, 2.762072e+003
7.717783e+002, 2.763181e+003
7.722604e+002, 2.762786e+003
7.727425e+002, 2.756207e+003
7.732246e+002, 2.748711e+003
7.737067e+002, 2.745769e+003
7.741888e+002, 2.750833e+003
7.746710e+002, 2.756044e+003
7.751531e+002, 2.761783e+003
7.756352e+002, 2.767239e+003
7.761173e+002, 2.771678e+003
7.765994e+002, 2.775100e+003
7.770815e+002, 2.776578e+003
7.775637e+002, 2.775761e+003
7.780458e+002, 2.773980e+003
7.785279e+002, 2.771808e+003
7.790100e+002, 2.770034e+003
7.794921e+002, 2.770255e+003
7.799742e+002, 2.773898e+003
7.804564e+002, 2.777596e+003
7.809385e+002, 2.779351e+003
7.814206e+002, 2.780443e+003
7.819027e+002, 2.782604e+003
7.823848e+002, 2.785622e+003
7.828669e+002, 2.790573e+003
7.833491e+002, 2.799653e+003
7.838312e+002, 2.808157e+003
7.843133e+002, 2.806833e+003
7.847954e+002, 2.796271e+003
7.852775e+002, 2.787695e+003
7.857596e+002, 2.783761e+003
7.862418e+002, 2.782581e+003
7.867239e+002, 2.782085e+003
7.872060e+002, 2.782698e+003
7.876881e+002, 2.785364e+003
7.881702e+002, 2.793724e+003
7.886523e+002, 2.799642e+003
7.891345e+002, 2.797829e+003
7.896166e+002, 2.792522e+003
7.900987e+002, 2.791069e+003
7.905808e+002, 2.795605e+003
7.910629e+002, 2.799918e+003
7.915450e+002, 2.803744e+003
7.920272e+002, 2.806309e+003
7.925093e+002, 2.804198e+003
7.929914e+002, 2.798397e+003
7.934735e+002, 2.797489e+003
7.939556e+002, 2.806261e+003
7.944377e+002, 2.816119e+003
7.949199e+002, 2.816124e+003
7.954020e+002, 2.810660e+003
7.958841e+002, 2.807685e+003
7.963662e+002, 2.808591e+003
7.968483e+002, 2.813683e+003
7.973304e+002, 2.828348e+003
7.978126e+002, 2.845569e+003
7.982947e+002, 2.852597e+003
7.987768e+002, 2.846149e+003
7.992589e+002, 2.839237e+003
7.997410e+002, 2.833711e+003
8.002231e+002, 2.829656e+003
8.007053e+002, 2.827213e+003
8.011874e+002, 2.826431e+003
8.016695e+002, 2.827785e+003
8.021516e+002, 2.833698e+003
8.026337e+002, 2.838314e+003
8.031158e+002, 2.834238e+003
8.035980e+002, 2.826012e+003
8.040801e+002, 2.821349e+003
8.045622e+002, 2.826592e+003
8.050443e+002, 2.830539e+003
8.055264e+002, 2.830835e+003
8.060085e+002, 2.829175e+003
8.064907e+002, 2.828552e+003
8.069728e+002, 2.829059e+003
8.074549e+002, 2.829699e+003
8.079370e+002, 2.830004e+003
8.084191e+002, 2.830639e+003
8.089012e+002, 2.834040e+003
8.093834e+002, 2.838658e+003
8.098655e+002, 2.840013e+003
8.103476e+002, 2.832120e+003
8.108297e+002, 2.826749e+003
8.113118e+002, 2.835587e+003
8.117939e+002, 2.850420e+003
8.122761e+002, 2.857070e+003
8.127582e+002, 2.844737e+003
8.132403e+002, 2.837893e+003
8.137224e+002, 2.841017e+003
8.142045e+002, 2.849006e+003
8.146866e+002, 2.852380e+003
8.151688e+002, 2.851223e+003
8.156509e+002, 2.850687e+003
8.161330e+002, 2.852191e+003
8.166151e+002, 2.854481e+003
8.170972e+002, 2.856192e+003
8.175793e+002, 2.857486e+003
8.180615e+002, 2.858731e+003
8.185436e+002, 2.860931e+003
8.190257e+002, 2.861849e+003
8.195078e+002, 2.858636e+003
8.199899e+002, 2.854419e+003
8.204720e+002, 2.854294e+003
8.209542e+002, 2.860682e+003
8.214363e+002, 2.864646e+003
8.219184e+002, 2.864904e+003
8.224005e+002, 2.862589e+003
8.228826e+002, 2.858246e+003
8.233647e+002, 2.852621e+003
8.238469e+002, 2.849349e+003
8.243290e+002, 2.849742e+003
8.248111e+002, 2.851571e+003
8.252932e+002, 2.853103e+003
8.257753e+002, 2.854894e+003
8.262574e+002, 2.857672e+003
8.267396e+002, 2.863612e+003
8.272217e+002, 2.867792e+003
8.277038e+002, 2.868801e+003
8.281859e+002, 2.868854e+003
8.286681e+002, 2.870918e+003
8.291502e+002, 2.875369e+003
8.296323e+002, 2.877980e+003
8.301144e+002, 2.877624e+003
8.305966e+002, 2.877188e+003
8.310787e+002, 2.880486e+003
8.315608e+002, 2.886155e+003
8.320429e+002, 2.892000e+003
8.325250e+002, 2.897947e+003
8.330071e+002, 2.902099e+003
8.334893e+002, 2.903008e+003
8.339714e+002, 2.901832e+003
8.344535e+002, 2.899561e+003
8.349356e+002, 2.894437e+003
8.354177e+002, 2.892428e+003
8.358998e+002, 2.894362e+003
8.363820e+002, 2.898144e+003
8.368641e+002, 2.902339e+003
8.373462e+002, 2.906766e+003
8.378283e+002, 2.910254e+003
8.383104e+002, 2.912853e+003
8.387925e+002, 2.913250e+003
8.392747e+002, 2.908037e+003
8.397568e+002, 2.901194e+003
8.402389e+002, 2.896601e+003
8.407210e+002, 2.894412e+003
8.412031e+002, 2.896377e+003
8.416852e+002, 2.906844e+003
8.421674e+002, 2.917725e+003
8.426495e+002, 2.923801e+003
8.431316e+002, 2.924314e+003
8.436137e+002, 2.924483e+003
8.440958e+002, 2.924350e+003
8.445779e+002, 2.923297e+003
8.450601e+002, 2.919705e+003
8.455422e+002, 2.915217e+003
8.460243e+002, 2.912860e+003
8.465064e+002, 2.912956e+003
8.469885e+002, 2.914034e+003
8.474706e+002, 2.916528e+003
8.479528e+002, 2.918940e+003
8.484349e+002, 2.920062e+003
8.489170e+002, 2.919677e+003
8.493991e+002, 2.920584e+003
8.498812e+002, 2.923342e+003
8.503633e+002, 2.926232e+003
8.508455e+002, 2.928241e+003
8.513276e+002, 2.929484e+003
8.518097e+002, 2.930769e+003
8.522918e+002, 2.931995e+003
8.527739e+002, 2.932371e+003
8.532560e+002, 2.929499e+003
8.537382e+002, 2.926863e+003
8.542203e+002, 2.928318e+003
8.547024e+002, 2.933476e+003
8.551845e+002, 2.936301e+003
8.556666e+002, 2.932514e+003
8.561487e+002, 2.929944e+003
8.566309e+002, 2.931653e+003
8.571130e+002, 2.936656e+003
8.575951e+002, 2.939451e+003
8.580772e+002, 2.940029e+003
8.585593e+002, 2.940568e+003
8.590414e+002, 2.943063e+003
8.595236e+002, 2.945599e+003
8.600057e+002, 2.944881e+003
8.604878e+002, 2.941808e+003
8.609699e+002, 2.939119e+003
8.614520e+002, 2.936873e+003
8.619341e+002, 2.936354e+003
8.624163e+002, 2.939307e+003
8.628984e+002, 2.944185e+003
8.633805e+002, 2.947025e+003
8.638626e+002, 2.947382e+003
8.643447e+002, 2.947387e+003
8.648268e+002, 2.947692e+003
8.653090e+002, 2.947684e+003
8.657911e+002, 2.944421e+003
8.662732e+002, 2.939741e+003
8.667553e+002, 2.939482e+003
8.672374e+002, 2.949135e+003
8.677195e+002, 2.958687e+003
8.682017e+002, 2.963083e+003
8.686838e+002, 2.963522e+003
8.691659e+002, 2.961302e+003
8.696480e+002, 2.953468e+003
8.701301e+002, 2.949905e+003
8.706122e+002, 2.953292e+003
8.710944e+002, 2.958400e+003
8.715765e+002, 2.956713e+003
8.720586e+002, 2.949706e+003
8.725407e+002, 2.946130e+003
8.730228e+002, 2.948181e+003
8.735049e+002, 2.951111e+003
8.739871e+002, 2.950402e+003
8.744692e+002, 2.948518e+003
8.749513e+002, 2.948171e+003
8.754334e+002, 2.950075e+003
8.759155e+002, 2.953247e+003
8.763976e+002, 2.958359e+003
8.768798e+002, 2.963641e+003
8.773619e+002, 2.968074e+003
8.778440e+002, 2.971654e+003
8.783261e+002, 2.973333e+003
8.788082e+002, 2.973008e+003
8.792903e+002, 2.971459e+003
8.797725e+002, 2.968112e+003
8.802546e+002, 2.964593e+003
8.807367e+002, 2.962203e+003
8.812188e+002, 2.961066e+003
8.817009e+002, 2.963630e+003
8.821830e+002, 2.975619e+003
8.826652e+002, 2.986823e+003
8.831473e+002, 2.992000e+003
8.836294e+002, 2.991400e+003
8.841115e+002, 2.991678e+003
8.845936e+002, 2.992924e+003
8.850757e+002, 2.994329e+003
8.855579e+002, 2.995095e+003
8.860400e+002, 2.995834e+003
8.865221e+002, 2.998158e+003
8.870042e+002, 3.001586e+003
8.874863e+002, 3.004263e+003
8.879684e+002, 3.004621e+003
8.884506e+002, 3.004688e+003
8.889327e+002, 3.004706e+003
8.894148e+002, 3.005108e+003
8.898969e+002, 3.007820e+003
8.903790e+002, 3.014126e+003
8.908611e+002, 3.018004e+003
8.913433e+002, 3.017335e+003
8.918254e+002, 3.014291e+003
8.923075e+002, 3.012182e+003
8.927896e+002, 3.011116e+003
8.932717e+002, 3.011464e+003
8.937538e+002, 3.014134e+003
8.942360e+002, 3.017115e+003
8.947181e+002, 3.020061e+003
8.952002e+002, 3.022366e+003
8.956823e+002, 3.022859e+003
8.961644e+002, 3.020007e+003
8.966465e+002, 3.019041e+003
8.971287e+002, 3.020766e+003
8.976108e+002, 3.023515e+003
8.980929e+002, 3.024973e+003
8.985750e+002, 3.025625e+003
8.990571e+002, 3.027483e+003
8.995392e+002, 3.030987e+003
9.000214e+002, 3.034476e+003
9.005035e+002, 3.035681e+003
9.009856e+002, 3.036964e+003
9.014677e+002, 3.041123e+003
9.019498e+002, 3.050279e+003
9.024319e+002, 3.054742e+003
9.029141e+002, 3.052526e+003
9.033962e+002, 3.048987e+003
9.038783e+002, 3.046919e+003
9.043604e+002, 3.046348e+003
9.048425e+002, 3.047542e+003
9.053246e+002, 3.050493e+003
9.058068e+002, 3.054809e+003
9.062889e+002, 3.062167e+003
9.067710e+002, 3.069239e+003
9.072531e+002, 3.073203e+003
9.077352e+002, 3.074280e+003
9.082173e+002, 3.075171e+003
9.086995e+002, 3.076045e+003
9.091816e+002, 3.077266e+003
9.096637e+002, 3.079144e+003
9.101458e+002, 3.081358e+003
9.106279e+002, 3.083102e+003
9.111100e+002, 3.084325e+003
9.115922e+002, 3.084291e+003
9.120743e+002, 3.081521e+003
9.125564e+002, 3.079185e+003
9.130385e+002, 3.080992e+003
9.135206e+002, 3.085167e+003
9.140027e+002, 3.088683e+003
9.144849e+002, 3.086889e+003
9.149670e+002, 3.090573e+003
9.154491e+002, 3.104846e+003
9.159312e+002, 3.119909e+003
9.164133e+002, 3.120701e+003
9.168954e+002, 3.108237e+003
9.173776e+002, 3.102558e+003
9.178597e+002, 3.106703e+003
9.183418e+002, 3.113435e+003
9.188239e+002, 3.116506e+003
9.193060e+002, 3.118132e+003
9.197881e+002, 3.121329e+003
9.202703e+002, 3.127529e+003
9.207524e+002, 3.129991e+003
9.212345e+002, 3.124479e+003
9.217166e+002, 3.119423e+003
9.221987e+002, 3.120409e+003
9.226808e+002, 3.126930e+003
9.231630e+002, 3.127443e+003
9.236451e+002, 3.122052e+003
9.241272e+002, 3.119324e+003
9.246093e+002, 3.128816e+003
9.250914e+002, 3.140921e+003
9.255735e+002, 3.145183e+003
9.260557e+002, 3.143062e+003
9.265378e+002, 3.142596e+003
9.270199e+002, 3.147265e+003
9.275020e+002, 3.152173e+003
9.279841e+002, 3.156230e+003
9.284662e+002, 3.159873e+003
9.289484e+002, 3.165174e+003
9.294305e+002, 3.171859e+003
9.299126e+002, 3.174565e+003
9.303947e+002, 3.169293e+003
9.308768e+002, 3.164584e+003
9.313589e+002, 3.171864e+003
9.318411e+002, 3.184809e+003
9.323232e+002, 3.194166e+003
9.328053e+002, 3.195517e+003
9.332874e+002, 3.196354e+003
9.337695e+002, 3.195973e+003
9.342516e+002, 3.196964e+003
9.347338e+002, 3.203807e+003
9.352159e+002, 3.216170e+003
9.356980e+002, 3.219429e+003
9.361801e+002, 3.212251e+003
9.366622e+002, 3.206155e+003
9.371443e+002, 3.211869e+003
9.376265e+002, 3.222786e+003
9.381086e+002, 3.233783e+003
9.385907e+002, 3.244437e+003
9.390728e+002, 3.250878e+003
9.395549e+002, 3.249589e+003
9.400370e+002, 3.248083e+003
9.405192e+002, 3.248516e+003
9.410013e+002, 3.250971e+003
9.414834e+002, 3.256959e+003
9.419655e+002, 3.266122e+003
9.424476e+002, 3.274312e+003
9.429297e+002, 3.279357e+003
9.434119e+002, 3.282821e+003
9.438940e+002, 3.286187e+003
9.443761e+002, 3.289023e+003
9.448582e+002, 3.290325e+003
9.453403e+002, 3.285585e+003
9.458224e+002, 3.286378e+003
9.463046e+002, 3.295837e+003
9.467867e+002, 3.308487e+003
9.472688e+002, 3.315997e+003
9.477509e+002, 3.319352e+003
9.482330e+002, 3.324413e+003
9.487151e+002, 3.332273e+003
9.491973e+002, 3.340221e+003
9.496794e+002, 3.345616e+003
9.501615e+002, 3.350285e+003
9.506436e+002, 3.355826e+003
9.511257e+002, 3.362473e+003
9.516078e+002, 3.369592e+003
9.520900e+002, 3.377339e+003
9.525721e+002, 3.385164e+003
9.530542e+002, 3.393251e+003
9.535363e+002, 3.401162e+003
9.540184e+002, 3.406339e+003
9.545005e+002, 3.409246e+003
9.549827e+002, 3.412781e+003
9.554648e+002, 3.419124e+003
9.559469e+002, 3.426148e+003
9.564290e+002, 3.432285e+003
9.569111e+002, 3.438160e+003
9.573932e+002, 3.445330e+003
9.578754e+002, 3.453224e+003
9.583575e+002, 3.464516e+003
9.588396e+002, 3.480857e+003
9.593217e+002, 3.498048e+003
9.598038e+002, 3.507461e+003
9.602859e+002, 3.512213e+003
9.607681e+002, 3.521251e+003
9.612502e+002, 3.538001e+003
9.617323e+002, 3.553462e+003
9.622144e+002, 3.559971e+003
9.626965e+002, 3.564973e+003
9.631786e+002, 3.575707e+003
9.636608e+002, 3.594137e+003
9.641429e+002, 3.606262e+003
9.646250e+002, 3.611064e+003
9.651071e+002, 3.613985e+003
9.655892e+002, 3.616198e+003
9.660714e+002, 3.620241e+003
9.665535e+002, 3.632667e+003
9.670356e+002, 3.652095e+003
9.675177e+002, 3.671615e+003
9.679998e+002, 3.689568e+003
9.684819e+002, 3.705298e+003
9.689641e+002, 3.717196e+003
9.694462e+002, 3.727279e+003
9.699283e+002, 3.740507e+003
9.704104e+002, 3.757067e+003
9.708925e+002, 3.774439e+003
9.713746e+002, 3.791851e+003
9.718568e+002, 3.810919e+003
9.723389e+002, 3.836947e+003
9.728210e+002, 3.865084e+003
9.733031e+002, 3.887249e+003
9.737852e+002, 3.897956e+003
9.742673e+002, 3.912967e+003
9.747495e+002, 3.936134e+003
9.752316e+002, 3.963680e+003
9.757137e+002, 3.994586e+003
9.761958e+002, 4.029057e+003
9.766779e+002, 4.058238e+003
9.771600e+002, 4.082245e+003
9.776422e+002, 4.106801e+003
9.781243e+002, 4.136837e+003
9.786064e+002, 4.169036e+003
9.790885e+002, 4.200721e+003
9.795706e+002, 4.231882e+003
9.800527e+002, 4.263840e+003
9.805349e+002, 4.297024e+003
9.810170e+002, 4.330367e+003
9.814991e+002, 4.363659e+003
9.819812e+002, 4.397479e+003
9.824633e+002, 4.433041e+003
9.829454e+002, 4.470175e+003
9.834276e+002, 4.508084e+003
9.839097e+002, 4.547342e+003
9.843918e+002, 4.586464e+003
9.848739e+002, 4.621968e+003
9.853560e+002, 4.658956e+003
9.858381e+002, 4.704117e+003
9.863203e+002, 4.761432e+003
9.868024e+002, 4.809513e+003
9.872845e+002, 4.846279e+003
9.877666e+002, 4.880919e+003
9.882487e+002, 4.920751e+003
9.887308e+002, 4.962759e+003
9.892130e+002, 5.000612e+003
9.896951e+002, 5.034704e+003
9.901772e+002, 5.069021e+003
9.906593e+002, 5.110399e+003
9.911414e+002, 5.146640e+003
9.916235e+002, 5.171067e+003
9.921057e+002, 5.187834e+003
9.925878e+002, 5.204631e+003
9.930699e+002, 5.221229e+003
9.935520e+002, 5.241775e+003
9.940341e+002, 5.268504e+003
9.945162e+002, 5.294399e+003
9.949984e+002, 5.309331e+003
9.954805e+002, 5.319159e+003
9.959626e+002, 5.331833e+003
9.964447e+002, 5.349366e+003
9.969268e+002, 5.367771e+003
9.974089e+002, 5.386994e+003
9.978911e+002, 5.405870e+003
9.983732e+002, 5.423186e+003
9.988553e+002, 5.439358e+003
9.993374e+002, 5.459311e+003
9.998195e+002, 5.482604e+003
1.000302e+003, 5.505188e+003
1.000784e+003, 5.522149e+003
1.001266e+003, 5.540356e+003
1.001748e+003, 5.564905e+003
1.002230e+003, 5.594687e+003
1.002712e+003, 5.626648e+003
1.003194e+003, 5.662387e+003
1.003676e+003, 5.695144e+003
1.004159e+003, 5.723834e+003
1.004641e+003, 5.750478e+003
1.005123e+003, 5.779353e+003
1.005605e+003, 5.808355e+003
1.006087e+003, 5.832492e+003
1.006569e+003, 5.850963e+003
1.007051e+003, 5.867080e+003
1.007533e+003, 5.888126e+003
1.008016e+003, 5.901934e+003
1.008498e+003, 5.900886e+003
1.008980e+003, 5.885811e+003
1.009462e+003, 5.872304e+003
1.009944e+003, 5.860799e+003
1.010426e+003, 5.841451e+003
1.010908e+003, 5.805566e+003
1.011390e+003, 5.764496e+003
1.011872e+003, 5.733377e+003
1.012355e+003, 5.706818e+003
1.012837e+003, 5.673781e+003
1.013319e+003, 5.627992e+003
1.013801e+003, 5.578890e+003
1.014283e+003, 5.524986e+003
1.014765e+003, 5.471458e+003
1.015247e+003, 5.424511e+003
1.015729e+003, 5.382513e+003
1.016211e+003, 5.337289e+003
1.016694e+003, 5.288231e+003
1.017176e+003, 5.242657e+003
1.017658e+003, 5.209898e+003
1.018140e+003, 5.178708e+003
1.018622e+003, 5.140222e+003
1.019104e+003, 5.095111e+003
1.019586e+003, 5.052985e+003
1.020068e+003, 5.014486e+003
1.020551e+003, 4.975928e+003
1.021033e+003, 4.935502e+003
1.021515e+003, 4.895396e+003
1.021997e+003, 4.859010e+003
1.022479e+003, 4.826060e+003
1.022961e+003, 4.796627e+003
1.023443e+003, 4.772407e+003
1.023925e+003, 4.748009e+003
1.024407e+003, 4.722562e+003
1.024890e+003, 4.695996e+003
1.025372e+003, 4.666701e+003
1.025854e+003, 4.634917e+003
1.026336e+003, 4.610805e+003
1.026818e+003, 4.594138e+003
1.027300e+003, 4.578087e+003
1.027782e+003, 4.557190e+003
1.028264e+003, 4.535536e+003
1.028746e+003, 4.516167e+003
1.029229e+003, 4.498873e+003
1.029711e+003, 4.481870e+003
1.030193e+003, 4.463940e+003
1.030675e+003, 4.448791e+003
1.031157e+003, 4.437235e+003
1.031639e+003, 4.428241e+003
1.032121e+003, 4.421775e+003
1.032603e+003, 4.416188e+003
1.033086e+003, 4.407331e+003
1.033568e+003, 4.393843e+003
1.034050e+003, 4.381428e+003
1.034532e+003, 4.371655e+003
1.035014e+003, 4.364902e+003
1.035496e+003, 4.362239e+003
1.035978e+003, 4.363082e+003
1.036460e+003, 4.360500e+003
1.036943e+003, 4.354587e+003
1.037425e+003, 4.348569e+003
1.037907e+003, 4.342911e+003
1.038389e+003, 4.339327e+003
1.038871e+003, 4.342356e+003
1.039353e+003, 4.347940e+003
1.039835e+003, 4.348642e+003
1.040317e+003, 4.336998e+003
1.040799e+003, 4.332732e+003
1.041281e+003, 4.338361e+003
1.041764e+003, 4.346673e+003
1.042246e+003, 4.351831e+003
1.042728e+003, 4.353870e+003
1.043210e+003, 4.352115e+003
1.043692e+003, 4.346718e+003
1.044174e+003, 4.340346e+003
1.044656e+003, 4.330680e+003
1.045138e+003, 4.324438e+003
1.045621e+003, 4.326959e+003
1.046103e+003, 4.334101e+003
1.046585e+003, 4.334069e+003
1.047067e+003, 4.326757e+003
1.047549e+003, 4.319512e+003
1.048031e+003, 4.314226e+003
1.048513e+003, 4.309866e+003
1.048995e+003, 4.308142e+003
1.049478e+003, 4.305410e+003
1.049960e+003, 4.296902e+003
1.050442e+003, 4.279797e+003
1.050924e+003, 4.265163e+003
1.051406e+003, 4.254213e+003
1.051888e+003, 4.242727e+003
1.052370e+003, 4.227321e+003
1.052852e+003, 4.209935e+003
1.053334e+003, 4.196905e+003
1.053817e+003, 4.186495e+003
1.054299e+003, 4.173063e+003
1.054781e+003, 4.151696e+003
1.055263e+003, 4.129644e+003
1.055745e+003, 4.108219e+003
1.056227e+003, 4.087435e+003
1.056709e+003, 4.067560e+003
1.057191e+003, 4.048596e+003
1.057673e+003, 4.028846e+003
1.058156e+003, 4.008031e+003
1.058638e+003, 3.988551e+003
1.059120e+003, 3.973021e+003
1.059602e+003, 3.958906e+003
1.060084e+003, 3.944291e+003
1.060566e+003, 3.929116e+003
1.061048e+003, 3.914208e+003
1.061530e+003, 3.899539e+003
1.062013e+003, 3.885644e+003
1.062495e+003, 3.873363e+003
1.062977e+003, 3.860590e+003
1.063459e+003, 3.841839e+003
1.063941e+003, 3.820391e+003
1.064423e+003, 3.802094e+003
1.064905e+003, 3.788361e+003
1.065387e+003, 3.777505e+003
1.065870e+003, 3.771486e+003
1.066352e+003, 3.765710e+003
1.066834e+003, 3.757429e+003
1.067316e+003, 3.747167e+003
1.067798e+003, 3.739089e+003
1.068280e+003, 3.732845e+003
1.068762e+003, 3.726006e+003
1.069244e+003, 3.716056e+003
1.069726e+003, 3.706213e+003
1.070208e+003, 3.700005e+003
1.070691e+003, 3.694800e+003
1.071173e+003, 3.686337e+003
1.071655e+003, 3.673168e+003
1.072137e+003, 3.661124e+003
1.072619e+003, 3.649960e+003
1.073101e+003, 3.642421e+003
1.073583e+003, 3.645488e+003
1.074065e+003, 3.650947e+003
1.074548e+003, 3.646062e+003
1.075030e+003, 3.631925e+003
1.075512e+003, 3.621788e+003
1.075994e+003, 3.623837e+003
1.076476e+003, 3.622583e+003
1.076958e+003, 3.613976e+003
1.077440e+003, 3.601663e+003
1.077922e+003, 3.591798e+003
1.078405e+003, 3.583943e+003
1.078887e+003, 3.576073e+003
1.079369e+003, 3.567105e+003
1.079851e+003, 3.562059e+003
1.080333e+003, 3.568310e+003
1.080815e+003, 3.575060e+003
1.081297e+003, 3.575644e+003
1.081779e+003, 3.570504e+003
1.082261e+003, 3.563115e+003
1.082744e+003, 3.553448e+003
1.083226e+003, 3.546052e+003
1.083708e+003, 3.544115e+003
1.084190e+003, 3.543341e+003
1.084672e+003, 3.538959e+003
1.085154e+003, 3.533420e+003
1.085636e+003, 3.530749e+003
1.086118e+003, 3.534425e+003
1.086601e+003, 3.532786e+003
1.087083e+003, 3.524490e+003
1.087565e+003, 3.515738e+003
1.088047e+003, 3.512673e+003
1.088529e+003, 3.511906e+003
1.089011e+003, 3.506132e+003
1.089493e+003, 3.496878e+003
1.089975e+003, 3.490690e+003
1.090458e+003, 3.493387e+003
1.090940e+003, 3.495118e+003
1.091422e+003, 3.494325e+003
1.091904e+003, 3.491563e+003
1.092386e+003, 3.485989e+003
1.092868e+003, 3.478927e+003
1.093350e+003, 3.477259e+003
1.093832e+003, 3.481978e+003
1.094314e+003, 3.486240e+003
1.094797e+003, 3.484026e+003
1.095279e+003, 3.481786e+003
1.095761e+003, 3.484055e+003
1.096243e+003, 3.489424e+003
1.096725e+003, 3.492746e+003
1.097207e+003, 3.494022e+003
1.097689e+003, 3.491285e+003
1.098171e+003, 3.482283e+003
1.098653e+003, 3.473708e+003
1.099136e+003, 3.473076e+003
1.099618e+003, 3.476014e+003
1.100100e+003, 3.477753e+003
1.100582e+003, 3.477560e+003
1.101064e+003, 3.476233e+003
1.101546e+003, 3.473275e+003
1.102028e+003, 3.470865e+003
1.102510e+003, 3.470836e+003
1.102993e+003, 3.471459e+003
1.103475e+003, 3.470223e+003
1.103957e+003, 3.467156e+003
1.104439e+003, 3.462296e+003
1.104921e+003, 3.452156e+003
1.105403e+003, 3.445833e+003
1.105885e+003, 3.446012e+003
1.106367e+003, 3.447102e+003
1.106849e+003, 3.442268e+003
1.107332e+003, 3.433905e+003
1.107814e+003, 3.433066e+003
1.108296e+003, 3.439059e+003
1.108778e+003, 3.443267e+003
1.109260e+003, 3.440273e+003
1.109742e+003, 3.435620e+003
1.110224e+003, 3.431375e+003
1.110706e+003, 3.427105e+003
1.111188e+003, 3.420552e+003
1.111671e+003, 3.411945e+003
1.112153e+003, 3.410449e+003
1.112635e+003, 3.417952e+003
1.113117e+003, 3.425066e+003
1.113599e+003, 3.424011e+003
1.114081e+003, 3.419591e+003
1.114563e+003, 3.413719e+003
1.115045e+003, 3.407387e+003
1.115528e+003, 3.406849e+003
1.116010e+003, 3.412741e+003
1.116492e+003, 3.420663e+003
1.116974e+003, 3.430072e+003
1.117456e+003, 3.438712e+003
1.117938e+003, 3.443496e+003
1.118420e+003, 3.445780e+003
1.118902e+003, 3.447266e+003
1.119385e+003, 3.448095e+003
1.119867e+003, 3.447846e+003
1.120349e+003, 3.446078e+003
1.120831e+003, 3.444111e+003
1.121313e+003, 3.442826e+003
1.121795e+003, 3.441563e+003
1.122277e+003, 3.438435e+003
1.122759e+003, 3.434279e+003
1.123241e+003, 3.431045e+003
1.123724e+003, 3.429241e+003
1.124206e+003, 3.429225e+003
1.124688e+003, 3.432595e+003
1.125170e+003, 3.435768e+003
1.125652e+003, 3.435828e+003
1.126134e+003, 3.433291e+003
1.126616e+003, 3.429531e+003
1.127098e+003, 3.424985e+003
1.127580e+003, 3.421749e+003
1.128063e+003, 3.420335e+003
1.128545e+003, 3.421292e+003
1.129027e+003, 3.426885e+003
1.129509e+003, 3.433565e+003
1.129991e+003, 3.436360e+003
1.130473e+003, 3.435333e+003
1.130955e+003, 3.434167e+003
1.131437e+003, 3.433066e+003
1.131920e+003, 3.434255e+003
1.132402e+003, 3.442998e+003
1.132884e+003, 3.451168e+003
1.133366e+003, 3.451208e+003
1.133848e+003, 3.445858e+003
1.134330e+003, 3.445746e+003
1.134812e+003, 3.451525e+003
1.135294e+003, 3.457218e+003
1.135776e+003, 3.461651e+003
1.136259e+003, 3.465467e+003
1.136741e+003, 3.470177e+003
1.137223e+003, 3.474091e+003
1.137705e+003, 3.474705e+003
1.138187e+003, 3.471547e+003
1.138669e+003, 3.471180e+003
1.139151e+003, 3.474167e+003
1.139633e+003, 3.478372e+003
1.140115e+003, 3.483591e+003
1.140598e+003, 3.488607e+003
1.141080e+003, 3.491902e+003
1.141562e+003, 3.493689e+003
1.142044e+003, 3.494219e+003
1.142526e+003, 3.493165e+003
1.143008e+003, 3.492148e+003
1.143490e+003, 3.491419e+003
1.143972e+003, 3.490450e+003
1.144455e+003, 3.487525e+003
1.144937e+003, 3.485260e+003
1.145419e+003, 3.492570e+003
1.145901e+003, 3.505529e+003
1.146383e+003, 3.514145e+003
1.146865e+003, 3.511853e+003
1.147347e+003, 3.509577e+003
1.147829e+003, 3.509398e+003
1.148312e+003, 3.509260e+003
1.148794e+003, 3.506521e+003
1.149276e+003, 3.502308e+003
1.149758e+003, 3.502688e+003
1.150240e+003, 3.507087e+003
1.150722e+003, 3.512234e+003
1.151204e+003, 3.518873e+003
1.151686e+003, 3.522907e+003
1.152168e+003, 3.521743e+003
1.152651e+003, 3.518496e+003
1.153133e+003, 3.516032e+003
1.153615e+003, 3.514475e+003
1.154097e+003, 3.516007e+003
1.154579e+003, 3.520575e+003
1.155061e+003, 3.524039e+003
1.155543e+003, 3.522399e+003
1.156025e+003, 3.520235e+003
1.156507e+003, 3.519224e+003
1.156990e+003, 3.519736e+003
1.157472e+003, 3.524183e+003
1.157954e+003, 3.532612e+003
1.158436e+003, 3.534033e+003
1.158918e+003, 3.526404e+003
1.159400e+003, 3.518469e+003
1.159882e+003, 3.517453e+003
1.160364e+003, 3.518794e+003
1.160847e+003, 3.519292e+003
1.161329e+003, 3.519066e+003
1.161811e+003, 3.519966e+003
1.162293e+003, 3.522268e+003
1.162775e+003, 3.522278e+003
1.163257e+003, 3.518632e+003
1.163739e+003, 3.514344e+003
1.164221e+003, 3.512118e+003
1.164703e+003, 3.511012e+003
1.165186e+003, 3.510001e+003
1.165668e+003, 3.509019e+003
1.166150e+003, 3.509844e+003
1.166632e+003, 3.513072e+003
1.167114e+003, 3.514701e+003
1.167596e+003, 3.512584e+003
1.168078e+003, 3.509750e+003
1.168560e+003, 3.509516e+003
1.169042e+003, 3.511291e+003
1.169525e+003, 3.514784e+003
1.170007e+003, 3.521021e+003
1.170489e+003, 3.524202e+003
1.170971e+003, 3.523693e+003
1.171453e+003, 3.522156e+003
1.171935e+003, 3.519335e+003
1.172417e+003, 3.518018e+003
1.172899e+003, 3.525255e+003
1.173382e+003, 3.536391e+003
1.173864e+003, 3.542753e+003
1.174346e+003, 3.539057e+003
1.174828e+003, 3.536237e+003
1.175310e+003, 3.534116e+003
1.175792e+003, 3.533497e+003
1.176274e+003, 3.537235e+003
1.176756e+003, 3.541602e+003
1.177239e+003, 3.537354e+003
1.177721e+003, 3.527914e+003
1.178203e+003, 3.522111e+003
1.178685e+003, 3.526327e+003
1.179167e+003, 3.529472e+003
1.179649e+003, 3.531092e+003
1.180131e+003, 3.531398e+003
1.180613e+003, 3.530063e+003
1.181095e+003, 3.527869e+003
1.181578e+003, 3.526050e+003
1.182060e+003, 3.524878e+003
1.182542e+003, 3.525174e+003
1.183024e+003, 3.528371e+003
1.183506e+003, 3.531719e+003
1.183988e+003, 3.535357e+003
1.184470e+003, 3.538063e+003
1.184952e+003, 3.536505e+003
1.185434e+003, 3.533318e+003
1.185917e+003, 3.536935e+003
1.186399e+003, 3.546803e+003
1.186881e+003, 3.553719e+003
1.187363e+003, 3.549423e+003
1.187845e+003, 3.547794e+003
1.188327e+003, 3.553302e+003
1.188809e+003, 3.560578e+003
1.189291e+003, 3.560925e+003
1.189774e+003, 3.556372e+003
1.190256e+003, 3.552782e+003
1.190738e+003, 3.550823e+003
1.191220e+003, 3.550203e+003
1.191702e+003, 3.552363e+003
1.192184e+003, 3.553791e+003
1.192666e+003, 3.552958e+003
1.193148e+003, 3.551371e+003
1.193630e+003, 3.552727e+003
1.194113e+003, 3.555952e+003
1.194595e+003, 3.556717e+003
1.195077e+003, 3.554021e+003
1.195559e+003, 3.553016e+003
1.196041e+003, 3.559607e+003
1.196523e+003, 3.564104e+003
1.197005e+003, 3.561814e+003
1.197487e+003, 3.555787e+003
1.197969e+003, 3.554599e+003
1.198452e+003, 3.556871e+003
1.198934e+003, 3.557023e+003
1.199416e+003, 3.552945e+003
1.199898e+003, 3.550672e+003
1.200380e+003, 3.556803e+003
1.200862e+003, 3.560771e+003
1.201344e+003, 3.555810e+003
1.201826e+003, 3.545731e+003
1.202309e+003, 3.545467e+003
1.202791e+003, 3.552736e+003
1.203273e+003, 3.558626e+003
1.203755e+003, 3.560637e+003
1.204237e+003, 3.560802e+003
1.204719e+003, 3.559219e+003
1.205201e+003, 3.556895e+003
1.205683e+003, 3.554004e+003
1.206166e+003, 3.551003e+003
1.206648e+003, 3.549782e+003
1.207130e+003, 3.550089e+003
1.207612e+003, 3.550885e+003
1.208094e+003, 3.552773e+003
1.208576e+003, 3.552919e+003
1.209058e+003, 3.545936e+003
1.209540e+003, 3.540915e+003
1.210022e+003, 3.544124e+003
1.210505e+003, 3.554359e+003
1.210987e+003, 3.566893e+003
1.211469e+003, 3.580157e+003
1.211951e+003, 3.586107e+003
1.212433e+003, 3.576216e+003
1.212915e+003, 3.566598e+003
1.213397e+003, 3.563397e+003
1.213879e+003, 3.562731e+003
1.214361e+003, 3.562818e+003
1.214844e+003, 3.563294e+003
1.215326e+003, 3.561049e+003
1.215808e+003, 3.556550e+003
1.216290e+003, 3.552205e+003
1.216772e+003, 3.547995e+003
1.217254e+003, 3.545710e+003
1.217736e+003, 3.546464e+003
1.218218e+003, 3.548660e+003
1.218701e+003, 3.552267e+003
1.219183e+003, 3.556475e+003
1.219665e+003, 3.553659e+003
1.220147e+003, 3.545604e+003
1.220629e+003, 3.542104e+003
1.221111e+003, 3.556196e+003
1.221593e+003, 3.564332e+003
1.222075e+003, 3.556663e+003
1.222557e+003, 3.544780e+003
1.223040e+003, 3.539705e+003
1.223522e+003, 3.540496e+003
1.224004e+003, 3.543515e+003
1.224486e+003, 3.548202e+003
1.224968e+003, 3.551996e+003
1.225450e+003, 3.554780e+003
1.225932e+003, 3.554698e+003
1.226414e+003, 3.550145e+003
1.226896e+003, 3.544562e+003
1.227379e+003, 3.542310e+003
1.227861e+003, 3.542313e+003
1.228343e+003, 3.539996e+003
1.228825e+003, 3.535687e+003
1.229307e+003, 3.533227e+003
1.229789e+003, 3.535541e+003
1.230271e+003, 3.538374e+003
1.230753e+003, 3.540802e+003
1.231236e+003, 3.543228e+003
1.231718e+003, 3.547006e+003
1.232200e+003, 3.551005e+003
1.232682e+003, 3.550955e+003
1.233164e+003, 3.547252e+003
1.233646e+003, 3.545151e+003
1.234128e+003, 3.550315e+003
1.234610e+003, 3.552171e+003
1.235093e+003, 3.547703e+003
1.235575e+003, 3.541165e+003
1.236057e+003, 3.536734e+003
1.236539e+003, 3.535092e+003
1.237021e+003, 3.540027e+003
1.237503e+003, 3.550744e+003
1.237985e+003, 3.557438e+003
1.238467e+003, 3.553718e+003
1.238949e+003, 3.549943e+003
1.239432e+003, 3.547173e+003
1.239914e+003, 3.546156e+003
1.240396e+003, 3.547435e+003
1.240878e+003, 3.551398e+003
1.241360e+003, 3.560872e+003
1.241842e+003, 3.575380e+003
1.242324e+003, 3.584094e+003
1.242806e+003, 3.582184e+003
1.243288e+003, 3.580533e+003
1.243771e+003, 3.581253e+003
1.244253e+003, 3.582639e+003
1.244735e+003, 3.582223e+003
1.245217e+003, 3.581118e+003
1.245699e+003, 3.580763e+003
1.246181e+003, 3.581336e+003
1.246663e+003, 3.583327e+003
1.247145e+003, 3.587644e+003
1.247628e+003, 3.590751e+003
1.248110e+003, 3.591943e+003
1.248592e+003, 3.591681e+003
1.249074e+003, 3.589286e+003
1.249556e+003, 3.586599e+003
1.250038e+003, 3.586097e+003
1.250520e+003, 3.587890e+003
1.251002e+003, 3.588906e+003
1.251484e+003, 3.588973e+003
1.251967e+003, 3.588979e+003
1.252449e+003, 3.589557e+003
1.252931e+003, 3.588348e+003
1.253413e+003, 3.577854e+003
1.253895e+003, 3.567838e+003
1.254377e+003, 3.570803e+003
1.254859e+003, 3.585981e+003
1.255341e+003, 3.594374e+003
1.255823e+003, 3.595432e+003
1.256306e+003, 3.593298e+003
1.256788e+003, 3.588078e+003
1.257270e+003, 3.584275e+003
1.257752e+003, 3.587241e+003
1.258234e+003, 3.592531e+003
1.258716e+003, 3.596770e+003
1.259198e+003, 3.599909e+003
1.259680e+003, 3.601909e+003
1.260163e+003, 3.602775e+003
1.260645e+003, 3.605428e+003
1.261127e+003, 3.611428e+003
1.261609e+003, 3.613904e+003
1.262091e+003, 3.603726e+003
1.262573e+003, 3.591843e+003
1.263055e+003, 3.584624e+003
1.263537e+003, 3.582016e+003
1.264020e+003, 3.585868e+003
1.264502e+003, 3.595025e+003
1.264984e+003, 3.600068e+003
1.265466e+003, 3.598339e+003
1.265948e+003, 3.596041e+003
1.266430e+003, 3.598323e+003
1.266912e+003, 3.599078e+003
1.267394e+003, 3.594499e+003
1.267876e+003, 3.586923e+003
1.268359e+003, 3.581033e+003
1.268841e+003, 3.577561e+003
1.269323e+003, 3.580732e+003
1.269805e+003, 3.592479e+003
1.270287e+003, 3.601521e+003
1.270769e+003, 3.601791e+003
1.271251e+003, 3.599767e+003
1.271733e+003, 3.597035e+003
1.272215e+003, 3.594048e+003
1.272698e+003, 3.590934e+003
1.273180e+003, 3.588593e+003
1.273662e+003, 3.589963e+003
1.274144e+003, 3.596249e+003
1.274626e+003, 3.599838e+003
1.275108e+003, 3.598080e+003
1.275590e+003, 3.596586e+003
1.276072e+003, 3.597389e+003
1.276555e+003, 3.598942e+003
1.277037e+003, 3.597783e+003
1.277519e+003, 3.596032e+003
1.278001e+003, 3.597113e+003
1.278483e+003, 3.601710e+003
1.278965e+003, 3.606700e+003
1.279447e+003, 3.611865e+003
1.279929e+003, 3.617311e+003
1.280411e+003, 3.623718e+003
1.280894e+003, 3.628105e+003
1.281376e+003, 3.625153e+003
1.281858e+003, 3.619223e+003
1.282340e+003, 3.614874e+003
1.282822e+003, 3.612510e+003
1.283304e+003, 3.611275e+003
1.283786e+003, 3.611205e+003
1.284268e+003, 3.612430e+003
1.284750e+003, 3.615546e+003
1.285233e+003, 3.617802e+003
1.285715e+003, 3.614168e+003
1.286197e+003, 3.610845e+003
1.286679e+003, 3.615143e+003
1.287161e+003, 3.624328e+003
1.287643e+003, 3.625312e+003
1.288125e+003, 3.618742e+003
1.288607e+003, 3.611910e+003
1.289090e+003, 3.606200e+003
1.289572e+003, 3.603248e+003
1.290054e+003, 3.605087e+003
1.290536e+003, 3.609246e+003
1.291018e+003, 3.615122e+003
1.291500e+003, 3.621449e+003
1.291982e+003, 3.623832e+003
1.292464e+003, 3.623567e+003
1.292947e+003, 3.626394e+003
1.293429e+003, 3.633986e+003
1.293911e+003, 3.638163e+003
1.294393e+003, 3.630903e+003
1.294875e+003, 3.625589e+003
1.295357e+003, 3.626296e+003
1.295839e+003, 3.630437e+003
1.296321e+003, 3.635066e+003
1.296803e+003, 3.639495e+003
1.297286e+003, 3.642055e+003
1.297768e+003, 3.642402e+003
1.298250e+003, 3.641892e+003
1.298732e+003, 3.640457e+003
1.299214e+003, 3.638820e+003
1.299696e+003, 3.637084e+003
1.300178e+003, 3.636062e+003
1.300660e+003, 3.637718e+003
##END=



