##NAMES=Manganbabingtonite
##RRUFFID=R140743
##IDEAL CHEMISTRY=Ca_2_Mn^2+^Fe^3+^Si_5_O_14_(OH)
##LOCALITY=Iron Cap mine, Aravaipa District, Graham County, Arizona, USA
##OWNER=RRUFF
##SOURCE=Rock Currier
##DESCRIPTION=Short prismatic dark-greenish crystals, associated with small needle hedenbergite crystals.
##STATUS=The identification of this mineral is confirmed by single-crystal X-ray diffraction and chemical analysis.
##URL=rruff.info/R140743
##MEASURED CHEMISTRY=(Ca_1.94_Mn^2+^_0.06_)(Mn^2+^_0.82_Fe^2+^_0.16_Mg_0.02_)(Fe^3+^_0.98_Al_0.02_)(Si_4.99_Al_0.01_)O_14_(OH)
8.806445e+001, 4.547222e+002
8.854657e+001, 4.538097e+002
8.902869e+001, 4.535150e+002
8.951080e+001, 4.545339e+002
8.999292e+001, 4.558683e+002
9.047504e+001, 4.564915e+002
9.095715e+001, 4.561207e+002
9.143927e+001, 4.551054e+002
9.192139e+001, 4.536981e+002
9.240350e+001, 4.518848e+002
9.288562e+001, 4.503293e+002
9.336774e+001, 4.466749e+002
9.384985e+001, 4.380860e+002
9.433197e+001, 4.241026e+002
9.481409e+001, 4.100964e+002
9.529620e+001, 3.960439e+002
9.577832e+001, 3.839483e+002
9.626044e+001, 3.740223e+002
9.674255e+001, 3.660510e+002
9.722467e+001, 3.600352e+002
9.770679e+001, 3.564680e+002
9.818890e+001, 3.528910e+002
9.867102e+001, 3.492905e+002
9.915314e+001, 3.452210e+002
9.963525e+001, 3.401174e+002
1.001174e+002, 3.336814e+002
1.005995e+002, 3.262986e+002
1.010816e+002, 3.193285e+002
1.015637e+002, 3.123954e+002
1.020458e+002, 3.062126e+002
1.025280e+002, 3.008027e+002
1.030101e+002, 2.961111e+002
1.034922e+002, 2.919955e+002
1.039743e+002, 2.883408e+002
1.044564e+002, 2.851411e+002
1.049385e+002, 2.832186e+002
1.054207e+002, 2.837276e+002
1.059028e+002, 2.841689e+002
1.063849e+002, 2.832108e+002
1.068670e+002, 2.808174e+002
1.073491e+002, 2.777480e+002
1.078312e+002, 2.744073e+002
1.083134e+002, 2.708506e+002
1.087955e+002, 2.680171e+002
1.092776e+002, 2.664631e+002
1.097597e+002, 2.655644e+002
1.102418e+002, 2.643658e+002
1.107239e+002, 2.625763e+002
1.112061e+002, 2.608657e+002
1.116882e+002, 2.595366e+002
1.121703e+002, 2.586146e+002
1.126524e+002, 2.585888e+002
1.131345e+002, 2.601772e+002
1.136166e+002, 2.632714e+002
1.140988e+002, 2.659386e+002
1.145809e+002, 2.673730e+002
1.150630e+002, 2.687876e+002
1.155451e+002, 2.710283e+002
1.160272e+002, 2.740674e+002
1.165093e+002, 2.770594e+002
1.169915e+002, 2.788011e+002
1.174736e+002, 2.785289e+002
1.179557e+002, 2.789877e+002
1.184378e+002, 2.791841e+002
1.189199e+002, 2.806732e+002
1.194020e+002, 2.846557e+002
1.198842e+002, 2.915043e+002
1.203663e+002, 3.006183e+002
1.208484e+002, 3.107264e+002
1.213305e+002, 3.235257e+002
1.218126e+002, 3.354098e+002
1.222947e+002, 3.482375e+002
1.227769e+002, 3.596095e+002
1.232590e+002, 3.665479e+002
1.237411e+002, 3.675528e+002
1.242232e+002, 3.629773e+002
1.247053e+002, 3.539035e+002
1.251874e+002, 3.386558e+002
1.256696e+002, 3.220455e+002
1.261517e+002, 3.045288e+002
1.266338e+002, 2.866449e+002
1.271159e+002, 2.700791e+002
1.275980e+002, 2.560186e+002
1.280801e+002, 2.444081e+002
1.285623e+002, 2.338203e+002
1.290444e+002, 2.240008e+002
1.295265e+002, 2.153486e+002
1.300086e+002, 2.084840e+002
1.304907e+002, 2.036828e+002
1.309728e+002, 1.993958e+002
1.314550e+002, 1.944535e+002
1.319371e+002, 1.893945e+002
1.324192e+002, 1.850756e+002
1.329013e+002, 1.819726e+002
1.333834e+002, 1.798271e+002
1.338655e+002, 1.778852e+002
1.343477e+002, 1.761102e+002
1.348298e+002, 1.746447e+002
1.353119e+002, 1.734936e+002
1.357940e+002, 1.726500e+002
1.362761e+002, 1.720918e+002
1.367582e+002, 1.717472e+002
1.372404e+002, 1.716044e+002
1.377225e+002, 1.721181e+002
1.382046e+002, 1.740927e+002
1.386867e+002, 1.760397e+002
1.391688e+002, 1.773574e+002
1.396509e+002, 1.781609e+002
1.401331e+002, 1.790019e+002
1.406152e+002, 1.805171e+002
1.410973e+002, 1.830325e+002
1.415794e+002, 1.849999e+002
1.420615e+002, 1.867746e+002
1.425436e+002, 1.878949e+002
1.430258e+002, 1.880217e+002
1.435079e+002, 1.871191e+002
1.439900e+002, 1.854526e+002
1.444721e+002, 1.832969e+002
1.449542e+002, 1.803578e+002
1.454363e+002, 1.776549e+002
1.459185e+002, 1.750344e+002
1.464006e+002, 1.727220e+002
1.468827e+002, 1.710461e+002
1.473648e+002, 1.701469e+002
1.478469e+002, 1.696889e+002
1.483290e+002, 1.692037e+002
1.488112e+002, 1.687082e+002
1.492933e+002, 1.681297e+002
1.497754e+002, 1.676494e+002
1.502575e+002, 1.670990e+002
1.507396e+002, 1.658918e+002
1.512217e+002, 1.635648e+002
1.517039e+002, 1.608224e+002
1.521860e+002, 1.585139e+002
1.526681e+002, 1.566304e+002
1.531502e+002, 1.551569e+002
1.536323e+002, 1.541889e+002
1.541144e+002, 1.537466e+002
1.545966e+002, 1.533294e+002
1.550787e+002, 1.526282e+002
1.555608e+002, 1.520238e+002
1.560429e+002, 1.517445e+002
1.565250e+002, 1.518333e+002
1.570071e+002, 1.523046e+002
1.574893e+002, 1.532284e+002
1.579714e+002, 1.547362e+002
1.584535e+002, 1.563690e+002
1.589356e+002, 1.581080e+002
1.594177e+002, 1.598869e+002
1.598998e+002, 1.616674e+002
1.603820e+002, 1.634270e+002
1.608641e+002, 1.651503e+002
1.613462e+002, 1.668122e+002
1.618283e+002, 1.686088e+002
1.623104e+002, 1.700146e+002
1.627925e+002, 1.707766e+002
1.632747e+002, 1.712288e+002
1.637568e+002, 1.716594e+002
1.642389e+002, 1.722006e+002
1.647210e+002, 1.729120e+002
1.652031e+002, 1.740625e+002
1.656852e+002, 1.750599e+002
1.661674e+002, 1.771660e+002
1.666495e+002, 1.810095e+002
1.671316e+002, 1.860860e+002
1.676137e+002, 1.915059e+002
1.680958e+002, 1.967945e+002
1.685779e+002, 2.020273e+002
1.690601e+002, 2.077641e+002
1.695422e+002, 2.142269e+002
1.700243e+002, 2.208255e+002
1.705064e+002, 2.270843e+002
1.709885e+002, 2.331951e+002
1.714706e+002, 2.400492e+002
1.719528e+002, 2.484890e+002
1.724349e+002, 2.581038e+002
1.729170e+002, 2.668794e+002
1.733991e+002, 2.752015e+002
1.738812e+002, 2.824423e+002
1.743633e+002, 2.888802e+002
1.748455e+002, 2.945711e+002
1.753276e+002, 2.972339e+002
1.758097e+002, 2.948803e+002
1.762918e+002, 2.883980e+002
1.767739e+002, 2.790818e+002
1.772560e+002, 2.661009e+002
1.777382e+002, 2.511573e+002
1.782203e+002, 2.363441e+002
1.787024e+002, 2.214728e+002
1.791845e+002, 2.075360e+002
1.796666e+002, 1.950815e+002
1.801487e+002, 1.838904e+002
1.806309e+002, 1.738980e+002
1.811130e+002, 1.650990e+002
1.815951e+002, 1.574282e+002
1.820772e+002, 1.506005e+002
1.825593e+002, 1.446658e+002
1.830414e+002, 1.396938e+002
1.835236e+002, 1.356505e+002
1.840057e+002, 1.323923e+002
1.844878e+002, 1.297609e+002
1.849699e+002, 1.277292e+002
1.854520e+002, 1.262296e+002
1.859341e+002, 1.248303e+002
1.864163e+002, 1.234418e+002
1.868984e+002, 1.222879e+002
1.873805e+002, 1.214629e+002
1.878626e+002, 1.208901e+002
1.883447e+002, 1.204231e+002
1.888268e+002, 1.199358e+002
1.893090e+002, 1.194410e+002
1.897911e+002, 1.193398e+002
1.902732e+002, 1.202535e+002
1.907553e+002, 1.209327e+002
1.912374e+002, 1.210391e+002
1.917195e+002, 1.206354e+002
1.922017e+002, 1.199135e+002
1.926838e+002, 1.189949e+002
1.931659e+002, 1.178595e+002
1.936480e+002, 1.168375e+002
1.941301e+002, 1.158591e+002
1.946122e+002, 1.150236e+002
1.950944e+002, 1.144724e+002
1.955765e+002, 1.141344e+002
1.960586e+002, 1.137350e+002
1.965407e+002, 1.129914e+002
1.970228e+002, 1.118964e+002
1.975049e+002, 1.113520e+002
1.979871e+002, 1.113739e+002
1.984692e+002, 1.118529e+002
1.989513e+002, 1.129166e+002
1.994334e+002, 1.144962e+002
1.999155e+002, 1.160965e+002
2.003976e+002, 1.172348e+002
2.008798e+002, 1.179788e+002
2.013619e+002, 1.191746e+002
2.018440e+002, 1.210360e+002
2.023261e+002, 1.232417e+002
2.028082e+002, 1.255700e+002
2.032903e+002, 1.280034e+002
2.037725e+002, 1.304432e+002
2.042546e+002, 1.326594e+002
2.047367e+002, 1.347975e+002
2.052188e+002, 1.372792e+002
2.057009e+002, 1.402173e+002
2.061830e+002, 1.435419e+002
2.066652e+002, 1.470575e+002
2.071473e+002, 1.506634e+002
2.076294e+002, 1.548618e+002
2.081115e+002, 1.603489e+002
2.085936e+002, 1.666037e+002
2.090757e+002, 1.729641e+002
2.095579e+002, 1.792750e+002
2.100400e+002, 1.854810e+002
2.105221e+002, 1.917350e+002
2.110042e+002, 1.985146e+002
2.114863e+002, 2.041600e+002
2.119685e+002, 2.084922e+002
2.124506e+002, 2.112436e+002
2.129327e+002, 2.118157e+002
2.134148e+002, 2.098893e+002
2.138969e+002, 2.056140e+002
2.143790e+002, 1.992425e+002
2.148612e+002, 1.895414e+002
2.153433e+002, 1.796075e+002
2.158254e+002, 1.701991e+002
2.163075e+002, 1.614001e+002
2.167896e+002, 1.531959e+002
2.172717e+002, 1.455408e+002
2.177539e+002, 1.385576e+002
2.182360e+002, 1.330032e+002
2.187181e+002, 1.297204e+002
2.192002e+002, 1.269249e+002
2.196823e+002, 1.241603e+002
2.201644e+002, 1.215729e+002
2.206466e+002, 1.194473e+002
2.211287e+002, 1.179903e+002
2.216108e+002, 1.170915e+002
2.220929e+002, 1.161368e+002
2.225750e+002, 1.147198e+002
2.230571e+002, 1.137259e+002
2.235393e+002, 1.133557e+002
2.240214e+002, 1.134913e+002
2.245035e+002, 1.139196e+002
2.249856e+002, 1.144939e+002
2.254677e+002, 1.152913e+002
2.259498e+002, 1.168197e+002
2.264320e+002, 1.193014e+002
2.269141e+002, 1.223194e+002
2.273962e+002, 1.260202e+002
2.278783e+002, 1.301912e+002
2.283604e+002, 1.345619e+002
2.288425e+002, 1.389833e+002
2.293247e+002, 1.434740e+002
2.298068e+002, 1.482020e+002
2.302889e+002, 1.539621e+002
2.307710e+002, 1.590461e+002
2.312531e+002, 1.637296e+002
2.317352e+002, 1.674343e+002
2.322174e+002, 1.691562e+002
2.326995e+002, 1.682931e+002
2.331816e+002, 1.651761e+002
2.336637e+002, 1.610779e+002
2.341458e+002, 1.558196e+002
2.346279e+002, 1.500107e+002
2.351101e+002, 1.432330e+002
2.355922e+002, 1.360250e+002
2.360743e+002, 1.293655e+002
2.365564e+002, 1.237222e+002
2.370385e+002, 1.190179e+002
2.375206e+002, 1.152494e+002
2.380028e+002, 1.125385e+002
2.384849e+002, 1.102661e+002
2.389670e+002, 1.082569e+002
2.394491e+002, 1.065483e+002
2.399312e+002, 1.052305e+002
2.404133e+002, 1.044038e+002
2.408955e+002, 1.039400e+002
2.413776e+002, 1.035489e+002
2.418597e+002, 1.032365e+002
2.423418e+002, 1.029648e+002
2.428239e+002, 1.027063e+002
2.433060e+002, 1.024762e+002
2.437882e+002, 1.022684e+002
2.442703e+002, 1.019812e+002
2.447524e+002, 1.018806e+002
2.452345e+002, 1.025575e+002
2.457166e+002, 1.042404e+002
2.461987e+002, 1.054887e+002
2.466809e+002, 1.052171e+002
2.471630e+002, 1.038733e+002
2.476451e+002, 1.029632e+002
2.481272e+002, 1.030062e+002
2.486093e+002, 1.035061e+002
2.490914e+002, 1.038086e+002
2.495736e+002, 1.039006e+002
2.500557e+002, 1.041399e+002
2.505378e+002, 1.048454e+002
2.510199e+002, 1.058945e+002
2.515020e+002, 1.067417e+002
2.519841e+002, 1.070931e+002
2.524663e+002, 1.074989e+002
2.529484e+002, 1.084676e+002
2.534305e+002, 1.099490e+002
2.539126e+002, 1.115680e+002
2.543947e+002, 1.129848e+002
2.548768e+002, 1.143181e+002
2.553590e+002, 1.160931e+002
2.558411e+002, 1.183988e+002
2.563232e+002, 1.211887e+002
2.568053e+002, 1.243399e+002
2.572874e+002, 1.278501e+002
2.577695e+002, 1.317215e+002
2.582516e+002, 1.359465e+002
2.587338e+002, 1.405510e+002
2.592159e+002, 1.454813e+002
2.596980e+002, 1.506041e+002
2.601801e+002, 1.563490e+002
2.606622e+002, 1.628554e+002
2.611443e+002, 1.700357e+002
2.616265e+002, 1.777357e+002
2.621086e+002, 1.860378e+002
2.625907e+002, 1.947988e+002
2.630728e+002, 2.032727e+002
2.635549e+002, 2.118788e+002
2.640370e+002, 2.194735e+002
2.645192e+002, 2.264248e+002
2.650013e+002, 2.321335e+002
2.654834e+002, 2.357244e+002
2.659655e+002, 2.368360e+002
2.664476e+002, 2.354403e+002
2.669297e+002, 2.312480e+002
2.674119e+002, 2.231557e+002
2.678940e+002, 2.138044e+002
2.683761e+002, 2.036864e+002
2.688582e+002, 1.931530e+002
2.693403e+002, 1.823822e+002
2.698224e+002, 1.713579e+002
2.703046e+002, 1.605408e+002
2.707867e+002, 1.512031e+002
2.712688e+002, 1.436312e+002
2.717509e+002, 1.372401e+002
2.722330e+002, 1.316829e+002
2.727151e+002, 1.270673e+002
2.731973e+002, 1.235967e+002
2.736794e+002, 1.213712e+002
2.741615e+002, 1.199735e+002
2.746436e+002, 1.184660e+002
2.751257e+002, 1.164728e+002
2.756078e+002, 1.151598e+002
2.760900e+002, 1.147605e+002
2.765721e+002, 1.149041e+002
2.770542e+002, 1.153663e+002
2.775363e+002, 1.160603e+002
2.780184e+002, 1.169217e+002
2.785005e+002, 1.178639e+002
2.789827e+002, 1.189687e+002
2.794648e+002, 1.199668e+002
2.799469e+002, 1.208396e+002
2.804290e+002, 1.216279e+002
2.809111e+002, 1.224678e+002
2.813932e+002, 1.233270e+002
2.818754e+002, 1.239301e+002
2.823575e+002, 1.238831e+002
2.828396e+002, 1.229951e+002
2.833217e+002, 1.219787e+002
2.838038e+002, 1.211445e+002
2.842859e+002, 1.199565e+002
2.847681e+002, 1.180297e+002
2.852502e+002, 1.154127e+002
2.857323e+002, 1.124770e+002
2.862144e+002, 1.095967e+002
2.866965e+002, 1.068009e+002
2.871786e+002, 1.038572e+002
2.876608e+002, 1.004460e+002
2.881429e+002, 9.718249e+001
2.886250e+002, 9.428943e+001
2.891071e+002, 9.176454e+001
2.895892e+002, 8.950169e+001
2.900714e+002, 8.740530e+001
2.905535e+002, 8.548256e+001
2.910356e+002, 8.378712e+001
2.915177e+002, 8.234325e+001
2.919998e+002, 8.110509e+001
2.924819e+002, 8.012791e+001
2.929641e+002, 7.934406e+001
2.934462e+002, 7.862598e+001
2.939283e+002, 7.788013e+001
2.944104e+002, 7.713987e+001
2.948925e+002, 7.660533e+001
2.953746e+002, 7.643665e+001
2.958568e+002, 7.631044e+001
2.963389e+002, 7.618656e+001
2.968210e+002, 7.607777e+001
2.973031e+002, 7.597470e+001
2.977852e+002, 7.586874e+001
2.982673e+002, 7.582662e+001
2.987495e+002, 7.604836e+001
2.992316e+002, 7.682568e+001
2.997137e+002, 7.752464e+001
3.001958e+002, 7.805799e+001
3.006779e+002, 7.853274e+001
3.011600e+002, 7.900549e+001
3.016422e+002, 7.950835e+001
3.021243e+002, 8.012869e+001
3.026064e+002, 8.101760e+001
3.030885e+002, 8.220487e+001
3.035706e+002, 8.366081e+001
3.040527e+002, 8.556332e+001
3.045349e+002, 8.758526e+001
3.050170e+002, 8.942882e+001
3.054991e+002, 9.106672e+001
3.059812e+002, 9.272629e+001
3.064633e+002, 9.469058e+001
3.069454e+002, 9.703175e+001
3.074276e+002, 9.944985e+001
3.079097e+002, 1.021043e+002
3.083918e+002, 1.046683e+002
3.088739e+002, 1.069248e+002
3.093560e+002, 1.089065e+002
3.098381e+002, 1.108043e+002
3.103203e+002, 1.128369e+002
3.108024e+002, 1.150245e+002
3.112845e+002, 1.168147e+002
3.117666e+002, 1.178225e+002
3.122487e+002, 1.188908e+002
3.127308e+002, 1.205030e+002
3.132130e+002, 1.224143e+002
3.136951e+002, 1.240342e+002
3.141772e+002, 1.249575e+002
3.146593e+002, 1.253056e+002
3.151414e+002, 1.258943e+002
3.156235e+002, 1.266790e+002
3.161057e+002, 1.277638e+002
3.165878e+002, 1.293327e+002
3.170699e+002, 1.311679e+002
3.175520e+002, 1.329592e+002
3.180341e+002, 1.345618e+002
3.185162e+002, 1.361127e+002
3.189984e+002, 1.379532e+002
3.194805e+002, 1.405863e+002
3.199626e+002, 1.428463e+002
3.204447e+002, 1.447606e+002
3.209268e+002, 1.462842e+002
3.214089e+002, 1.472959e+002
3.218911e+002, 1.477942e+002
3.223732e+002, 1.479895e+002
3.228553e+002, 1.481579e+002
3.233374e+002, 1.481541e+002
3.238195e+002, 1.485212e+002
3.243016e+002, 1.493661e+002
3.247838e+002, 1.504383e+002
3.252659e+002, 1.515552e+002
3.257480e+002, 1.527259e+002
3.262301e+002, 1.541076e+002
3.267122e+002, 1.559168e+002
3.271943e+002, 1.582426e+002
3.276765e+002, 1.601776e+002
3.281586e+002, 1.615420e+002
3.286407e+002, 1.627440e+002
3.291228e+002, 1.642279e+002
3.296049e+002, 1.656785e+002
3.300870e+002, 1.664438e+002
3.305692e+002, 1.660889e+002
3.310513e+002, 1.646581e+002
3.315334e+002, 1.625192e+002
3.320155e+002, 1.590379e+002
3.324976e+002, 1.554879e+002
3.329797e+002, 1.522897e+002
3.334619e+002, 1.490472e+002
3.339440e+002, 1.450791e+002
3.344261e+002, 1.400721e+002
3.349082e+002, 1.346120e+002
3.353904e+002, 1.300404e+002
3.358725e+002, 1.268572e+002
3.363546e+002, 1.239133e+002
3.368367e+002, 1.210863e+002
3.373188e+002, 1.184968e+002
3.378009e+002, 1.162789e+002
3.382831e+002, 1.144507e+002
3.387652e+002, 1.128947e+002
3.392473e+002, 1.114575e+002
3.397294e+002, 1.100594e+002
3.402115e+002, 1.090387e+002
3.406936e+002, 1.083235e+002
3.411758e+002, 1.079843e+002
3.416579e+002, 1.081408e+002
3.421400e+002, 1.087282e+002
3.426221e+002, 1.095416e+002
3.431042e+002, 1.103854e+002
3.435863e+002, 1.112599e+002
3.440685e+002, 1.125516e+002
3.445506e+002, 1.142027e+002
3.450327e+002, 1.163896e+002
3.455148e+002, 1.191677e+002
3.459969e+002, 1.225194e+002
3.464790e+002, 1.264615e+002
3.469612e+002, 1.310594e+002
3.474433e+002, 1.361005e+002
3.479254e+002, 1.410644e+002
3.484075e+002, 1.460857e+002
3.488896e+002, 1.507065e+002
3.493717e+002, 1.553281e+002
3.498539e+002, 1.593038e+002
3.503360e+002, 1.622840e+002
3.508181e+002, 1.640916e+002
3.513002e+002, 1.644771e+002
3.517823e+002, 1.628722e+002
3.522644e+002, 1.587717e+002
3.527466e+002, 1.543055e+002
3.532287e+002, 1.496991e+002
3.537108e+002, 1.446541e+002
3.541929e+002, 1.387054e+002
3.546750e+002, 1.320396e+002
3.551571e+002, 1.254157e+002
3.556393e+002, 1.194138e+002
3.561214e+002, 1.140113e+002
3.566035e+002, 1.092699e+002
3.570856e+002, 1.053275e+002
3.575677e+002, 1.020044e+002
3.580498e+002, 9.924440e+001
3.585320e+002, 9.701324e+001
3.590141e+002, 9.529770e+001
3.594962e+002, 9.416439e+001
3.599783e+002, 9.344733e+001
3.604604e+002, 9.269892e+001
3.609425e+002, 9.179036e+001
3.614247e+002, 9.115811e+001
3.619068e+002, 9.102089e+001
3.623889e+002, 9.114452e+001
3.628710e+002, 9.133554e+001
3.633531e+002, 9.154041e+001
3.638352e+002, 9.183337e+001
3.643174e+002, 9.233765e+001
3.647995e+002, 9.307626e+001
3.652816e+002, 9.380504e+001
3.657637e+002, 9.452744e+001
3.662458e+002, 9.518265e+001
3.667279e+002, 9.570628e+001
3.672101e+002, 9.611387e+001
3.676922e+002, 9.650721e+001
3.681743e+002, 9.707484e+001
3.686564e+002, 9.771793e+001
3.691385e+002, 9.796511e+001
3.696206e+002, 9.772219e+001
3.701028e+002, 9.721975e+001
3.705849e+002, 9.665889e+001
3.710670e+002, 9.595380e+001
3.715491e+002, 9.490585e+001
3.720312e+002, 9.327881e+001
3.725133e+002, 9.143300e+001
3.729955e+002, 8.987127e+001
3.734776e+002, 8.862424e+001
3.739597e+002, 8.739883e+001
3.744418e+002, 8.604173e+001
3.749239e+002, 8.465506e+001
3.754060e+002, 8.335669e+001
3.758882e+002, 8.214816e+001
3.763703e+002, 8.106313e+001
3.768524e+002, 8.012100e+001
3.773345e+002, 7.931926e+001
3.778166e+002, 7.861065e+001
3.782987e+002, 7.792104e+001
3.787809e+002, 7.744833e+001
3.792630e+002, 7.748592e+001
3.797451e+002, 7.797099e+001
3.802272e+002, 7.852797e+001
3.807093e+002, 7.900612e+001
3.811914e+002, 7.950018e+001
3.816736e+002, 8.014922e+001
3.821557e+002, 8.096310e+001
3.826378e+002, 8.185493e+001
3.831199e+002, 8.285152e+001
3.836020e+002, 8.386670e+001
3.840841e+002, 8.458806e+001
3.845663e+002, 8.501621e+001
3.850484e+002, 8.514547e+001
3.855305e+002, 8.490056e+001
3.860126e+002, 8.434050e+001
3.864947e+002, 8.361214e+001
3.869768e+002, 8.272965e+001
3.874590e+002, 8.180711e+001
3.879411e+002, 8.111466e+001
3.884232e+002, 8.071504e+001
3.889053e+002, 8.030317e+001
3.893874e+002, 7.965566e+001
3.898695e+002, 7.904256e+001
3.903517e+002, 7.877388e+001
3.908338e+002, 7.890559e+001
3.913159e+002, 7.930611e+001
3.917980e+002, 7.985387e+001
3.922801e+002, 8.056033e+001
3.927622e+002, 8.141296e+001
3.932444e+002, 8.229142e+001
3.937265e+002, 8.341155e+001
3.942086e+002, 8.503185e+001
3.946907e+002, 8.699281e+001
3.951728e+002, 8.887679e+001
3.956549e+002, 9.040287e+001
3.961371e+002, 9.173188e+001
3.966192e+002, 9.345612e+001
3.971013e+002, 9.597739e+001
3.975834e+002, 9.840908e+001
3.980655e+002, 1.008686e+002
3.985476e+002, 1.031099e+002
3.990298e+002, 1.048986e+002
3.995119e+002, 1.061644e+002
3.999940e+002, 1.069937e+002
4.004761e+002, 1.075465e+002
4.009582e+002, 1.079978e+002
4.014403e+002, 1.074934e+002
4.019225e+002, 1.056598e+002
4.024046e+002, 1.033665e+002
4.028867e+002, 1.009376e+002
4.033688e+002, 9.838266e+001
4.038509e+002, 9.553952e+001
4.043330e+002, 9.223222e+001
4.048152e+002, 8.858115e+001
4.052973e+002, 8.528434e+001
4.057794e+002, 8.245163e+001
4.062615e+002, 7.983024e+001
4.067436e+002, 7.741565e+001
4.072257e+002, 7.513711e+001
4.077079e+002, 7.293435e+001
4.081900e+002, 7.077847e+001
4.086721e+002, 6.871510e+001
4.091542e+002, 6.677903e+001
4.096363e+002, 6.493138e+001
4.101184e+002, 6.334320e+001
4.106006e+002, 6.209014e+001
4.110827e+002, 6.107408e+001
4.115648e+002, 6.027906e+001
4.120469e+002, 5.968317e+001
4.125290e+002, 5.924667e+001
4.130111e+002, 5.900525e+001
4.134933e+002, 5.889286e+001
4.139754e+002, 5.868150e+001
4.144575e+002, 5.832316e+001
4.149396e+002, 5.799559e+001
4.154217e+002, 5.771144e+001
4.159038e+002, 5.753364e+001
4.163860e+002, 5.757227e+001
4.168681e+002, 5.788348e+001
4.173502e+002, 5.830845e+001
4.178323e+002, 5.870658e+001
4.183144e+002, 5.908486e+001
4.187965e+002, 5.948544e+001
4.192787e+002, 5.990715e+001
4.197608e+002, 6.037566e+001
4.202429e+002, 6.093885e+001
4.207250e+002, 6.158648e+001
4.212071e+002, 6.221748e+001
4.216892e+002, 6.268335e+001
4.221714e+002, 6.316905e+001
4.226535e+002, 6.391177e+001
4.231356e+002, 6.492879e+001
4.236177e+002, 6.614745e+001
4.240998e+002, 6.752878e+001
4.245819e+002, 6.909045e+001
4.250641e+002, 7.079806e+001
4.255462e+002, 7.245898e+001
4.260283e+002, 7.449133e+001
4.265104e+002, 7.722099e+001
4.269925e+002, 8.042818e+001
4.274746e+002, 8.359415e+001
4.279568e+002, 8.653116e+001
4.284389e+002, 8.966788e+001
4.289210e+002, 9.371577e+001
4.294031e+002, 9.906147e+001
4.298852e+002, 1.043750e+002
4.303673e+002, 1.097588e+002
4.308495e+002, 1.150683e+002
4.313316e+002, 1.202808e+002
4.318137e+002, 1.253634e+002
4.322958e+002, 1.303651e+002
4.327779e+002, 1.354377e+002
4.332600e+002, 1.404267e+002
4.337422e+002, 1.439883e+002
4.342243e+002, 1.460436e+002
4.347064e+002, 1.466523e+002
4.351885e+002, 1.456373e+002
4.356706e+002, 1.432392e+002
4.361527e+002, 1.395159e+002
4.366349e+002, 1.345549e+002
4.371170e+002, 1.287928e+002
4.375991e+002, 1.227300e+002
4.380812e+002, 1.162045e+002
4.385633e+002, 1.099993e+002
4.390454e+002, 1.040956e+002
4.395276e+002, 9.859165e+001
4.400097e+002, 9.352245e+001
4.404918e+002, 8.891811e+001
4.409739e+002, 8.473920e+001
4.414560e+002, 8.097749e+001
4.419381e+002, 7.765838e+001
4.424203e+002, 7.482799e+001
4.429024e+002, 7.256416e+001
4.433845e+002, 7.062514e+001
4.438666e+002, 6.897951e+001
4.443487e+002, 6.760359e+001
4.448308e+002, 6.652125e+001
4.453130e+002, 6.573914e+001
4.457951e+002, 6.512685e+001
4.462772e+002, 6.458492e+001
4.467593e+002, 6.412062e+001
4.472414e+002, 6.378265e+001
4.477235e+002, 6.358975e+001
4.482057e+002, 6.350065e+001
4.486878e+002, 6.347495e+001
4.491699e+002, 6.352430e+001
4.496520e+002, 6.370598e+001
4.501341e+002, 6.412975e+001
4.506162e+002, 6.460339e+001
4.510984e+002, 6.494995e+001
4.515805e+002, 6.518423e+001
4.520626e+002, 6.540592e+001
4.525447e+002, 6.566940e+001
4.530268e+002, 6.592056e+001
4.535089e+002, 6.606440e+001
4.539911e+002, 6.612679e+001
4.544732e+002, 6.603928e+001
4.549553e+002, 6.565695e+001
4.554374e+002, 6.519120e+001
4.559195e+002, 6.490003e+001
4.564016e+002, 6.478979e+001
4.568838e+002, 6.465053e+001
4.573659e+002, 6.431643e+001
4.578480e+002, 6.379449e+001
4.583301e+002, 6.320003e+001
4.588122e+002, 6.261129e+001
4.592943e+002, 6.186908e+001
4.597765e+002, 6.078204e+001
4.602586e+002, 5.957186e+001
4.607407e+002, 5.849288e+001
4.612228e+002, 5.764161e+001
4.617049e+002, 5.699842e+001
4.621870e+002, 5.656628e+001
4.626692e+002, 5.645590e+001
4.631513e+002, 5.620542e+001
4.636334e+002, 5.556511e+001
4.641155e+002, 5.503822e+001
4.645976e+002, 5.492550e+001
4.650797e+002, 5.509586e+001
4.655619e+002, 5.519650e+001
4.660440e+002, 5.497467e+001
4.665261e+002, 5.463444e+001
4.670082e+002, 5.480079e+001
4.674903e+002, 5.569647e+001
4.679724e+002, 5.649398e+001
4.684546e+002, 5.678122e+001
4.689367e+002, 5.703457e+001
4.694188e+002, 5.760926e+001
4.699009e+002, 5.853978e+001
4.703830e+002, 5.959223e+001
4.708651e+002, 6.057896e+001
4.713473e+002, 6.154316e+001
4.718294e+002, 6.265446e+001
4.723115e+002, 6.394563e+001
4.727936e+002, 6.530834e+001
4.732757e+002, 6.670897e+001
4.737578e+002, 6.811617e+001
4.742400e+002, 6.945410e+001
4.747221e+002, 7.066149e+001
4.752042e+002, 7.187874e+001
4.756863e+002, 7.325959e+001
4.761684e+002, 7.473277e+001
4.766505e+002, 7.611426e+001
4.771327e+002, 7.738260e+001
4.776148e+002, 7.843972e+001
4.780969e+002, 7.914684e+001
4.785790e+002, 7.945711e+001
4.790611e+002, 7.966286e+001
4.795432e+002, 7.967473e+001
4.800254e+002, 7.967479e+001
4.805075e+002, 7.996166e+001
4.809896e+002, 8.035594e+001
4.814717e+002, 8.029681e+001
4.819538e+002, 7.944652e+001
4.824359e+002, 7.807533e+001
4.829181e+002, 7.695327e+001
4.834002e+002, 7.621441e+001
4.838823e+002, 7.554433e+001
4.843644e+002, 7.486935e+001
4.848465e+002, 7.430930e+001
4.853286e+002, 7.394135e+001
4.858108e+002, 7.377492e+001
4.862929e+002, 7.377842e+001
4.867750e+002, 7.390946e+001
4.872571e+002, 7.418469e+001
4.877392e+002, 7.474583e+001
4.882213e+002, 7.551321e+001
4.887035e+002, 7.673726e+001
4.891856e+002, 7.855744e+001
4.896677e+002, 8.075572e+001
4.901498e+002, 8.309952e+001
4.906319e+002, 8.553647e+001
4.911140e+002, 8.820876e+001
4.915962e+002, 9.126342e+001
4.920783e+002, 9.469005e+001
4.925604e+002, 9.829036e+001
4.930425e+002, 1.019966e+002
4.935246e+002, 1.059647e+002
4.940067e+002, 1.106137e+002
4.944889e+002, 1.156189e+002
4.949710e+002, 1.202809e+002
4.954531e+002, 1.245944e+002
4.959352e+002, 1.283341e+002
4.964173e+002, 1.314261e+002
4.968994e+002, 1.338212e+002
4.973816e+002, 1.354155e+002
4.978637e+002, 1.362160e+002
4.983458e+002, 1.360462e+002
4.988279e+002, 1.345438e+002
4.993100e+002, 1.315306e+002
4.997921e+002, 1.279312e+002
5.002743e+002, 1.236138e+002
5.007564e+002, 1.188892e+002
5.012385e+002, 1.138407e+002
5.017206e+002, 1.085478e+002
5.022027e+002, 1.032196e+002
5.026848e+002, 9.794639e+001
5.031670e+002, 9.282525e+001
5.036491e+002, 8.821775e+001
5.041312e+002, 8.421321e+001
5.046133e+002, 8.059964e+001
5.050954e+002, 7.738499e+001
5.055775e+002, 7.450331e+001
5.060597e+002, 7.195672e+001
5.065418e+002, 6.970448e+001
5.070239e+002, 6.768690e+001
5.075060e+002, 6.589040e+001
5.079881e+002, 6.427293e+001
5.084702e+002, 6.259157e+001
5.089524e+002, 6.068764e+001
5.094345e+002, 5.908799e+001
5.099166e+002, 5.815114e+001
5.103987e+002, 5.749360e+001
5.108808e+002, 5.679243e+001
5.113629e+002, 5.599486e+001
5.118451e+002, 5.526606e+001
5.123271e+002, 5.475924e+001
5.128093e+002, 5.441862e+001
5.132914e+002, 5.410827e+001
5.137735e+002, 5.382498e+001
5.142556e+002, 5.352395e+001
5.147377e+002, 5.314748e+001
5.152198e+002, 5.273161e+001
5.157020e+002, 5.239025e+001
5.161841e+002, 5.208683e+001
5.166662e+002, 5.191515e+001
5.171483e+002, 5.197213e+001
5.176304e+002, 5.217250e+001
5.181125e+002, 5.233310e+001
5.185947e+002, 5.241483e+001
5.190768e+002, 5.262978e+001
5.195589e+002, 5.325243e+001
5.200410e+002, 5.435645e+001
5.205231e+002, 5.517622e+001
5.210052e+002, 5.551582e+001
5.214874e+002, 5.583995e+001
5.219695e+002, 5.624828e+001
5.224516e+002, 5.675081e+001
5.229337e+002, 5.736197e+001
5.234158e+002, 5.808561e+001
5.238979e+002, 5.885083e+001
5.243801e+002, 5.955743e+001
5.248622e+002, 6.019072e+001
5.253443e+002, 6.082940e+001
5.258264e+002, 6.149633e+001
5.263085e+002, 6.214647e+001
5.267906e+002, 6.279456e+001
5.272728e+002, 6.340696e+001
5.277549e+002, 6.390796e+001
5.282370e+002, 6.422641e+001
5.287191e+002, 6.451254e+001
5.292012e+002, 6.494086e+001
5.296833e+002, 6.550899e+001
5.301655e+002, 6.619256e+001
5.306476e+002, 6.700826e+001
5.311297e+002, 6.789962e+001
5.316118e+002, 6.884086e+001
5.320939e+002, 6.982141e+001
5.325760e+002, 7.074850e+001
5.330582e+002, 7.148982e+001
5.335403e+002, 7.227016e+001
5.340224e+002, 7.336776e+001
5.345045e+002, 7.465859e+001
5.349866e+002, 7.576055e+001
5.354688e+002, 7.650227e+001
5.359509e+002, 7.697723e+001
5.364330e+002, 7.735085e+001
5.369151e+002, 7.762265e+001
5.373972e+002, 7.777319e+001
5.378793e+002, 7.769914e+001
5.383615e+002, 7.761176e+001
5.388436e+002, 7.762816e+001
5.393257e+002, 7.772669e+001
5.398078e+002, 7.782767e+001
5.402899e+002, 7.788351e+001
5.407720e+002, 7.793104e+001
5.412542e+002, 7.807530e+001
5.417363e+002, 7.836652e+001
5.422184e+002, 7.858543e+001
5.427005e+002, 7.887001e+001
5.431826e+002, 7.890981e+001
5.436647e+002, 7.849600e+001
5.441469e+002, 7.766625e+001
5.446290e+002, 7.660374e+001
5.451111e+002, 7.542111e+001
5.455932e+002, 7.404285e+001
5.460753e+002, 7.228048e+001
5.465574e+002, 7.015260e+001
5.470396e+002, 6.797746e+001
5.475217e+002, 6.581957e+001
5.480038e+002, 6.376412e+001
5.484859e+002, 6.192680e+001
5.489680e+002, 6.030143e+001
5.494501e+002, 5.884801e+001
5.499323e+002, 5.765211e+001
5.504144e+002, 5.655263e+001
5.508965e+002, 5.537904e+001
5.513786e+002, 5.418303e+001
5.518607e+002, 5.314425e+001
5.523428e+002, 5.235802e+001
5.528250e+002, 5.179482e+001
5.533071e+002, 5.138659e+001
5.537892e+002, 5.116451e+001
5.542713e+002, 5.105120e+001
5.547534e+002, 5.116945e+001
5.552355e+002, 5.126972e+001
5.557177e+002, 5.116735e+001
5.561998e+002, 5.092370e+001
5.566819e+002, 5.071798e+001
5.571640e+002, 5.064623e+001
5.576461e+002, 5.070019e+001
5.581282e+002, 5.088736e+001
5.586104e+002, 5.122908e+001
5.590925e+002, 5.155964e+001
5.595746e+002, 5.175256e+001
5.600567e+002, 5.201600e+001
5.605388e+002, 5.254673e+001
5.610209e+002, 5.331505e+001
5.615031e+002, 5.412416e+001
5.619852e+002, 5.492623e+001
5.624673e+002, 5.571135e+001
5.629494e+002, 5.637476e+001
5.634315e+002, 5.698042e+001
5.639136e+002, 5.784733e+001
5.643958e+002, 5.913581e+001
5.648779e+002, 6.067037e+001
5.653600e+002, 6.215550e+001
5.658421e+002, 6.351856e+001
5.663242e+002, 6.503458e+001
5.668063e+002, 6.656002e+001
5.672885e+002, 6.838025e+001
5.677706e+002, 7.077645e+001
5.682527e+002, 7.357829e+001
5.687348e+002, 7.640734e+001
5.692169e+002, 7.908830e+001
5.696990e+002, 8.170765e+001
5.701812e+002, 8.436353e+001
5.706633e+002, 8.693416e+001
5.711454e+002, 9.001912e+001
5.716275e+002, 9.405141e+001
5.721096e+002, 9.824764e+001
5.725917e+002, 1.023191e+002
5.730739e+002, 1.062314e+002
5.735560e+002, 1.099422e+002
5.740381e+002, 1.134529e+002
5.745202e+002, 1.167580e+002
5.750023e+002, 1.201204e+002
5.754844e+002, 1.233682e+002
5.759666e+002, 1.254789e+002
5.764487e+002, 1.261542e+002
5.769308e+002, 1.258160e+002
5.774129e+002, 1.247889e+002
5.778950e+002, 1.230319e+002
5.783771e+002, 1.208843e+002
5.788593e+002, 1.185007e+002
5.793414e+002, 1.155632e+002
5.798235e+002, 1.117221e+002
5.803056e+002, 1.072874e+002
5.807877e+002, 1.026627e+002
5.812698e+002, 9.798459e+001
5.817520e+002, 9.343284e+001
5.822341e+002, 8.925406e+001
5.827162e+002, 8.544946e+001
5.831984e+002, 8.169250e+001
5.836805e+002, 7.782049e+001
5.841626e+002, 7.422456e+001
5.846447e+002, 7.098952e+001
5.851268e+002, 6.807133e+001
5.856089e+002, 6.543824e+001
5.860911e+002, 6.308065e+001
5.865732e+002, 6.096859e+001
5.870553e+002, 5.913007e+001
5.875374e+002, 5.751388e+001
5.880195e+002, 5.596134e+001
5.885016e+002, 5.444189e+001
5.889838e+002, 5.305672e+001
5.894659e+002, 5.189574e+001
5.899480e+002, 5.091761e+001
5.904301e+002, 4.996611e+001
5.909122e+002, 4.902156e+001
5.913943e+002, 4.814063e+001
5.918765e+002, 4.738058e+001
5.923586e+002, 4.666500e+001
5.928407e+002, 4.589138e+001
5.933228e+002, 4.506569e+001
5.938049e+002, 4.428531e+001
5.942870e+002, 4.362170e+001
5.947692e+002, 4.305589e+001
5.952513e+002, 4.248174e+001
5.957334e+002, 4.184997e+001
5.962155e+002, 4.130448e+001
5.966976e+002, 4.090815e+001
5.971797e+002, 4.055223e+001
5.976619e+002, 4.015183e+001
5.981440e+002, 3.971785e+001
5.986261e+002, 3.932290e+001
5.991082e+002, 3.901975e+001
5.995903e+002, 3.877375e+001
6.000724e+002, 3.852252e+001
6.005546e+002, 3.826574e+001
6.010367e+002, 3.802544e+001
6.015188e+002, 3.780232e+001
6.020009e+002, 3.760715e+001
6.024830e+002, 3.747651e+001
6.029651e+002, 3.740873e+001
6.034473e+002, 3.728446e+001
6.039294e+002, 3.706181e+001
6.044115e+002, 3.680285e+001
6.048936e+002, 3.646189e+001
6.053757e+002, 3.612820e+001
6.058578e+002, 3.602449e+001
6.063400e+002, 3.622549e+001
6.068221e+002, 3.648755e+001
6.073042e+002, 3.643167e+001
6.077863e+002, 3.597281e+001
6.082684e+002, 3.575858e+001
6.087505e+002, 3.607416e+001
6.092327e+002, 3.630478e+001
6.097148e+002, 3.621635e+001
6.101969e+002, 3.596997e+001
6.106790e+002, 3.573320e+001
6.111611e+002, 3.554803e+001
6.116432e+002, 3.549368e+001
6.121254e+002, 3.574262e+001
6.126075e+002, 3.617712e+001
6.130896e+002, 3.639111e+001
6.135717e+002, 3.632654e+001
6.140538e+002, 3.626812e+001
6.145359e+002, 3.638219e+001
6.150181e+002, 3.662657e+001
6.155002e+002, 3.688664e+001
6.159823e+002, 3.721520e+001
6.164644e+002, 3.744386e+001
6.169465e+002, 3.738062e+001
6.174286e+002, 3.732026e+001
6.179108e+002, 3.764298e+001
6.183929e+002, 3.823088e+001
6.188750e+002, 3.857622e+001
6.193571e+002, 3.833490e+001
6.198392e+002, 3.777110e+001
6.203214e+002, 3.760908e+001
6.208035e+002, 3.800679e+001
6.212856e+002, 3.832276e+001
6.217677e+002, 3.849770e+001
6.222498e+002, 3.856330e+001
6.227319e+002, 3.848821e+001
6.232141e+002, 3.831805e+001
6.236962e+002, 3.816363e+001
6.241783e+002, 3.807702e+001
6.246604e+002, 3.800106e+001
6.251425e+002, 3.786335e+001
6.256246e+002, 3.768770e+001
6.261068e+002, 3.755617e+001
6.265889e+002, 3.748753e+001
6.270710e+002, 3.745446e+001
6.275531e+002, 3.744025e+001
6.280352e+002, 3.744317e+001
6.285173e+002, 3.741820e+001
6.289995e+002, 3.722630e+001
6.294816e+002, 3.718719e+001
6.299637e+002, 3.750205e+001
6.304458e+002, 3.791402e+001
6.309279e+002, 3.814431e+001
6.314100e+002, 3.818296e+001
6.318922e+002, 3.824189e+001
6.323743e+002, 3.849576e+001
6.328564e+002, 3.890436e+001
6.333385e+002, 3.934422e+001
6.338206e+002, 3.984546e+001
6.343027e+002, 4.024947e+001
6.347849e+002, 4.045883e+001
6.352670e+002, 4.059845e+001
6.357491e+002, 4.075012e+001
6.362312e+002, 4.092503e+001
6.367133e+002, 4.122422e+001
6.371954e+002, 4.177263e+001
6.376776e+002, 4.237534e+001
6.381597e+002, 4.282151e+001
6.386418e+002, 4.320166e+001
6.391239e+002, 4.376543e+001
6.396060e+002, 4.459198e+001
6.400881e+002, 4.552259e+001
6.405703e+002, 4.634702e+001
6.410524e+002, 4.704522e+001
6.415345e+002, 4.785836e+001
6.420166e+002, 4.877591e+001
6.424987e+002, 4.983059e+001
6.429808e+002, 5.118171e+001
6.434630e+002, 5.258300e+001
6.439451e+002, 5.367362e+001
6.444272e+002, 5.443538e+001
6.449093e+002, 5.541550e+001
6.453914e+002, 5.723109e+001
6.458735e+002, 5.954202e+001
6.463557e+002, 6.140305e+001
6.468378e+002, 6.279531e+001
6.473199e+002, 6.447304e+001
6.478020e+002, 6.685013e+001
6.482841e+002, 6.954209e+001
6.487662e+002, 7.191013e+001
6.492484e+002, 7.385004e+001
6.497305e+002, 7.607816e+001
6.502126e+002, 7.871203e+001
6.506947e+002, 8.157686e+001
6.511768e+002, 8.457219e+001
6.516589e+002, 8.773908e+001
6.521411e+002, 9.108210e+001
6.526232e+002, 9.461474e+001
6.531053e+002, 9.841862e+001
6.535874e+002, 1.026057e+002
6.540695e+002, 1.071683e+002
6.545516e+002, 1.119945e+002
6.550338e+002, 1.169675e+002
6.555159e+002, 1.223675e+002
6.559980e+002, 1.281790e+002
6.564801e+002, 1.345690e+002
6.569622e+002, 1.419634e+002
6.574443e+002, 1.505009e+002
6.579265e+002, 1.589482e+002
6.584086e+002, 1.666631e+002
6.588907e+002, 1.740348e+002
6.593728e+002, 1.817011e+002
6.598549e+002, 1.894734e+002
6.603370e+002, 1.966506e+002
6.608192e+002, 2.029749e+002
6.613013e+002, 2.079666e+002
6.617834e+002, 2.107507e+002
6.622655e+002, 2.112514e+002
6.627476e+002, 2.098394e+002
6.632297e+002, 2.060762e+002
6.637119e+002, 2.007996e+002
6.641940e+002, 1.939084e+002
6.646761e+002, 1.857712e+002
6.651582e+002, 1.766545e+002
6.656403e+002, 1.666087e+002
6.661224e+002, 1.564483e+002
6.666046e+002, 1.465783e+002
6.670867e+002, 1.371192e+002
6.675688e+002, 1.282423e+002
6.680509e+002, 1.200094e+002
6.685330e+002, 1.124609e+002
6.690151e+002, 1.056785e+002
6.694973e+002, 9.951704e+001
6.699794e+002, 9.368279e+001
6.704615e+002, 8.815682e+001
6.709436e+002, 8.311907e+001
6.714257e+002, 7.848268e+001
6.719078e+002, 7.445321e+001
6.723900e+002, 7.133732e+001
6.728721e+002, 6.884854e+001
6.733542e+002, 6.653688e+001
6.738363e+002, 6.423615e+001
6.743184e+002, 6.202225e+001
6.748005e+002, 5.998551e+001
6.752827e+002, 5.811278e+001
6.757648e+002, 5.627077e+001
6.762469e+002, 5.439754e+001
6.767290e+002, 5.280697e+001
6.772111e+002, 5.177235e+001
6.776932e+002, 5.103675e+001
6.781754e+002, 5.013214e+001
6.786575e+002, 4.902313e+001
6.791396e+002, 4.794367e+001
6.796217e+002, 4.691213e+001
6.801038e+002, 4.594953e+001
6.805859e+002, 4.507504e+001
6.810681e+002, 4.428252e+001
6.815502e+002, 4.356738e+001
6.820323e+002, 4.292890e+001
6.825144e+002, 4.235784e+001
6.829965e+002, 4.188330e+001
6.834786e+002, 4.152090e+001
6.839608e+002, 4.098772e+001
6.844429e+002, 4.014745e+001
6.849250e+002, 3.938585e+001
6.854071e+002, 3.884027e+001
6.858892e+002, 3.846578e+001
6.863713e+002, 3.828589e+001
6.868535e+002, 3.831515e+001
6.873356e+002, 3.825250e+001
6.878177e+002, 3.784898e+001
6.882998e+002, 3.738046e+001
6.887819e+002, 3.714352e+001
6.892640e+002, 3.709145e+001
6.897462e+002, 3.705087e+001
6.902283e+002, 3.695465e+001
6.907104e+002, 3.679147e+001
6.911925e+002, 3.653360e+001
6.916746e+002, 3.616366e+001
6.921567e+002, 3.584892e+001
6.926389e+002, 3.559755e+001
6.931210e+002, 3.539061e+001
6.936031e+002, 3.520890e+001
6.940852e+002, 3.507334e+001
6.945673e+002, 3.504621e+001
6.950494e+002, 3.512077e+001
6.955316e+002, 3.512461e+001
6.960137e+002, 3.489004e+001
6.964958e+002, 3.457056e+001
6.969779e+002, 3.432367e+001
6.974600e+002, 3.416524e+001
6.979421e+002, 3.417395e+001
6.984243e+002, 3.439004e+001
6.989064e+002, 3.468030e+001
6.993885e+002, 3.488948e+001
6.998706e+002, 3.501745e+001
7.003527e+002, 3.506718e+001
7.008348e+002, 3.490882e+001
7.013170e+002, 3.483264e+001
7.017991e+002, 3.498293e+001
7.022812e+002, 3.517536e+001
7.027633e+002, 3.520790e+001
7.032454e+002, 3.508579e+001
7.037275e+002, 3.500824e+001
7.042097e+002, 3.513874e+001
7.046918e+002, 3.535441e+001
7.051739e+002, 3.546145e+001
7.056560e+002, 3.547684e+001
7.061381e+002, 3.549497e+001
7.066202e+002, 3.553559e+001
7.071024e+002, 3.561818e+001
7.075845e+002, 3.575945e+001
7.080666e+002, 3.596057e+001
7.085487e+002, 3.622691e+001
7.090308e+002, 3.668209e+001
7.095129e+002, 3.703491e+001
7.099951e+002, 3.715147e+001
7.104772e+002, 3.721897e+001
7.109593e+002, 3.735880e+001
7.114414e+002, 3.759687e+001
7.119235e+002, 3.794228e+001
7.124056e+002, 3.843119e+001
7.128878e+002, 3.897681e+001
7.133699e+002, 3.945708e+001
7.138520e+002, 3.987574e+001
7.143341e+002, 4.022692e+001
7.148162e+002, 4.049366e+001
7.152983e+002, 4.077809e+001
7.157805e+002, 4.115121e+001
7.162626e+002, 4.161267e+001
7.167447e+002, 4.216657e+001
7.172268e+002, 4.280900e+001
7.177089e+002, 4.354126e+001
7.181910e+002, 4.434573e+001
7.186732e+002, 4.525743e+001
7.191553e+002, 4.636864e+001
7.196374e+002, 4.760204e+001
7.201195e+002, 4.872771e+001
7.206016e+002, 4.959220e+001
7.210837e+002, 5.057202e+001
7.215659e+002, 5.222334e+001
7.220480e+002, 5.444981e+001
7.225301e+002, 5.673451e+001
7.230122e+002, 5.905460e+001
7.234943e+002, 6.132211e+001
7.239764e+002, 6.348446e+001
7.244586e+002, 6.557645e+001
7.249407e+002, 6.773471e+001
7.254228e+002, 7.011931e+001
7.259049e+002, 7.217921e+001
7.263870e+002, 7.387537e+001
7.268691e+002, 7.524131e+001
7.273513e+002, 7.646613e+001
7.278334e+002, 7.731296e+001
7.283155e+002, 7.742468e+001
7.287976e+002, 7.668147e+001
7.292797e+002, 7.513405e+001
7.297618e+002, 7.255171e+001
7.302440e+002, 6.921298e+001
7.307261e+002, 6.606926e+001
7.312082e+002, 6.315107e+001
7.316903e+002, 6.036407e+001
7.321724e+002, 5.768010e+001
7.326545e+002, 5.511943e+001
7.331367e+002, 5.267315e+001
7.336188e+002, 5.031487e+001
7.341009e+002, 4.832261e+001
7.345830e+002, 4.680273e+001
7.350651e+002, 4.550687e+001
7.355472e+002, 4.443385e+001
7.360294e+002, 4.349004e+001
7.365115e+002, 4.261024e+001
7.369936e+002, 4.176737e+001
7.374757e+002, 4.090352e+001
7.379578e+002, 3.988601e+001
7.384399e+002, 3.890747e+001
7.389221e+002, 3.843557e+001
7.394042e+002, 3.843565e+001
7.398863e+002, 3.834942e+001
7.403684e+002, 3.802952e+001
7.408505e+002, 3.763095e+001
7.413326e+002, 3.727666e+001
7.418148e+002, 3.696912e+001
7.422969e+002, 3.673998e+001
7.427790e+002, 3.662703e+001
7.432611e+002, 3.653345e+001
7.437432e+002, 3.643426e+001
7.442253e+002, 3.636345e+001
7.447075e+002, 3.642796e+001
7.451896e+002, 3.654016e+001
7.456717e+002, 3.644240e+001
7.461538e+002, 3.596791e+001
7.466359e+002, 3.544011e+001
7.471180e+002, 3.522160e+001
7.476002e+002, 3.527291e+001
7.480823e+002, 3.551167e+001
7.485644e+002, 3.594056e+001
7.490465e+002, 3.628794e+001
7.495286e+002, 3.639257e+001
7.500107e+002, 3.631420e+001
7.504929e+002, 3.617279e+001
7.509750e+002, 3.583236e+001
7.514571e+002, 3.577540e+001
7.519392e+002, 3.619597e+001
7.524213e+002, 3.665880e+001
7.529034e+002, 3.713105e+001
7.533856e+002, 3.747877e+001
7.538677e+002, 3.743530e+001
7.543498e+002, 3.696882e+001
7.548319e+002, 3.660588e+001
7.553140e+002, 3.688420e+001
7.557961e+002, 3.743728e+001
7.562783e+002, 3.761790e+001
7.567604e+002, 3.748692e+001
7.572425e+002, 3.745201e+001
7.577246e+002, 3.764783e+001
7.582067e+002, 3.799314e+001
7.586888e+002, 3.843253e+001
7.591710e+002, 3.896456e+001
7.596531e+002, 3.921148e+001
7.601352e+002, 3.889451e+001
7.606173e+002, 3.871518e+001
7.610994e+002, 3.892812e+001
7.615815e+002, 3.917685e+001
7.620637e+002, 3.920504e+001
7.625458e+002, 3.903418e+001
7.630279e+002, 3.881192e+001
7.635100e+002, 3.858352e+001
7.639921e+002, 3.834417e+001
7.644742e+002, 3.804565e+001
7.649564e+002, 3.774858e+001
7.654385e+002, 3.760047e+001
7.659206e+002, 3.759620e+001
7.664027e+002, 3.756425e+001
7.668848e+002, 3.739242e+001
7.673669e+002, 3.714121e+001
7.678491e+002, 3.695078e+001
7.683312e+002, 3.682957e+001
7.688133e+002, 3.674360e+001
7.692954e+002, 3.675231e+001
7.697775e+002, 3.671135e+001
7.702596e+002, 3.647541e+001
7.707418e+002, 3.619330e+001
7.712239e+002, 3.608357e+001
7.717060e+002, 3.618647e+001
7.721881e+002, 3.626005e+001
7.726702e+002, 3.619263e+001
7.731523e+002, 3.607830e+001
7.736345e+002, 3.596785e+001
7.741166e+002, 3.587539e+001
7.745987e+002, 3.583047e+001
7.750808e+002, 3.583625e+001
7.755629e+002, 3.585152e+001
7.760450e+002, 3.584874e+001
7.765272e+002, 3.581366e+001
7.770093e+002, 3.564790e+001
7.774914e+002, 3.531049e+001
7.779735e+002, 3.506616e+001
7.784556e+002, 3.499367e+001
7.789377e+002, 3.500074e+001
7.794199e+002, 3.502819e+001
7.799020e+002, 3.507022e+001
7.803841e+002, 3.509860e+001
7.808662e+002, 3.511506e+001
7.813483e+002, 3.511342e+001
7.818304e+002, 3.510022e+001
7.823126e+002, 3.506149e+001
7.827947e+002, 3.497198e+001
7.832768e+002, 3.484789e+001
7.837589e+002, 3.472250e+001
7.842410e+002, 3.460902e+001
7.847231e+002, 3.452714e+001
7.852053e+002, 3.449773e+001
7.856874e+002, 3.451989e+001
7.861695e+002, 3.462453e+001
7.866516e+002, 3.481970e+001
7.871337e+002, 3.492476e+001
7.876158e+002, 3.484810e+001
7.880980e+002, 3.466942e+001
7.885801e+002, 3.449652e+001
7.890622e+002, 3.432433e+001
7.895443e+002, 3.419980e+001
7.900264e+002, 3.419969e+001
7.905085e+002, 3.414827e+001
7.909907e+002, 3.388844e+001
7.914728e+002, 3.364666e+001
7.919549e+002, 3.369513e+001
7.924370e+002, 3.398529e+001
7.929191e+002, 3.418697e+001
7.934012e+002, 3.408803e+001
7.938834e+002, 3.391357e+001
7.943655e+002, 3.388949e+001
7.948476e+002, 3.395261e+001
7.953297e+002, 3.397618e+001
7.958118e+002, 3.394043e+001
7.962939e+002, 3.386590e+001
7.967761e+002, 3.376202e+001
7.972582e+002, 3.364349e+001
7.977403e+002, 3.352312e+001
7.982224e+002, 3.335401e+001
7.987045e+002, 3.340235e+001
7.991866e+002, 3.388939e+001
7.996688e+002, 3.425648e+001
8.001509e+002, 3.413353e+001
8.006330e+002, 3.380958e+001
8.011151e+002, 3.361762e+001
8.015972e+002, 3.358496e+001
8.020793e+002, 3.358679e+001
8.025615e+002, 3.360094e+001
8.030436e+002, 3.362766e+001
8.035257e+002, 3.366650e+001
8.040078e+002, 3.371859e+001
8.044899e+002, 3.379045e+001
8.049720e+002, 3.387941e+001
8.054542e+002, 3.397848e+001
8.059363e+002, 3.410555e+001
8.064184e+002, 3.419554e+001
8.069005e+002, 3.402899e+001
8.073826e+002, 3.362460e+001
8.078647e+002, 3.345607e+001
8.083469e+002, 3.365109e+001
8.088290e+002, 3.384814e+001
8.093111e+002, 3.375794e+001
8.097932e+002, 3.350984e+001
8.102753e+002, 3.351154e+001
8.107574e+002, 3.398151e+001
8.112396e+002, 3.425617e+001
8.117217e+002, 3.418092e+001
8.122038e+002, 3.408953e+001
8.126859e+002, 3.409547e+001
8.131680e+002, 3.418540e+001
8.136501e+002, 3.436823e+001
8.141323e+002, 3.463468e+001
8.146144e+002, 3.483389e+001
8.150965e+002, 3.484039e+001
8.155786e+002, 3.475718e+001
8.160607e+002, 3.464718e+001
8.165428e+002, 3.455046e+001
8.170250e+002, 3.461811e+001
8.175071e+002, 3.486493e+001
8.179892e+002, 3.503444e+001
8.184713e+002, 3.488205e+001
8.189534e+002, 3.453902e+001
8.194355e+002, 3.452457e+001
8.199177e+002, 3.495020e+001
8.203998e+002, 3.517013e+001
8.208819e+002, 3.498970e+001
8.213640e+002, 3.480825e+001
8.218461e+002, 3.492739e+001
8.223282e+002, 3.518806e+001
8.228104e+002, 3.524978e+001
8.232925e+002, 3.502147e+001
8.237746e+002, 3.492241e+001
8.242567e+002, 3.518949e+001
8.247388e+002, 3.544321e+001
8.252209e+002, 3.542023e+001
8.257031e+002, 3.526692e+001
8.261852e+002, 3.518586e+001
8.266673e+002, 3.522749e+001
8.271494e+002, 3.535751e+001
8.276315e+002, 3.559185e+001
8.281136e+002, 3.585110e+001
8.285958e+002, 3.602184e+001
8.290779e+002, 3.610192e+001
8.295600e+002, 3.603065e+001
8.300421e+002, 3.578991e+001
8.305242e+002, 3.565168e+001
8.310063e+002, 3.584161e+001
8.314885e+002, 3.623620e+001
8.319706e+002, 3.645034e+001
8.324527e+002, 3.641816e+001
8.329348e+002, 3.637559e+001
8.334169e+002, 3.621793e+001
8.338990e+002, 3.618933e+001
8.343812e+002, 3.648951e+001
8.348633e+002, 3.690681e+001
8.353454e+002, 3.718300e+001
8.358275e+002, 3.729054e+001
8.363096e+002, 3.735692e+001
8.367917e+002, 3.740621e+001
8.372739e+002, 3.744453e+001
8.377560e+002, 3.743579e+001
8.382381e+002, 3.743887e+001
8.387202e+002, 3.753432e+001
8.392023e+002, 3.773119e+001
8.396844e+002, 3.800224e+001
8.401666e+002, 3.834206e+001
8.406487e+002, 3.869617e+001
8.411308e+002, 3.895956e+001
8.416129e+002, 3.914423e+001
8.420950e+002, 3.933912e+001
8.425771e+002, 3.955831e+001
8.430593e+002, 3.970486e+001
8.435414e+002, 3.967174e+001
8.440235e+002, 3.965538e+001
8.445056e+002, 4.006987e+001
8.449877e+002, 4.107140e+001
8.454698e+002, 4.170320e+001
8.459520e+002, 4.165800e+001
8.464341e+002, 4.164386e+001
8.469162e+002, 4.180811e+001
8.473983e+002, 4.207768e+001
8.478804e+002, 4.239547e+001
8.483625e+002, 4.275864e+001
8.488447e+002, 4.317941e+001
8.493268e+002, 4.363057e+001
8.498089e+002, 4.418783e+001
8.502910e+002, 4.496926e+001
8.507731e+002, 4.583234e+001
8.512552e+002, 4.658595e+001
8.517374e+002, 4.726078e+001
8.522195e+002, 4.803780e+001
8.527016e+002, 4.899965e+001
8.531837e+002, 5.001142e+001
8.536658e+002, 5.088865e+001
8.541479e+002, 5.166083e+001
8.546301e+002, 5.244159e+001
8.551122e+002, 5.322359e+001
8.555943e+002, 5.425678e+001
8.560764e+002, 5.567634e+001
8.565585e+002, 5.715453e+001
8.570406e+002, 5.830646e+001
8.575228e+002, 5.917344e+001
8.580049e+002, 6.031306e+001
8.584870e+002, 6.189761e+001
8.589691e+002, 6.345405e+001
8.594512e+002, 6.489122e+001
8.599333e+002, 6.634451e+001
8.604155e+002, 6.787624e+001
8.608976e+002, 6.948173e+001
8.613797e+002, 7.124289e+001
8.618618e+002, 7.325668e+001
8.623439e+002, 7.492141e+001
8.628260e+002, 7.549703e+001
8.633082e+002, 7.609365e+001
8.637903e+002, 7.778384e+001
8.642724e+002, 8.004865e+001
8.647545e+002, 8.198302e+001
8.652366e+002, 8.338879e+001
8.657188e+002, 8.459468e+001
8.662009e+002, 8.587231e+001
8.666830e+002, 8.709748e+001
8.671651e+002, 8.809591e+001
8.676472e+002, 8.884631e+001
8.681293e+002, 8.914359e+001
8.686115e+002, 8.894214e+001
8.690936e+002, 8.862588e+001
8.695757e+002, 8.847060e+001
8.700578e+002, 8.821989e+001
8.705399e+002, 8.728332e+001
8.710220e+002, 8.546859e+001
8.715042e+002, 8.393624e+001
8.719863e+002, 8.275957e+001
8.724684e+002, 8.176054e+001
8.729505e+002, 8.097898e+001
8.734326e+002, 8.029064e+001
8.739147e+002, 7.962164e+001
8.743969e+002, 7.896119e+001
8.748790e+002, 7.826505e+001
8.753611e+002, 7.735322e+001
8.758432e+002, 7.664966e+001
8.763253e+002, 7.647898e+001
8.768074e+002, 7.642801e+001
8.772896e+002, 7.612228e+001
8.777717e+002, 7.563128e+001
8.782538e+002, 7.519949e+001
8.787359e+002, 7.491547e+001
8.792180e+002, 7.467074e+001
8.797001e+002, 7.446085e+001
8.801823e+002, 7.417209e+001
8.806644e+002, 7.356582e+001
8.811465e+002, 7.268204e+001
8.816286e+002, 7.170760e+001
8.821107e+002, 7.069321e+001
8.825928e+002, 6.956730e+001
8.830750e+002, 6.827065e+001
8.835571e+002, 6.683706e+001
8.840392e+002, 6.537084e+001
8.845213e+002, 6.386452e+001
8.850034e+002, 6.239598e+001
8.854855e+002, 6.092860e+001
8.859677e+002, 5.962497e+001
8.864498e+002, 5.861627e+001
8.869319e+002, 5.779404e+001
8.874140e+002, 5.698827e+001
8.878961e+002, 5.619985e+001
8.883782e+002, 5.544031e+001
8.888604e+002, 5.459883e+001
8.893425e+002, 5.393555e+001
8.898246e+002, 5.356626e+001
8.903067e+002, 5.336628e+001
8.907888e+002, 5.330434e+001
8.912709e+002, 5.331164e+001
8.917531e+002, 5.317691e+001
8.922352e+002, 5.270486e+001
8.927173e+002, 5.248096e+001
8.931994e+002, 5.310822e+001
8.936815e+002, 5.404914e+001
8.941636e+002, 5.474815e+001
8.946458e+002, 5.520423e+001
8.951279e+002, 5.554580e+001
8.956100e+002, 5.581425e+001
8.960921e+002, 5.592686e+001
8.965742e+002, 5.571405e+001
8.970563e+002, 5.538060e+001
8.975385e+002, 5.555526e+001
8.980206e+002, 5.619032e+001
8.985027e+002, 5.668166e+001
8.989848e+002, 5.692976e+001
8.994669e+002, 5.696024e+001
8.999490e+002, 5.676825e+001
9.004312e+002, 5.640867e+001
9.009133e+002, 5.598475e+001
9.013954e+002, 5.544814e+001
9.018775e+002, 5.507989e+001
9.023596e+002, 5.499033e+001
9.028417e+002, 5.487977e+001
9.033239e+002, 5.466423e+001
9.038060e+002, 5.438015e+001
9.042881e+002, 5.412372e+001
9.047702e+002, 5.385532e+001
9.052523e+002, 5.331913e+001
9.057344e+002, 5.231486e+001
9.062166e+002, 5.129181e+001
9.066987e+002, 5.045966e+001
9.071808e+002, 4.954480e+001
9.076629e+002, 4.825811e+001
9.081450e+002, 4.677323e+001
9.086271e+002, 4.540032e+001
9.091093e+002, 4.422742e+001
9.095914e+002, 4.316433e+001
9.100735e+002, 4.222858e+001
9.105556e+002, 4.131998e+001
9.110377e+002, 4.026170e+001
9.115198e+002, 3.916460e+001
9.120020e+002, 3.830534e+001
9.124841e+002, 3.769370e+001
9.129662e+002, 3.707677e+001
9.134483e+002, 3.628364e+001
9.139304e+002, 3.547727e+001
9.144125e+002, 3.494492e+001
9.148947e+002, 3.465696e+001
9.153768e+002, 3.438068e+001
9.158589e+002, 3.410997e+001
9.163410e+002, 3.379497e+001
9.168231e+002, 3.340178e+001
9.173052e+002, 3.302435e+001
9.177874e+002, 3.277880e+001
9.182695e+002, 3.264759e+001
9.187516e+002, 3.246255e+001
9.192337e+002, 3.217171e+001
9.197158e+002, 3.195463e+001
9.201979e+002, 3.190282e+001
9.206801e+002, 3.182991e+001
9.211622e+002, 3.158793e+001
9.216443e+002, 3.127785e+001
9.221264e+002, 3.106319e+001
9.226085e+002, 3.095946e+001
9.230906e+002, 3.087076e+001
9.235728e+002, 3.072207e+001
9.240549e+002, 3.066295e+001
9.245370e+002, 3.078979e+001
9.250191e+002, 3.100035e+001
9.255012e+002, 3.125502e+001
9.259833e+002, 3.150184e+001
9.264655e+002, 3.163653e+001
9.269476e+002, 3.161441e+001
9.274297e+002, 3.149407e+001
9.279118e+002, 3.119210e+001
9.283939e+002, 3.091088e+001
9.288760e+002, 3.093323e+001
9.293582e+002, 3.115187e+001
9.298403e+002, 3.129067e+001
9.303224e+002, 3.128799e+001
9.308045e+002, 3.129924e+001
9.312866e+002, 3.146390e+001
9.317687e+002, 3.168746e+001
9.322509e+002, 3.174221e+001
9.327330e+002, 3.169100e+001
9.332151e+002, 3.185808e+001
9.336972e+002, 3.226797e+001
9.341793e+002, 3.263459e+001
9.346614e+002, 3.280823e+001
9.351436e+002, 3.293063e+001
9.356257e+002, 3.321429e+001
9.361078e+002, 3.364904e+001
9.365899e+002, 3.404411e+001
9.370720e+002, 3.441560e+001
9.375541e+002, 3.465562e+001
9.380363e+002, 3.467401e+001
9.385184e+002, 3.469551e+001
9.390005e+002, 3.490145e+001
9.394826e+002, 3.522208e+001
9.399647e+002, 3.545447e+001
9.404468e+002, 3.551927e+001
9.409290e+002, 3.571094e+001
9.414111e+002, 3.622962e+001
9.418932e+002, 3.661823e+001
9.423753e+002, 3.668385e+001
9.428574e+002, 3.661189e+001
9.433395e+002, 3.651560e+001
9.438217e+002, 3.643099e+001
9.443038e+002, 3.647134e+001
9.447859e+002, 3.673791e+001
9.452680e+002, 3.698370e+001
9.457501e+002, 3.701795e+001
9.462322e+002, 3.709756e+001
9.467144e+002, 3.746107e+001
9.471965e+002, 3.798968e+001
9.476786e+002, 3.847945e+001
9.481607e+002, 3.888506e+001
9.486428e+002, 3.927447e+001
9.491249e+002, 3.961107e+001
9.496071e+002, 4.005140e+001
9.500892e+002, 4.075506e+001
9.505713e+002, 4.166805e+001
9.510534e+002, 4.277019e+001
9.515355e+002, 4.399809e+001
9.520176e+002, 4.518261e+001
9.524998e+002, 4.624744e+001
9.529819e+002, 4.722507e+001
9.534640e+002, 4.814943e+001
9.539461e+002, 4.902327e+001
9.544282e+002, 4.991015e+001
9.549103e+002, 5.078255e+001
9.553925e+002, 5.142295e+001
9.558746e+002, 5.178992e+001
9.563567e+002, 5.187808e+001
9.568388e+002, 5.165010e+001
9.573209e+002, 5.126443e+001
9.578030e+002, 5.112751e+001
9.582852e+002, 5.129684e+001
9.587673e+002, 5.098915e+001
9.592494e+002, 5.007024e+001
9.597315e+002, 4.919265e+001
9.602136e+002, 4.850954e+001
9.606957e+002, 4.802847e+001
9.611779e+002, 4.779865e+001
9.616600e+002, 4.777517e+001
9.621421e+002, 4.771143e+001
9.626242e+002, 4.745065e+001
9.631063e+002, 4.746386e+001
9.635884e+002, 4.791705e+001
9.640706e+002, 4.844289e+001
9.645527e+002, 4.875723e+001
9.650348e+002, 4.916881e+001
9.655169e+002, 5.009157e+001
9.659990e+002, 5.149800e+001
9.664811e+002, 5.286031e+001
9.669633e+002, 5.391344e+001
9.674454e+002, 5.517830e+001
9.679275e+002, 5.685294e+001
9.684096e+002, 5.870185e+001
9.688917e+002, 6.063066e+001
9.693738e+002, 6.260312e+001
9.698560e+002, 6.468185e+001
9.703381e+002, 6.686369e+001
9.708202e+002, 6.874883e+001
9.713023e+002, 7.015170e+001
9.717844e+002, 7.119376e+001
9.722665e+002, 7.195300e+001
9.727487e+002, 7.238939e+001
9.732308e+002, 7.247038e+001
9.737129e+002, 7.217666e+001
9.741950e+002, 7.146147e+001
9.746771e+002, 7.030928e+001
9.751592e+002, 6.881696e+001
9.756414e+002, 6.689093e+001
9.761235e+002, 6.481464e+001
9.766056e+002, 6.301117e+001
9.770877e+002, 6.136502e+001
9.775698e+002, 5.949833e+001
9.780519e+002, 5.742650e+001
9.785341e+002, 5.562941e+001
9.790162e+002, 5.440871e+001
9.794983e+002, 5.345541e+001
9.799804e+002, 5.223671e+001
9.804625e+002, 5.090217e+001
9.809446e+002, 5.005614e+001
9.814268e+002, 4.968201e+001
9.819089e+002, 4.949356e+001
9.823910e+002, 4.941604e+001
9.828731e+002, 4.942301e+001
9.833552e+002, 4.949467e+001
9.838373e+002, 4.963357e+001
9.843195e+002, 4.981225e+001
9.848016e+002, 5.001965e+001
9.852837e+002, 5.054934e+001
9.857658e+002, 5.147506e+001
9.862479e+002, 5.236119e+001
9.867300e+002, 5.307392e+001
9.872122e+002, 5.364215e+001
9.876943e+002, 5.406975e+001
9.881764e+002, 5.439484e+001
9.886585e+002, 5.482029e+001
9.891406e+002, 5.534729e+001
9.896227e+002, 5.596500e+001
9.901049e+002, 5.661260e+001
9.905870e+002, 5.746411e+001
9.910691e+002, 5.859717e+001
9.915512e+002, 5.996006e+001
9.920333e+002, 6.156843e+001
9.925154e+002, 6.340721e+001
9.929976e+002, 6.515202e+001
9.934797e+002, 6.651833e+001
9.939618e+002, 6.822387e+001
9.944439e+002, 7.019126e+001
9.949260e+002, 7.264111e+001
9.954081e+002, 7.584304e+001
9.958903e+002, 7.950035e+001
9.963724e+002, 8.307593e+001
9.968545e+002, 8.655788e+001
9.973366e+002, 9.089054e+001
9.978187e+002, 9.684572e+001
9.983008e+002, 1.028598e+002
9.987830e+002, 1.084197e+002
9.992651e+002, 1.139805e+002
9.997472e+002, 1.200125e+002
1.000229e+003, 1.262212e+002
1.000711e+003, 1.322705e+002
1.001194e+003, 1.380495e+002
1.001676e+003, 1.430941e+002
1.002158e+003, 1.474145e+002
1.002640e+003, 1.506894e+002
1.003122e+003, 1.531267e+002
1.003604e+003, 1.541255e+002
1.004086e+003, 1.527943e+002
1.004568e+003, 1.495471e+002
1.005050e+003, 1.452540e+002
1.005533e+003, 1.402128e+002
1.006015e+003, 1.349837e+002
1.006497e+003, 1.299499e+002
1.006979e+003, 1.249138e+002
1.007461e+003, 1.194993e+002
1.007943e+003, 1.140445e+002
1.008425e+003, 1.090450e+002
1.008907e+003, 1.045321e+002
1.009390e+003, 1.005054e+002
1.009872e+003, 9.693801e+001
1.010354e+003, 9.364382e+001
1.010836e+003, 9.043391e+001
1.011318e+003, 8.735369e+001
1.011800e+003, 8.442781e+001
1.012282e+003, 8.172302e+001
1.012764e+003, 7.950114e+001
1.013246e+003, 7.770853e+001
1.013729e+003, 7.585473e+001
1.014211e+003, 7.367139e+001
1.014693e+003, 7.135729e+001
1.015175e+003, 6.908495e+001
1.015657e+003, 6.690639e+001
1.016139e+003, 6.502394e+001
1.016621e+003, 6.338766e+001
1.017103e+003, 6.173515e+001
1.017586e+003, 6.002012e+001
1.018068e+003, 5.836097e+001
1.018550e+003, 5.684103e+001
1.019032e+003, 5.541095e+001
1.019514e+003, 5.400550e+001
1.019996e+003, 5.263166e+001
1.020478e+003, 5.135150e+001
1.020960e+003, 5.016556e+001
1.021442e+003, 4.923538e+001
1.021925e+003, 4.861479e+001
1.022407e+003, 4.801372e+001
1.022889e+003, 4.722670e+001
1.023371e+003, 4.636624e+001
1.023853e+003, 4.563966e+001
1.024335e+003, 4.504842e+001
1.024817e+003, 4.463184e+001
1.025299e+003, 4.443423e+001
1.025781e+003, 4.402850e+001
1.026264e+003, 4.324223e+001
1.026746e+003, 4.251668e+001
1.027228e+003, 4.220374e+001
1.027710e+003, 4.213690e+001
1.028192e+003, 4.189438e+001
1.028674e+003, 4.142231e+001
1.029156e+003, 4.122675e+001
1.029638e+003, 4.136565e+001
1.030120e+003, 4.160366e+001
1.030603e+003, 4.193604e+001
1.031085e+003, 4.222439e+001
1.031567e+003, 4.231280e+001
1.032049e+003, 4.231767e+001
1.032531e+003, 4.255518e+001
1.033013e+003, 4.306952e+001
1.033495e+003, 4.363136e+001
1.033977e+003, 4.429477e+001
1.034460e+003, 4.488472e+001
1.034942e+003, 4.529023e+001
1.035424e+003, 4.570882e+001
1.035906e+003, 4.632481e+001
1.036388e+003, 4.705877e+001
1.036870e+003, 4.768641e+001
1.037352e+003, 4.819070e+001
1.037834e+003, 4.864207e+001
1.038317e+003, 4.913279e+001
1.038799e+003, 4.942630e+001
1.039281e+003, 4.944218e+001
1.039763e+003, 4.927173e+001
1.040245e+003, 4.903436e+001
1.040727e+003, 4.865710e+001
1.041209e+003, 4.788279e+001
1.041691e+003, 4.652412e+001
1.042173e+003, 4.537425e+001
1.042656e+003, 4.467819e+001
1.043138e+003, 4.386464e+001
1.043620e+003, 4.263337e+001
1.044102e+003, 4.138317e+001
1.044584e+003, 4.040428e+001
1.045066e+003, 3.964077e+001
1.045548e+003, 3.895782e+001
1.046030e+003, 3.837072e+001
1.046512e+003, 3.776547e+001
1.046995e+003, 3.703595e+001
1.047477e+003, 3.641129e+001
1.047959e+003, 3.592685e+001
1.048441e+003, 3.560089e+001
1.048923e+003, 3.552276e+001
1.049405e+003, 3.559806e+001
1.049887e+003, 3.558763e+001
1.050369e+003, 3.541708e+001
1.050852e+003, 3.540877e+001
1.051334e+003, 3.591042e+001
1.051816e+003, 3.620831e+001
1.052298e+003, 3.579685e+001
1.052780e+003, 3.532163e+001
1.053262e+003, 3.534349e+001
1.053744e+003, 3.570670e+001
1.054226e+003, 3.603439e+001
1.054708e+003, 3.629026e+001
1.055191e+003, 3.631704e+001
1.055673e+003, 3.593306e+001
1.056155e+003, 3.549446e+001
1.056637e+003, 3.516990e+001
1.057119e+003, 3.481889e+001
1.057601e+003, 3.427456e+001
1.058083e+003, 3.362576e+001
1.058565e+003, 3.307027e+001
1.059047e+003, 3.265180e+001
1.059530e+003, 3.224537e+001
1.060012e+003, 3.173939e+001
1.060494e+003, 3.133461e+001
1.060976e+003, 3.128351e+001
1.061458e+003, 3.121776e+001
1.061940e+003, 3.071821e+001
1.062422e+003, 3.001115e+001
1.062904e+003, 2.959471e+001
1.063387e+003, 2.956240e+001
1.063869e+003, 2.949143e+001
1.064351e+003, 2.919577e+001
1.064833e+003, 2.886629e+001
1.065315e+003, 2.851206e+001
1.065797e+003, 2.822949e+001
1.066279e+003, 2.813193e+001
1.066761e+003, 2.815101e+001
1.067244e+003, 2.819484e+001
1.067726e+003, 2.823619e+001
1.068208e+003, 2.818271e+001
1.068690e+003, 2.792057e+001
1.069172e+003, 2.765819e+001
1.069654e+003, 2.749349e+001
1.070136e+003, 2.736366e+001
1.070618e+003, 2.722893e+001
1.071100e+003, 2.708886e+001
1.071583e+003, 2.695244e+001
1.072065e+003, 2.682071e+001
1.072547e+003, 2.668392e+001
1.073029e+003, 2.649543e+001
1.073511e+003, 2.637539e+001
1.073993e+003, 2.651535e+001
1.074475e+003, 2.661153e+001
1.074957e+003, 2.629731e+001
1.075439e+003, 2.585791e+001
1.075922e+003, 2.575878e+001
1.076404e+003, 2.600876e+001
1.076886e+003, 2.622245e+001
1.077368e+003, 2.628775e+001
1.077850e+003, 2.622418e+001
1.078332e+003, 2.590891e+001
1.078814e+003, 2.560685e+001
1.079297e+003, 2.552560e+001
1.079779e+003, 2.556630e+001
1.080261e+003, 2.560962e+001
1.080743e+003, 2.563374e+001
1.081225e+003, 2.565121e+001
1.081707e+003, 2.568872e+001
1.082189e+003, 2.564381e+001
1.082671e+003, 2.533622e+001
1.083153e+003, 2.508069e+001
1.083635e+003, 2.514859e+001
1.084118e+003, 2.533443e+001
1.084600e+003, 2.540291e+001
1.085082e+003, 2.535901e+001
1.085564e+003, 2.532483e+001
1.086046e+003, 2.534633e+001
1.086528e+003, 2.531553e+001
1.087010e+003, 2.512068e+001
1.087492e+003, 2.494064e+001
1.087975e+003, 2.489395e+001
1.088457e+003, 2.489550e+001
1.088939e+003, 2.485038e+001
1.089421e+003, 2.477830e+001
1.089903e+003, 2.476013e+001
1.090385e+003, 2.482084e+001
1.090867e+003, 2.484512e+001
1.091349e+003, 2.478025e+001
1.091832e+003, 2.468065e+001
1.092314e+003, 2.450101e+001
1.092796e+003, 2.436167e+001
1.093278e+003, 2.440971e+001
1.093760e+003, 2.455775e+001
1.094242e+003, 2.461394e+001
1.094724e+003, 2.454838e+001
1.095206e+003, 2.455425e+001
1.095688e+003, 2.479361e+001
1.096171e+003, 2.497492e+001
1.096653e+003, 2.493263e+001
1.097135e+003, 2.486422e+001
1.097617e+003, 2.490731e+001
1.098099e+003, 2.501267e+001
1.098581e+003, 2.510397e+001
1.099063e+003, 2.517145e+001
1.099545e+003, 2.522040e+001
1.100027e+003, 2.514117e+001
1.100510e+003, 2.523246e+001
1.100992e+003, 2.572978e+001
1.101474e+003, 2.623455e+001
1.101956e+003, 2.652142e+001
1.102438e+003, 2.670509e+001
1.102920e+003, 2.689441e+001
1.103402e+003, 2.710967e+001
1.103884e+003, 2.739237e+001
1.104367e+003, 2.778617e+001
1.104849e+003, 2.815346e+001
1.105331e+003, 2.841799e+001
1.105813e+003, 2.871688e+001
1.106295e+003, 2.908738e+001
1.106777e+003, 2.952875e+001
1.107259e+003, 3.004217e+001
1.107741e+003, 3.062100e+001
1.108224e+003, 3.124431e+001
1.108706e+003, 3.189996e+001
1.109188e+003, 3.262937e+001
1.109670e+003, 3.344455e+001
1.110152e+003, 3.431981e+001
1.110634e+003, 3.539293e+001
1.111116e+003, 3.638298e+001
1.111598e+003, 3.712057e+001
1.112080e+003, 3.764787e+001
1.112563e+003, 3.806495e+001
1.113045e+003, 3.839088e+001
1.113527e+003, 3.842956e+001
1.114009e+003, 3.802217e+001
1.114491e+003, 3.758497e+001
1.114973e+003, 3.715923e+001
1.115455e+003, 3.671013e+001
1.115937e+003, 3.626795e+001
1.116419e+003, 3.575220e+001
1.116902e+003, 3.502207e+001
1.117384e+003, 3.410456e+001
1.117866e+003, 3.329900e+001
1.118348e+003, 3.267527e+001
1.118830e+003, 3.199761e+001
1.119312e+003, 3.122146e+001
1.119794e+003, 3.045889e+001
1.120276e+003, 2.972344e+001
1.120759e+003, 2.906166e+001
1.121241e+003, 2.850728e+001
1.121723e+003, 2.806114e+001
1.122205e+003, 2.773536e+001
1.122687e+003, 2.757499e+001
1.123169e+003, 2.731740e+001
1.123651e+003, 2.693991e+001
1.124133e+003, 2.653378e+001
1.124615e+003, 2.611658e+001
1.125098e+003, 2.567386e+001
1.125580e+003, 2.515954e+001
1.126062e+003, 2.468943e+001
1.126544e+003, 2.452795e+001
1.127026e+003, 2.466563e+001
1.127508e+003, 2.459411e+001
1.127990e+003, 2.428382e+001
1.128472e+003, 2.400915e+001
1.128954e+003, 2.380696e+001
1.129437e+003, 2.369130e+001
1.129919e+003, 2.368802e+001
1.130401e+003, 2.365812e+001
1.130883e+003, 2.339388e+001
1.131365e+003, 2.299815e+001
1.131847e+003, 2.294759e+001
1.132329e+003, 2.321380e+001
1.132811e+003, 2.321749e+001
1.133294e+003, 2.292215e+001
1.133776e+003, 2.264421e+001
1.134258e+003, 2.248893e+001
1.134740e+003, 2.240215e+001
1.135222e+003, 2.234936e+001
1.135704e+003, 2.229140e+001
1.136186e+003, 2.210831e+001
1.136668e+003, 2.185773e+001
1.137151e+003, 2.181390e+001
1.137633e+003, 2.193030e+001
1.138115e+003, 2.193060e+001
1.138597e+003, 2.177507e+001
1.139079e+003, 2.164241e+001
1.139561e+003, 2.163257e+001
1.140043e+003, 2.165721e+001
1.140525e+003, 2.155434e+001
1.141007e+003, 2.145441e+001
1.141490e+003, 2.175814e+001
1.141972e+003, 2.220434e+001
1.142454e+003, 2.208812e+001
1.142936e+003, 2.152366e+001
1.143418e+003, 2.122809e+001
1.143900e+003, 2.141842e+001
1.144382e+003, 2.161636e+001
1.144864e+003, 2.143965e+001
1.145346e+003, 2.115409e+001
1.145829e+003, 2.098779e+001
1.146311e+003, 2.092535e+001
1.146793e+003, 2.103842e+001
1.147275e+003, 2.120205e+001
1.147757e+003, 2.115087e+001
1.148239e+003, 2.089045e+001
1.148721e+003, 2.066497e+001
1.149203e+003, 2.056354e+001
1.149686e+003, 2.060711e+001
1.150168e+003, 2.094465e+001
1.150650e+003, 2.128058e+001
1.151132e+003, 2.139062e+001
1.151614e+003, 2.138564e+001
1.152096e+003, 2.133664e+001
1.152578e+003, 2.130371e+001
1.153060e+003, 2.143815e+001
1.153542e+003, 2.178309e+001
1.154025e+003, 2.193706e+001
1.154507e+003, 2.156287e+001
1.154989e+003, 2.125211e+001
1.155471e+003, 2.128101e+001
1.155953e+003, 2.136394e+001
1.156435e+003, 2.134411e+001
1.156917e+003, 2.124342e+001
1.157399e+003, 2.104248e+001
1.157881e+003, 2.077525e+001
1.158364e+003, 2.071271e+001
1.158846e+003, 2.105913e+001
1.159328e+003, 2.127047e+001
1.159810e+003, 2.128776e+001
1.160292e+003, 2.119550e+001
1.160774e+003, 2.089666e+001
1.161256e+003, 2.063135e+001
1.161738e+003, 2.061133e+001
1.162221e+003, 2.075242e+001
1.162703e+003, 2.086551e+001
1.163185e+003, 2.095947e+001
1.163667e+003, 2.093435e+001
1.164149e+003, 2.069890e+001
1.164631e+003, 2.063380e+001
1.165113e+003, 2.087629e+001
1.165595e+003, 2.104611e+001
1.166078e+003, 2.091592e+001
1.166560e+003, 2.072587e+001
1.167042e+003, 2.080206e+001
1.167524e+003, 2.105254e+001
1.168006e+003, 2.098710e+001
1.168488e+003, 2.058506e+001
1.168970e+003, 2.051125e+001
1.169452e+003, 2.081260e+001
1.169934e+003, 2.096379e+001
1.170417e+003, 2.080959e+001
1.170899e+003, 2.062556e+001
1.171381e+003, 2.061560e+001
1.171863e+003, 2.067392e+001
1.172345e+003, 2.061055e+001
1.172827e+003, 2.046986e+001
1.173309e+003, 2.039281e+001
1.173791e+003, 2.038099e+001
1.174273e+003, 2.047105e+001
1.174756e+003, 2.064033e+001
1.175238e+003, 2.077655e+001
1.175720e+003, 2.083238e+001
1.176202e+003, 2.079525e+001
1.176684e+003, 2.061193e+001
1.177166e+003, 2.041512e+001
1.177648e+003, 2.037829e+001
1.178130e+003, 2.042841e+001
1.178613e+003, 2.046996e+001
1.179095e+003, 2.050590e+001
1.179577e+003, 2.057863e+001
1.180059e+003, 2.067529e+001
1.180541e+003, 2.070141e+001
1.181023e+003, 2.059775e+001
1.181505e+003, 2.053832e+001
1.181987e+003, 2.069090e+001
1.182469e+003, 2.084924e+001
1.182952e+003, 2.087134e+001
1.183434e+003, 2.083677e+001
1.183916e+003, 2.084279e+001
1.184398e+003, 2.084979e+001
1.184880e+003, 2.073332e+001
1.185362e+003, 2.048390e+001
1.185844e+003, 2.034111e+001
1.186326e+003, 2.038616e+001
1.186808e+003, 2.050194e+001
1.187291e+003, 2.080548e+001
1.187773e+003, 2.100743e+001
1.188255e+003, 2.086156e+001
1.188737e+003, 2.065999e+001
1.189219e+003, 2.066542e+001
1.189701e+003, 2.084296e+001
1.190183e+003, 2.112659e+001
1.190665e+003, 2.161362e+001
1.191148e+003, 2.165340e+001
1.191630e+003, 2.095432e+001
1.192112e+003, 2.066462e+001
1.192594e+003, 2.112885e+001
1.193076e+003, 2.157147e+001
1.193558e+003, 2.159568e+001
1.194040e+003, 2.138249e+001
1.194522e+003, 2.112812e+001
1.195005e+003, 2.086836e+001
1.195487e+003, 2.074960e+001
1.195969e+003, 2.077060e+001
1.196451e+003, 2.095922e+001
1.196933e+003, 2.129918e+001
1.197415e+003, 2.139215e+001
1.197897e+003, 2.114720e+001
1.198379e+003, 2.087871e+001
1.198861e+003, 2.078134e+001
1.199344e+003, 2.080806e+001
1.199826e+003, 2.096530e+001
1.200308e+003, 2.115286e+001
1.200790e+003, 2.113629e+001
1.201272e+003, 2.100005e+001
1.201754e+003, 2.093827e+001
1.202236e+003, 2.093627e+001
1.202718e+003, 2.085426e+001
1.203200e+003, 2.067050e+001
1.203683e+003, 2.054567e+001
1.204165e+003, 2.058849e+001
1.204647e+003, 2.068193e+001
1.205129e+003, 2.077076e+001
1.205611e+003, 2.083844e+001
1.206093e+003, 2.086243e+001
1.206575e+003, 2.086229e+001
1.207057e+003, 2.084035e+001
1.207540e+003, 2.082000e+001
1.208022e+003, 2.088534e+001
1.208504e+003, 2.107067e+001
1.208986e+003, 2.110109e+001
1.209468e+003, 2.068209e+001
1.209950e+003, 2.044455e+001
1.210432e+003, 2.063997e+001
1.210914e+003, 2.091397e+001
1.211396e+003, 2.120026e+001
1.211879e+003, 2.137950e+001
1.212361e+003, 2.126627e+001
1.212843e+003, 2.095188e+001
1.213325e+003, 2.081088e+001
1.213807e+003, 2.088588e+001
1.214289e+003, 2.093457e+001
1.214771e+003, 2.095570e+001
1.215253e+003, 2.093836e+001
1.215735e+003, 2.085439e+001
1.216218e+003, 2.089333e+001
1.216700e+003, 2.119687e+001
1.217182e+003, 2.145723e+001
1.217664e+003, 2.124375e+001
1.218146e+003, 2.075895e+001
1.218628e+003, 2.067684e+001
1.219110e+003, 2.090855e+001
1.219592e+003, 2.100442e+001
1.220075e+003, 2.095840e+001
1.220557e+003, 2.086956e+001
1.221039e+003, 2.077925e+001
1.221521e+003, 2.077596e+001
1.222003e+003, 2.091254e+001
1.222485e+003, 2.106434e+001
1.222967e+003, 2.108363e+001
1.223449e+003, 2.107317e+001
1.223932e+003, 2.124175e+001
1.224414e+003, 2.138340e+001
1.224896e+003, 2.113703e+001
1.225378e+003, 2.068314e+001
1.225860e+003, 2.039313e+001
1.226342e+003, 2.033064e+001
1.226824e+003, 2.040323e+001
1.227306e+003, 2.065282e+001
1.227788e+003, 2.082070e+001
1.228271e+003, 2.076703e+001
1.228753e+003, 2.068335e+001
1.229235e+003, 2.063657e+001
1.229717e+003, 2.060600e+001
1.230199e+003, 2.053316e+001
1.230681e+003, 2.048526e+001
1.231163e+003, 2.061410e+001
1.231645e+003, 2.091316e+001
1.232127e+003, 2.108190e+001
1.232610e+003, 2.110071e+001
1.233092e+003, 2.102903e+001
1.233574e+003, 2.081516e+001
1.234056e+003, 2.071435e+001
1.234538e+003, 2.082325e+001
1.235020e+003, 2.096909e+001
1.235502e+003, 2.102246e+001
1.235984e+003, 2.104843e+001
1.236467e+003, 2.118827e+001
1.236949e+003, 2.138199e+001
1.237431e+003, 2.134378e+001
1.237913e+003, 2.112431e+001
1.238395e+003, 2.090452e+001
1.238877e+003, 2.073027e+001
1.239359e+003, 2.071186e+001
1.239841e+003, 2.086319e+001
1.240323e+003, 2.103369e+001
1.240806e+003, 2.112819e+001
1.241288e+003, 2.120078e+001
1.241770e+003, 2.134538e+001
1.242252e+003, 2.144889e+001
1.242734e+003, 2.134017e+001
1.243216e+003, 2.117086e+001
1.243698e+003, 2.114384e+001
1.244180e+003, 2.120804e+001
1.244662e+003, 2.122330e+001
1.245145e+003, 2.116590e+001
1.245627e+003, 2.107856e+001
1.246109e+003, 2.085800e+001
1.246591e+003, 2.081844e+001
1.247073e+003, 2.126338e+001
1.247555e+003, 2.155500e+001
1.248037e+003, 2.132293e+001
1.248519e+003, 2.106090e+001
1.249002e+003, 2.114227e+001
1.249484e+003, 2.139165e+001
1.249966e+003, 2.148258e+001
1.250448e+003, 2.142819e+001
1.250930e+003, 2.148356e+001
1.251412e+003, 2.167217e+001
1.251894e+003, 2.167611e+001
1.252376e+003, 2.146144e+001
1.252859e+003, 2.137204e+001
1.253341e+003, 2.151066e+001
1.253823e+003, 2.164067e+001
1.254305e+003, 2.159638e+001
1.254787e+003, 2.150080e+001
1.255269e+003, 2.150677e+001
1.255751e+003, 2.159049e+001
1.256233e+003, 2.176832e+001
1.256715e+003, 2.195725e+001
1.257198e+003, 2.199755e+001
1.257680e+003, 2.191419e+001
1.258162e+003, 2.173287e+001
1.258644e+003, 2.151924e+001
1.259126e+003, 2.157429e+001
1.259608e+003, 2.213909e+001
1.260090e+003, 2.253638e+001
1.260572e+003, 2.233721e+001
1.261054e+003, 2.204779e+001
1.261537e+003, 2.180886e+001
1.262019e+003, 2.167388e+001
1.262501e+003, 2.176606e+001
1.262983e+003, 2.193227e+001
1.263465e+003, 2.192794e+001
1.263947e+003, 2.177159e+001
1.264429e+003, 2.159964e+001
1.264911e+003, 2.133857e+001
1.265394e+003, 2.135838e+001
1.265876e+003, 2.176235e+001
1.266358e+003, 2.196493e+001
1.266840e+003, 2.180800e+001
1.267322e+003, 2.162368e+001
1.267804e+003, 2.158914e+001
1.268286e+003, 2.166345e+001
1.268768e+003, 2.182060e+001
1.269250e+003, 2.200394e+001
1.269733e+003, 2.209132e+001
1.270215e+003, 2.210008e+001
1.270697e+003, 2.203574e+001
1.271179e+003, 2.194208e+001
1.271661e+003, 2.190436e+001
1.272143e+003, 2.194701e+001
1.272625e+003, 2.212046e+001
1.273107e+003, 2.244278e+001
1.273589e+003, 2.266972e+001
1.274072e+003, 2.262707e+001
1.274554e+003, 2.249143e+001
1.275036e+003, 2.222767e+001
1.275518e+003, 2.203961e+001
1.276000e+003, 2.217421e+001
1.276482e+003, 2.236836e+001
1.276964e+003, 2.227077e+001
1.277446e+003, 2.199234e+001
1.277929e+003, 2.193153e+001
1.278411e+003, 2.212323e+001
1.278893e+003, 2.216524e+001
1.279375e+003, 2.199852e+001
1.279857e+003, 2.189082e+001
1.280339e+003, 2.185629e+001
1.280821e+003, 2.200522e+001
1.281303e+003, 2.241343e+001
1.281786e+003, 2.270893e+001
1.282268e+003, 2.261332e+001
##END=



