##NAMES=Manganbabingtonite
##RRUFFID=R140743
##IDEAL CHEMISTRY=Ca_2_Mn^2+^Fe^3+^Si_5_O_14_(OH)
##LOCALITY=Iron Cap mine, Aravaipa District, Graham County, Arizona, USA
##OWNER=RRUFF
##SOURCE=Rock Currier
##DESCRIPTION=Short prismatic dark-greenish crystals, associated with small needle hedenbergite crystals.
##STATUS=The identification of this mineral is confirmed by single-crystal X-ray diffraction and chemical analysis.
##URL=rruff.info/R140743
##MEASURED CHEMISTRY=(Ca_1.94_Mn^2+^_0.06_)(Mn^2+^_0.82_Fe^2+^_0.16_Mg_0.02_)(Fe^3+^_0.98_Al_0.02_)(Si_4.99_Al_0.01_)O_14_(OH)
8.813672e+001, 7.500023e+001
8.861884e+001, 7.674056e+001
8.910095e+001, 7.799100e+001
8.958307e+001, 7.814024e+001
9.006519e+001, 7.829173e+001
9.054730e+001, 7.997843e+001
9.102942e+001, 8.415862e+001
9.151154e+001, 8.832230e+001
9.199365e+001, 8.942256e+001
9.247577e+001, 8.788390e+001
9.295789e+001, 8.584407e+001
9.344000e+001, 8.453957e+001
9.392212e+001, 8.380112e+001
9.440424e+001, 8.335836e+001
9.488635e+001, 8.344659e+001
9.536847e+001, 8.376878e+001
9.585059e+001, 8.358354e+001
9.633270e+001, 8.285696e+001
9.681482e+001, 8.204214e+001
9.729694e+001, 8.128043e+001
9.777905e+001, 8.057423e+001
9.826117e+001, 8.083092e+001
9.874329e+001, 8.268373e+001
9.922540e+001, 8.581226e+001
9.970752e+001, 8.794933e+001
1.001896e+002, 8.897368e+001
1.006718e+002, 8.925042e+001
1.011539e+002, 8.909089e+001
1.016360e+002, 8.835490e+001
1.021181e+002, 8.770185e+001
1.026002e+002, 8.729266e+001
1.030823e+002, 8.709612e+001
1.035645e+002, 8.725389e+001
1.040466e+002, 8.756050e+001
1.045287e+002, 8.833028e+001
1.050108e+002, 9.019026e+001
1.054929e+002, 9.328975e+001
1.059750e+002, 9.720619e+001
1.064572e+002, 1.019998e+002
1.069393e+002, 1.094963e+002
1.074214e+002, 1.145399e+002
1.079035e+002, 1.162843e+002
1.083856e+002, 1.155241e+002
1.088677e+002, 1.149513e+002
1.093499e+002, 1.146267e+002
1.098320e+002, 1.144450e+002
1.103141e+002, 1.143619e+002
1.107962e+002, 1.141850e+002
1.112783e+002, 1.143228e+002
1.117604e+002, 1.147459e+002
1.122426e+002, 1.154775e+002
1.127247e+002, 1.166689e+002
1.132068e+002, 1.180071e+002
1.136889e+002, 1.199927e+002
1.141710e+002, 1.229630e+002
1.146531e+002, 1.283496e+002
1.151353e+002, 1.334364e+002
1.156174e+002, 1.373631e+002
1.160995e+002, 1.400978e+002
1.165816e+002, 1.427776e+002
1.170637e+002, 1.464543e+002
1.175458e+002, 1.500850e+002
1.180280e+002, 1.525769e+002
1.185101e+002, 1.520082e+002
1.189922e+002, 1.512056e+002
1.194743e+002, 1.517072e+002
1.199564e+002, 1.536445e+002
1.204385e+002, 1.566578e+002
1.209207e+002, 1.604979e+002
1.214028e+002, 1.652812e+002
1.218849e+002, 1.711783e+002
1.223670e+002, 1.802424e+002
1.228491e+002, 1.896798e+002
1.233312e+002, 1.967389e+002
1.238134e+002, 2.011784e+002
1.242955e+002, 2.030570e+002
1.247776e+002, 2.019918e+002
1.252597e+002, 1.982367e+002
1.257418e+002, 1.927121e+002
1.262239e+002, 1.848291e+002
1.267061e+002, 1.755853e+002
1.271882e+002, 1.669902e+002
1.276703e+002, 1.590711e+002
1.281524e+002, 1.521962e+002
1.286345e+002, 1.472047e+002
1.291166e+002, 1.439995e+002
1.295988e+002, 1.414423e+002
1.300809e+002, 1.386932e+002
1.305630e+002, 1.358899e+002
1.310451e+002, 1.336304e+002
1.315272e+002, 1.321596e+002
1.320093e+002, 1.312379e+002
1.324915e+002, 1.302606e+002
1.329736e+002, 1.292015e+002
1.334557e+002, 1.283425e+002
1.339378e+002, 1.279637e+002
1.344199e+002, 1.280599e+002
1.349020e+002, 1.283773e+002
1.353842e+002, 1.287935e+002
1.358663e+002, 1.293775e+002
1.363484e+002, 1.304943e+002
1.368305e+002, 1.321274e+002
1.373126e+002, 1.343692e+002
1.377947e+002, 1.373807e+002
1.382769e+002, 1.412722e+002
1.387590e+002, 1.454946e+002
1.392411e+002, 1.501289e+002
1.397232e+002, 1.552441e+002
1.402053e+002, 1.590580e+002
1.406874e+002, 1.611618e+002
1.411696e+002, 1.625798e+002
1.416517e+002, 1.647842e+002
1.421338e+002, 1.684100e+002
1.426159e+002, 1.714674e+002
1.430980e+002, 1.736317e+002
1.435801e+002, 1.751173e+002
1.440623e+002, 1.744845e+002
1.445444e+002, 1.711054e+002
1.450265e+002, 1.659731e+002
1.455086e+002, 1.607266e+002
1.459907e+002, 1.546932e+002
1.464728e+002, 1.493959e+002
1.469550e+002, 1.453667e+002
1.474371e+002, 1.432278e+002
1.479192e+002, 1.409969e+002
1.484013e+002, 1.383878e+002
1.488834e+002, 1.357247e+002
1.493655e+002, 1.336847e+002
1.498477e+002, 1.325956e+002
1.503298e+002, 1.318643e+002
1.508119e+002, 1.313245e+002
1.512940e+002, 1.314176e+002
1.517761e+002, 1.310482e+002
1.522583e+002, 1.297793e+002
1.527404e+002, 1.279765e+002
1.532225e+002, 1.266673e+002
1.537046e+002, 1.258869e+002
1.541867e+002, 1.256626e+002
1.546688e+002, 1.260365e+002
1.551510e+002, 1.279452e+002
1.556331e+002, 1.293145e+002
1.561152e+002, 1.294345e+002
1.565973e+002, 1.286402e+002
1.570794e+002, 1.282455e+002
1.575615e+002, 1.285081e+002
1.580437e+002, 1.292682e+002
1.585258e+002, 1.304291e+002
1.590079e+002, 1.323378e+002
1.594900e+002, 1.342625e+002
1.599721e+002, 1.360323e+002
1.604542e+002, 1.376573e+002
1.609364e+002, 1.391941e+002
1.614185e+002, 1.405726e+002
1.619006e+002, 1.419145e+002
1.623827e+002, 1.433174e+002
1.628648e+002, 1.452601e+002
1.633469e+002, 1.468734e+002
1.638291e+002, 1.475708e+002
1.643112e+002, 1.474325e+002
1.647933e+002, 1.473601e+002
1.652754e+002, 1.476738e+002
1.657575e+002, 1.483200e+002
1.662396e+002, 1.492430e+002
1.667218e+002, 1.502917e+002
1.672039e+002, 1.517076e+002
1.676860e+002, 1.537105e+002
1.681681e+002, 1.562773e+002
1.686502e+002, 1.591515e+002
1.691323e+002, 1.619975e+002
1.696145e+002, 1.650591e+002
1.700966e+002, 1.686566e+002
1.705787e+002, 1.736819e+002
1.710608e+002, 1.788388e+002
1.715429e+002, 1.828395e+002
1.720250e+002, 1.856466e+002
1.725072e+002, 1.882839e+002
1.729893e+002, 1.916061e+002
1.734714e+002, 1.953704e+002
1.739535e+002, 1.991274e+002
1.744356e+002, 2.032990e+002
1.749177e+002, 2.070749e+002
1.753999e+002, 2.098412e+002
1.758820e+002, 2.116532e+002
1.763641e+002, 2.117009e+002
1.768462e+002, 2.088168e+002
1.773283e+002, 2.035536e+002
1.778104e+002, 1.973118e+002
1.782926e+002, 1.902705e+002
1.787747e+002, 1.828477e+002
1.792568e+002, 1.756694e+002
1.797389e+002, 1.688073e+002
1.802210e+002, 1.622775e+002
1.807031e+002, 1.561184e+002
1.811853e+002, 1.503792e+002
1.816674e+002, 1.454470e+002
1.821495e+002, 1.417673e+002
1.826316e+002, 1.390405e+002
1.831137e+002, 1.366576e+002
1.835958e+002, 1.345438e+002
1.840780e+002, 1.328555e+002
1.845601e+002, 1.317447e+002
1.850422e+002, 1.312220e+002
1.855243e+002, 1.312166e+002
1.860064e+002, 1.319794e+002
1.864885e+002, 1.332904e+002
1.869707e+002, 1.342450e+002
1.874528e+002, 1.346892e+002
1.879349e+002, 1.350920e+002
1.884170e+002, 1.362750e+002
1.888991e+002, 1.381980e+002
1.893812e+002, 1.401504e+002
1.898634e+002, 1.418311e+002
1.903455e+002, 1.432412e+002
1.908276e+002, 1.444949e+002
1.913097e+002, 1.456841e+002
1.917918e+002, 1.465590e+002
1.922739e+002, 1.467138e+002
1.927561e+002, 1.461384e+002
1.932382e+002, 1.449756e+002
1.937203e+002, 1.430980e+002
1.942024e+002, 1.405697e+002
1.946845e+002, 1.380744e+002
1.951666e+002, 1.355894e+002
1.956488e+002, 1.333007e+002
1.961309e+002, 1.315242e+002
1.966130e+002, 1.302331e+002
1.970951e+002, 1.295294e+002
1.975772e+002, 1.297377e+002
1.980593e+002, 1.308746e+002
1.985415e+002, 1.314581e+002
1.990236e+002, 1.312027e+002
1.995057e+002, 1.305683e+002
1.999878e+002, 1.305645e+002
2.004699e+002, 1.312337e+002
2.009520e+002, 1.323260e+002
2.014342e+002, 1.338358e+002
2.019163e+002, 1.358243e+002
2.023984e+002, 1.375369e+002
2.028805e+002, 1.388492e+002
2.033626e+002, 1.399249e+002
2.038447e+002, 1.411738e+002
2.043269e+002, 1.426279e+002
2.048090e+002, 1.441453e+002
2.052911e+002, 1.456526e+002
2.057732e+002, 1.471675e+002
2.062553e+002, 1.485907e+002
2.067374e+002, 1.498756e+002
2.072196e+002, 1.510919e+002
2.077017e+002, 1.523397e+002
2.081838e+002, 1.534827e+002
2.086659e+002, 1.550433e+002
2.091480e+002, 1.574546e+002
2.096301e+002, 1.610031e+002
2.101123e+002, 1.641508e+002
2.105944e+002, 1.666798e+002
2.110765e+002, 1.688467e+002
2.115586e+002, 1.715510e+002
2.120407e+002, 1.752367e+002
2.125228e+002, 1.784661e+002
2.130050e+002, 1.805003e+002
2.134871e+002, 1.813461e+002
2.139692e+002, 1.809536e+002
2.144513e+002, 1.791945e+002
2.149334e+002, 1.762406e+002
2.154155e+002, 1.723866e+002
2.158977e+002, 1.672195e+002
2.163798e+002, 1.619376e+002
2.168619e+002, 1.571467e+002
2.173440e+002, 1.528336e+002
2.178261e+002, 1.490889e+002
2.183082e+002, 1.459852e+002
2.187904e+002, 1.434552e+002
2.192725e+002, 1.413475e+002
2.197546e+002, 1.397006e+002
2.202367e+002, 1.384404e+002
2.207188e+002, 1.376509e+002
2.212009e+002, 1.376549e+002
2.216831e+002, 1.372051e+002
2.221652e+002, 1.360498e+002
2.226473e+002, 1.344791e+002
2.231294e+002, 1.333678e+002
2.236115e+002, 1.327921e+002
2.240936e+002, 1.325368e+002
2.245758e+002, 1.325028e+002
2.250579e+002, 1.326907e+002
2.255400e+002, 1.330912e+002
2.260221e+002, 1.336166e+002
2.265042e+002, 1.343819e+002
2.269863e+002, 1.356928e+002
2.274685e+002, 1.376749e+002
2.279506e+002, 1.400341e+002
2.284327e+002, 1.426686e+002
2.289148e+002, 1.457410e+002
2.293969e+002, 1.487691e+002
2.298790e+002, 1.516953e+002
2.303612e+002, 1.545900e+002
2.308433e+002, 1.577051e+002
2.313254e+002, 1.615301e+002
2.318075e+002, 1.648834e+002
2.322896e+002, 1.673091e+002
2.327717e+002, 1.688290e+002
2.332539e+002, 1.693720e+002
2.337360e+002, 1.690043e+002
2.342181e+002, 1.676348e+002
2.347002e+002, 1.648814e+002
2.351823e+002, 1.600394e+002
2.356644e+002, 1.548963e+002
2.361466e+002, 1.501096e+002
2.366287e+002, 1.457359e+002
2.371108e+002, 1.415627e+002
2.375929e+002, 1.375411e+002
2.380750e+002, 1.337995e+002
2.385571e+002, 1.306449e+002
2.390393e+002, 1.281535e+002
2.395214e+002, 1.261329e+002
2.400035e+002, 1.245638e+002
2.404856e+002, 1.235470e+002
2.409677e+002, 1.226495e+002
2.414498e+002, 1.219381e+002
2.419320e+002, 1.213171e+002
2.424141e+002, 1.205704e+002
2.428962e+002, 1.195041e+002
2.433783e+002, 1.186353e+002
2.438604e+002, 1.181925e+002
2.443425e+002, 1.183389e+002
2.448247e+002, 1.182885e+002
2.453068e+002, 1.178356e+002
2.457889e+002, 1.173159e+002
2.462710e+002, 1.172967e+002
2.467531e+002, 1.180810e+002
2.472352e+002, 1.188410e+002
2.477174e+002, 1.192882e+002
2.481995e+002, 1.193159e+002
2.486816e+002, 1.195285e+002
2.491637e+002, 1.198938e+002
2.496458e+002, 1.204683e+002
2.501279e+002, 1.213667e+002
2.506101e+002, 1.228068e+002
2.510922e+002, 1.241684e+002
2.515743e+002, 1.252095e+002
2.520564e+002, 1.258580e+002
2.525385e+002, 1.267926e+002
2.530206e+002, 1.281348e+002
2.535028e+002, 1.296625e+002
2.539849e+002, 1.310715e+002
2.544670e+002, 1.323353e+002
2.549491e+002, 1.335724e+002
2.554312e+002, 1.347812e+002
2.559133e+002, 1.359406e+002
2.563955e+002, 1.372627e+002
2.568776e+002, 1.387616e+002
2.573597e+002, 1.404157e+002
2.578418e+002, 1.421816e+002
2.583239e+002, 1.440127e+002
2.588061e+002, 1.460951e+002
2.592882e+002, 1.484644e+002
2.597703e+002, 1.511326e+002
2.602524e+002, 1.540979e+002
2.607345e+002, 1.573687e+002
2.612166e+002, 1.609570e+002
2.616988e+002, 1.650369e+002
2.621809e+002, 1.697607e+002
2.626630e+002, 1.743380e+002
2.631451e+002, 1.786347e+002
2.636272e+002, 1.826771e+002
2.641093e+002, 1.863859e+002
2.645915e+002, 1.899171e+002
2.650736e+002, 1.929045e+002
2.655557e+002, 1.952180e+002
2.660378e+002, 1.969801e+002
2.665199e+002, 1.974863e+002
2.670020e+002, 1.965238e+002
2.674842e+002, 1.942200e+002
2.679663e+002, 1.911886e+002
2.684484e+002, 1.873240e+002
2.689305e+002, 1.829959e+002
2.694126e+002, 1.783340e+002
2.698947e+002, 1.730576e+002
2.703769e+002, 1.684229e+002
2.708590e+002, 1.645639e+002
2.713411e+002, 1.613684e+002
2.718232e+002, 1.585454e+002
2.723053e+002, 1.559969e+002
2.727874e+002, 1.541210e+002
2.732696e+002, 1.532619e+002
2.737517e+002, 1.535607e+002
2.742338e+002, 1.540013e+002
2.747159e+002, 1.545168e+002
2.751980e+002, 1.551452e+002
2.756801e+002, 1.558910e+002
2.761623e+002, 1.566900e+002
2.766444e+002, 1.578983e+002
2.771265e+002, 1.598043e+002
2.776086e+002, 1.624907e+002
2.780907e+002, 1.651422e+002
2.785728e+002, 1.677826e+002
2.790550e+002, 1.703402e+002
2.795371e+002, 1.726777e+002
2.800192e+002, 1.747839e+002
2.805013e+002, 1.767671e+002
2.809834e+002, 1.788560e+002
2.814655e+002, 1.810268e+002
2.819477e+002, 1.822892e+002
2.824298e+002, 1.825205e+002
2.829119e+002, 1.821284e+002
2.833940e+002, 1.816965e+002
2.838761e+002, 1.812315e+002
2.843582e+002, 1.803377e+002
2.848404e+002, 1.789645e+002
2.853225e+002, 1.770598e+002
2.858046e+002, 1.742322e+002
2.862867e+002, 1.704468e+002
2.867688e+002, 1.660318e+002
2.872509e+002, 1.611090e+002
2.877331e+002, 1.557317e+002
2.882152e+002, 1.506185e+002
2.886973e+002, 1.459427e+002
2.891794e+002, 1.416936e+002
2.896615e+002, 1.379648e+002
2.901436e+002, 1.347386e+002
2.906258e+002, 1.318845e+002
2.911079e+002, 1.293357e+002
2.915900e+002, 1.270559e+002
2.920721e+002, 1.247966e+002
2.925542e+002, 1.223905e+002
2.930363e+002, 1.200961e+002
2.935185e+002, 1.185672e+002
2.940006e+002, 1.177863e+002
2.944827e+002, 1.172331e+002
2.949648e+002, 1.164490e+002
2.954469e+002, 1.155452e+002
2.959290e+002, 1.148985e+002
2.964112e+002, 1.146147e+002
2.968933e+002, 1.145376e+002
2.973754e+002, 1.143803e+002
2.978575e+002, 1.141817e+002
2.983396e+002, 1.141902e+002
2.988217e+002, 1.147300e+002
2.993039e+002, 1.155700e+002
2.997860e+002, 1.162240e+002
3.002681e+002, 1.165972e+002
3.007502e+002, 1.168901e+002
3.012323e+002, 1.172773e+002
3.017144e+002, 1.177682e+002
3.021966e+002, 1.183688e+002
3.026787e+002, 1.190784e+002
3.031608e+002, 1.199085e+002
3.036429e+002, 1.208772e+002
3.041250e+002, 1.219717e+002
3.046071e+002, 1.232485e+002
3.050893e+002, 1.247507e+002
3.055714e+002, 1.264758e+002
3.060535e+002, 1.283568e+002
3.065356e+002, 1.305540e+002
3.070177e+002, 1.328047e+002
3.074998e+002, 1.348123e+002
3.079820e+002, 1.365859e+002
3.084641e+002, 1.382680e+002
3.089462e+002, 1.400996e+002
3.094283e+002, 1.418814e+002
3.099104e+002, 1.433178e+002
3.103925e+002, 1.442814e+002
3.108747e+002, 1.448690e+002
3.113568e+002, 1.450034e+002
3.118389e+002, 1.447342e+002
3.123210e+002, 1.444234e+002
3.128031e+002, 1.442708e+002
3.132852e+002, 1.441694e+002
3.137674e+002, 1.440263e+002
3.142495e+002, 1.439208e+002
3.147316e+002, 1.436363e+002
3.152137e+002, 1.429579e+002
3.156958e+002, 1.419868e+002
3.161779e+002, 1.410630e+002
3.166601e+002, 1.401710e+002
3.171422e+002, 1.394712e+002
3.176243e+002, 1.390988e+002
3.181064e+002, 1.391825e+002
3.185885e+002, 1.393753e+002
3.190706e+002, 1.395912e+002
3.195528e+002, 1.398341e+002
3.200349e+002, 1.401126e+002
3.205170e+002, 1.405438e+002
3.209991e+002, 1.409158e+002
3.214812e+002, 1.410747e+002
3.219633e+002, 1.408945e+002
3.224455e+002, 1.409298e+002
3.229276e+002, 1.415689e+002
3.234097e+002, 1.423941e+002
3.238918e+002, 1.428924e+002
3.243739e+002, 1.425057e+002
3.248560e+002, 1.422577e+002
3.253382e+002, 1.424671e+002
3.258203e+002, 1.431994e+002
3.263024e+002, 1.438690e+002
3.267845e+002, 1.443500e+002
3.272666e+002, 1.448048e+002
3.277487e+002, 1.453633e+002
3.282309e+002, 1.459138e+002
3.287130e+002, 1.467007e+002
3.291951e+002, 1.479525e+002
3.296772e+002, 1.495859e+002
3.301593e+002, 1.507516e+002
3.306414e+002, 1.511001e+002
3.311236e+002, 1.512988e+002
3.316057e+002, 1.517363e+002
3.320878e+002, 1.527648e+002
3.325699e+002, 1.533812e+002
3.330520e+002, 1.533807e+002
3.335341e+002, 1.529745e+002
3.340163e+002, 1.527023e+002
3.344984e+002, 1.524357e+002
3.349805e+002, 1.525231e+002
3.354626e+002, 1.532122e+002
3.359447e+002, 1.547536e+002
3.364268e+002, 1.559384e+002
3.369090e+002, 1.567248e+002
3.373911e+002, 1.572154e+002
3.378732e+002, 1.576115e+002
3.383553e+002, 1.580060e+002
3.388374e+002, 1.579836e+002
3.393195e+002, 1.573282e+002
3.398017e+002, 1.560691e+002
3.402838e+002, 1.548790e+002
3.407659e+002, 1.538378e+002
3.412480e+002, 1.526573e+002
3.417301e+002, 1.509188e+002
3.422122e+002, 1.485867e+002
3.426944e+002, 1.463090e+002
3.431765e+002, 1.441719e+002
3.436586e+002, 1.422122e+002
3.441407e+002, 1.405891e+002
3.446228e+002, 1.392991e+002
3.451049e+002, 1.384157e+002
3.455871e+002, 1.381445e+002
3.460692e+002, 1.384054e+002
3.465513e+002, 1.386251e+002
3.470334e+002, 1.386410e+002
3.475155e+002, 1.387597e+002
3.479977e+002, 1.396548e+002
3.484798e+002, 1.412416e+002
3.489619e+002, 1.427535e+002
3.494440e+002, 1.436634e+002
3.499261e+002, 1.441906e+002
3.504082e+002, 1.449360e+002
3.508904e+002, 1.460031e+002
3.513725e+002, 1.468418e+002
3.518546e+002, 1.469894e+002
3.523367e+002, 1.464659e+002
3.528188e+002, 1.453348e+002
3.533009e+002, 1.432313e+002
3.537831e+002, 1.407401e+002
3.542652e+002, 1.384868e+002
3.547473e+002, 1.364716e+002
3.552294e+002, 1.346390e+002
3.557115e+002, 1.329894e+002
3.561936e+002, 1.314861e+002
3.566758e+002, 1.300596e+002
3.571579e+002, 1.284558e+002
3.576400e+002, 1.271974e+002
3.581221e+002, 1.267423e+002
3.586042e+002, 1.269717e+002
3.590863e+002, 1.274381e+002
3.595685e+002, 1.280298e+002
3.600506e+002, 1.287067e+002
3.605327e+002, 1.294596e+002
3.610148e+002, 1.303311e+002
3.614969e+002, 1.311602e+002
3.619790e+002, 1.318212e+002
3.624612e+002, 1.324021e+002
3.629433e+002, 1.330641e+002
3.634254e+002, 1.339650e+002
3.639075e+002, 1.348582e+002
3.643896e+002, 1.356966e+002
3.648717e+002, 1.364987e+002
3.653539e+002, 1.370478e+002
3.658360e+002, 1.370896e+002
3.663181e+002, 1.369557e+002
3.668002e+002, 1.369519e+002
3.672823e+002, 1.374084e+002
3.677644e+002, 1.376678e+002
3.682466e+002, 1.374873e+002
3.687287e+002, 1.369213e+002
3.692108e+002, 1.366296e+002
3.696929e+002, 1.367948e+002
3.701750e+002, 1.370730e+002
3.706571e+002, 1.373021e+002
3.711393e+002, 1.375527e+002
3.716214e+002, 1.376196e+002
3.721035e+002, 1.373536e+002
3.725856e+002, 1.369532e+002
3.730677e+002, 1.368999e+002
3.735498e+002, 1.373793e+002
3.740320e+002, 1.378483e+002
3.745141e+002, 1.380468e+002
3.749962e+002, 1.379053e+002
3.754783e+002, 1.381206e+002
3.759604e+002, 1.387667e+002
3.764425e+002, 1.396428e+002
3.769247e+002, 1.405703e+002
3.774068e+002, 1.415735e+002
3.778889e+002, 1.423932e+002
3.783710e+002, 1.428043e+002
3.788531e+002, 1.430034e+002
3.793352e+002, 1.438641e+002
3.798174e+002, 1.454176e+002
3.802995e+002, 1.473667e+002
3.807816e+002, 1.496028e+002
3.812637e+002, 1.520963e+002
3.817458e+002, 1.544243e+002
3.822279e+002, 1.565525e+002
3.827101e+002, 1.585090e+002
3.831922e+002, 1.605131e+002
3.836743e+002, 1.625195e+002
3.841564e+002, 1.640816e+002
3.846385e+002, 1.650758e+002
3.851206e+002, 1.654497e+002
3.856028e+002, 1.650486e+002
3.860849e+002, 1.638450e+002
3.865670e+002, 1.621284e+002
3.870491e+002, 1.600519e+002
3.875312e+002, 1.576519e+002
3.880133e+002, 1.549779e+002
3.884955e+002, 1.518708e+002
3.889776e+002, 1.486443e+002
3.894597e+002, 1.455402e+002
3.899418e+002, 1.425725e+002
3.904239e+002, 1.398288e+002
3.909060e+002, 1.372245e+002
3.913882e+002, 1.349384e+002
3.918703e+002, 1.331484e+002
3.923524e+002, 1.319186e+002
3.928345e+002, 1.310862e+002
3.933166e+002, 1.307500e+002
3.937987e+002, 1.307439e+002
3.942809e+002, 1.307382e+002
3.947630e+002, 1.304055e+002
3.952451e+002, 1.302345e+002
3.957272e+002, 1.305499e+002
3.962093e+002, 1.314860e+002
3.966914e+002, 1.321787e+002
3.971736e+002, 1.320335e+002
3.976557e+002, 1.317693e+002
3.981378e+002, 1.320486e+002
3.986199e+002, 1.338477e+002
3.991020e+002, 1.351570e+002
3.995841e+002, 1.356984e+002
4.000663e+002, 1.355282e+002
4.005484e+002, 1.350119e+002
4.010305e+002, 1.341205e+002
4.015126e+002, 1.329164e+002
4.019947e+002, 1.314320e+002
4.024768e+002, 1.297317e+002
4.029590e+002, 1.276147e+002
4.034411e+002, 1.249331e+002
4.039232e+002, 1.219488e+002
4.044053e+002, 1.191658e+002
4.048874e+002, 1.167114e+002
4.053695e+002, 1.140318e+002
4.058517e+002, 1.107499e+002
4.063338e+002, 1.069689e+002
4.068159e+002, 1.038887e+002
4.072980e+002, 1.016174e+002
4.077801e+002, 9.965974e+001
4.082622e+002, 9.750803e+001
4.087444e+002, 9.517551e+001
4.092265e+002, 9.323939e+001
4.097086e+002, 9.187930e+001
4.101907e+002, 9.086996e+001
4.106728e+002, 8.973769e+001
4.111549e+002, 8.849534e+001
4.116371e+002, 8.735059e+001
4.121192e+002, 8.633485e+001
4.126013e+002, 8.552747e+001
4.130834e+002, 8.521313e+001
4.135655e+002, 8.546754e+001
4.140476e+002, 8.581625e+001
4.145298e+002, 8.573582e+001
4.150119e+002, 8.541592e+001
4.154940e+002, 8.523727e+001
4.159761e+002, 8.543433e+001
4.164582e+002, 8.577677e+001
4.169403e+002, 8.609903e+001
4.174225e+002, 8.640227e+001
4.179046e+002, 8.668445e+001
4.183867e+002, 8.676659e+001
4.188688e+002, 8.692229e+001
4.193509e+002, 8.742534e+001
4.198330e+002, 8.854137e+001
4.203152e+002, 8.955748e+001
4.207973e+002, 9.007545e+001
4.212794e+002, 9.033288e+001
4.217615e+002, 9.076562e+001
4.222436e+002, 9.154571e+001
4.227257e+002, 9.246012e+001
4.232079e+002, 9.342738e+001
4.236900e+002, 9.442323e+001
4.241721e+002, 9.561040e+001
4.246542e+002, 9.713132e+001
4.251363e+002, 9.877513e+001
4.256184e+002, 1.004126e+002
4.261006e+002, 1.019334e+002
4.265827e+002, 1.035718e+002
4.270648e+002, 1.053541e+002
4.275469e+002, 1.072707e+002
4.280290e+002, 1.091930e+002
4.285111e+002, 1.109648e+002
4.289933e+002, 1.130373e+002
4.294754e+002, 1.157272e+002
4.299575e+002, 1.191900e+002
4.304396e+002, 1.221750e+002
4.309217e+002, 1.246449e+002
4.314038e+002, 1.267468e+002
4.318860e+002, 1.286359e+002
4.323681e+002, 1.303164e+002
4.328502e+002, 1.316684e+002
4.333323e+002, 1.326345e+002
4.338144e+002, 1.332720e+002
4.342965e+002, 1.338721e+002
4.347787e+002, 1.344287e+002
4.352608e+002, 1.344008e+002
4.357429e+002, 1.334483e+002
4.362250e+002, 1.316230e+002
4.367071e+002, 1.289069e+002
4.371892e+002, 1.251769e+002
4.376714e+002, 1.210828e+002
4.381535e+002, 1.172832e+002
4.386356e+002, 1.136765e+002
4.391177e+002, 1.100747e+002
4.395998e+002, 1.061017e+002
4.400819e+002, 1.023010e+002
4.405641e+002, 9.913636e+001
4.410462e+002, 9.658694e+001
4.415283e+002, 9.438253e+001
4.420104e+002, 9.249348e+001
4.424925e+002, 9.083598e+001
4.429746e+002, 8.937259e+001
4.434568e+002, 8.810021e+001
4.439389e+002, 8.698311e+001
4.444210e+002, 8.601229e+001
4.449031e+002, 8.518863e+001
4.453852e+002, 8.451146e+001
4.458673e+002, 8.407273e+001
4.463495e+002, 8.370292e+001
4.468316e+002, 8.335710e+001
4.473137e+002, 8.303471e+001
4.477958e+002, 8.273550e+001
4.482779e+002, 8.246253e+001
4.487600e+002, 8.221545e+001
4.492422e+002, 8.200009e+001
4.497243e+002, 8.184434e+001
4.502064e+002, 8.165164e+001
4.506885e+002, 8.136315e+001
4.511706e+002, 8.105260e+001
4.516527e+002, 8.094089e+001
4.521349e+002, 8.106654e+001
4.526170e+002, 8.125053e+001
4.530991e+002, 8.144490e+001
4.535812e+002, 8.164697e+001
4.540633e+002, 8.172701e+001
4.545454e+002, 8.166914e+001
4.550276e+002, 8.156831e+001
4.555097e+002, 8.154227e+001
4.559918e+002, 8.157122e+001
4.564739e+002, 8.152268e+001
4.569560e+002, 8.130650e+001
4.574381e+002, 8.108531e+001
4.579203e+002, 8.114083e+001
4.584024e+002, 8.143188e+001
4.588845e+002, 8.177161e+001
4.593666e+002, 8.209832e+001
4.598488e+002, 8.238558e+001
4.603309e+002, 8.253083e+001
4.608130e+002, 8.250393e+001
4.612951e+002, 8.261643e+001
4.617772e+002, 8.311773e+001
4.622593e+002, 8.386749e+001
4.627415e+002, 8.469390e+001
4.632236e+002, 8.554898e+001
4.637057e+002, 8.646264e+001
4.641878e+002, 8.748241e+001
4.646699e+002, 8.857047e+001
4.651520e+002, 8.962008e+001
4.656342e+002, 9.040330e+001
4.661163e+002, 9.128276e+001
4.665984e+002, 9.241971e+001
4.670805e+002, 9.384776e+001
4.675626e+002, 9.546749e+001
4.680447e+002, 9.741625e+001
4.685269e+002, 9.945719e+001
4.690090e+002, 1.013690e+002
4.694911e+002, 1.030580e+002
4.699732e+002, 1.047730e+002
4.704553e+002, 1.065338e+002
4.709374e+002, 1.083499e+002
4.714196e+002, 1.103073e+002
4.719017e+002, 1.123919e+002
4.723838e+002, 1.146274e+002
4.728659e+002, 1.171357e+002
4.733480e+002, 1.199263e+002
4.738301e+002, 1.224043e+002
4.743123e+002, 1.245748e+002
4.747944e+002, 1.264269e+002
4.752765e+002, 1.278517e+002
4.757586e+002, 1.289084e+002
4.762407e+002, 1.299291e+002
4.767228e+002, 1.311095e+002
4.772050e+002, 1.322022e+002
4.776871e+002, 1.328925e+002
4.781692e+002, 1.331767e+002
4.786513e+002, 1.330037e+002
4.791334e+002, 1.321525e+002
4.796155e+002, 1.309287e+002
4.800977e+002, 1.296688e+002
4.805798e+002, 1.284302e+002
4.810619e+002, 1.270114e+002
4.815440e+002, 1.252385e+002
4.820261e+002, 1.232569e+002
4.825082e+002, 1.212185e+002
4.829904e+002, 1.191200e+002
4.834725e+002, 1.170244e+002
4.839546e+002, 1.149033e+002
4.844367e+002, 1.127768e+002
4.849188e+002, 1.107868e+002
4.854009e+002, 1.087791e+002
4.858831e+002, 1.070521e+002
4.863652e+002, 1.057117e+002
4.868473e+002, 1.048386e+002
4.873294e+002, 1.040940e+002
4.878115e+002, 1.034313e+002
4.882936e+002, 1.029380e+002
4.887758e+002, 1.027024e+002
4.892579e+002, 1.027489e+002
4.897400e+002, 1.029503e+002
4.902221e+002, 1.032051e+002
4.907042e+002, 1.036488e+002
4.911863e+002, 1.048495e+002
4.916685e+002, 1.068958e+002
4.921506e+002, 1.088470e+002
4.926327e+002, 1.100034e+002
4.931148e+002, 1.105882e+002
4.935969e+002, 1.116052e+002
4.940790e+002, 1.131184e+002
4.945612e+002, 1.147117e+002
4.950433e+002, 1.160279e+002
4.955254e+002, 1.171259e+002
4.960075e+002, 1.182032e+002
4.964896e+002, 1.194646e+002
4.969717e+002, 1.204695e+002
4.974539e+002, 1.207322e+002
4.979360e+002, 1.203882e+002
4.984181e+002, 1.197705e+002
4.989002e+002, 1.191969e+002
4.993823e+002, 1.182681e+002
4.998644e+002, 1.166106e+002
5.003466e+002, 1.141356e+002
5.008287e+002, 1.116760e+002
5.013108e+002, 1.095868e+002
5.017929e+002, 1.075474e+002
5.022750e+002, 1.053232e+002
5.027571e+002, 1.024715e+002
5.032393e+002, 9.993095e+001
5.037214e+002, 9.795158e+001
5.042035e+002, 9.626488e+001
5.046856e+002, 9.420925e+001
5.051677e+002, 9.136662e+001
5.056498e+002, 8.895652e+001
5.061320e+002, 8.744064e+001
5.066141e+002, 8.676912e+001
5.070962e+002, 8.589456e+001
5.075783e+002, 8.474963e+001
5.080604e+002, 8.363126e+001
5.085425e+002, 8.278286e+001
5.090247e+002, 8.219252e+001
5.095068e+002, 8.170825e+001
5.099889e+002, 8.132220e+001
5.104710e+002, 8.101147e+001
5.109531e+002, 8.078739e+001
5.114352e+002, 8.062223e+001
5.119174e+002, 8.041169e+001
5.123995e+002, 8.002305e+001
5.128816e+002, 7.962513e+001
5.133637e+002, 7.938369e+001
5.138458e+002, 7.929514e+001
5.143279e+002, 7.934143e+001
5.148101e+002, 7.959834e+001
5.152922e+002, 7.993003e+001
5.157743e+002, 8.021025e+001
5.162564e+002, 8.037984e+001
5.167385e+002, 8.063738e+001
5.172206e+002, 8.112670e+001
5.177028e+002, 8.170740e+001
5.181849e+002, 8.221798e+001
5.186670e+002, 8.242422e+001
5.191491e+002, 8.280392e+001
5.196312e+002, 8.349258e+001
5.201133e+002, 8.441743e+001
5.205955e+002, 8.529471e+001
5.210776e+002, 8.605260e+001
5.215597e+002, 8.687080e+001
5.220418e+002, 8.781813e+001
5.225239e+002, 8.890278e+001
5.230060e+002, 9.013396e+001
5.234882e+002, 9.158070e+001
5.239703e+002, 9.300757e+001
5.244524e+002, 9.410147e+001
5.249345e+002, 9.488886e+001
5.254166e+002, 9.580088e+001
5.258987e+002, 9.692223e+001
5.263809e+002, 9.821046e+001
5.268630e+002, 9.969584e+001
5.273451e+002, 1.013370e+002
5.278272e+002, 1.029289e+002
5.283093e+002, 1.043616e+002
5.287914e+002, 1.057123e+002
5.292736e+002, 1.070087e+002
5.297557e+002, 1.082745e+002
5.302378e+002, 1.096579e+002
5.307199e+002, 1.113819e+002
5.312020e+002, 1.131979e+002
5.316841e+002, 1.148802e+002
5.321663e+002, 1.163754e+002
5.326484e+002, 1.178053e+002
5.331305e+002, 1.192340e+002
5.336126e+002, 1.206246e+002
5.340947e+002, 1.219535e+002
5.345768e+002, 1.233499e+002
5.350590e+002, 1.245184e+002
5.355411e+002, 1.254695e+002
5.360232e+002, 1.261745e+002
5.365053e+002, 1.263695e+002
5.369874e+002, 1.259301e+002
5.374695e+002, 1.252665e+002
5.379517e+002, 1.245667e+002
5.384338e+002, 1.238261e+002
5.389159e+002, 1.230484e+002
5.393980e+002, 1.222507e+002
5.398801e+002, 1.213592e+002
5.403622e+002, 1.202273e+002
5.408444e+002, 1.189211e+002
5.413265e+002, 1.177439e+002
5.418086e+002, 1.168347e+002
5.422907e+002, 1.159072e+002
5.427728e+002, 1.143130e+002
5.432549e+002, 1.123441e+002
5.437371e+002, 1.108825e+002
5.442192e+002, 1.112576e+002
5.447013e+002, 1.116488e+002
5.451834e+002, 1.104326e+002
5.456655e+002, 1.076678e+002
5.461476e+002, 1.050595e+002
5.466298e+002, 1.034708e+002
5.471119e+002, 1.021783e+002
5.475940e+002, 1.006941e+002
5.480761e+002, 9.877227e+001
5.485582e+002, 9.702763e+001
5.490403e+002, 9.550053e+001
5.495225e+002, 9.415967e+001
5.500046e+002, 9.299437e+001
5.504867e+002, 9.202000e+001
5.509688e+002, 9.119942e+001
5.514509e+002, 9.057527e+001
5.519330e+002, 9.008364e+001
5.524152e+002, 8.944102e+001
5.528973e+002, 8.858125e+001
5.533794e+002, 8.793880e+001
5.538615e+002, 8.791840e+001
5.543436e+002, 8.835751e+001
5.548257e+002, 8.827382e+001
5.553079e+002, 8.763566e+001
5.557900e+002, 8.702634e+001
5.562721e+002, 8.714100e+001
5.567542e+002, 8.762836e+001
5.572363e+002, 8.781734e+001
5.577184e+002, 8.748650e+001
5.582006e+002, 8.707333e+001
5.586827e+002, 8.688691e+001
5.591648e+002, 8.685876e+001
5.596469e+002, 8.686855e+001
5.601290e+002, 8.666666e+001
5.606111e+002, 8.669923e+001
5.610933e+002, 8.724189e+001
5.615754e+002, 8.822544e+001
5.620575e+002, 8.917012e+001
5.625396e+002, 8.981016e+001
5.630217e+002, 9.058891e+001
5.635038e+002, 9.170634e+001
5.639860e+002, 9.324321e+001
5.644681e+002, 9.476035e+001
5.649502e+002, 9.621199e+001
5.654323e+002, 9.771022e+001
5.659144e+002, 9.937782e+001
5.663965e+002, 1.012444e+002
5.668787e+002, 1.029845e+002
5.673608e+002, 1.044692e+002
5.678429e+002, 1.059535e+002
5.683250e+002, 1.078608e+002
5.688071e+002, 1.101452e+002
5.692892e+002, 1.124892e+002
5.697714e+002, 1.147265e+002
5.702535e+002, 1.169467e+002
5.707356e+002, 1.192459e+002
5.712177e+002, 1.216356e+002
5.716998e+002, 1.239783e+002
5.721819e+002, 1.261143e+002
5.726641e+002, 1.282853e+002
5.731462e+002, 1.307965e+002
5.736283e+002, 1.338392e+002
5.741104e+002, 1.364673e+002
5.745925e+002, 1.385053e+002
5.750746e+002, 1.399622e+002
5.755568e+002, 1.408699e+002
5.760389e+002, 1.411000e+002
5.765210e+002, 1.409300e+002
5.770031e+002, 1.403205e+002
5.774852e+002, 1.393359e+002
5.779673e+002, 1.381626e+002
5.784495e+002, 1.369114e+002
5.789316e+002, 1.350668e+002
5.794137e+002, 1.323505e+002
5.798958e+002, 1.289614e+002
5.803779e+002, 1.255206e+002
5.808600e+002, 1.220437e+002
5.813422e+002, 1.185055e+002
5.818243e+002, 1.147507e+002
5.823064e+002, 1.109299e+002
5.827885e+002, 1.075324e+002
5.832706e+002, 1.045988e+002
5.837527e+002, 1.017775e+002
5.842349e+002, 9.848343e+001
5.847170e+002, 9.520710e+001
5.851991e+002, 9.260799e+001
5.856812e+002, 9.113757e+001
5.861633e+002, 8.982961e+001
5.866454e+002, 8.827325e+001
5.871276e+002, 8.659194e+001
5.876097e+002, 8.503475e+001
5.880918e+002, 8.364025e+001
5.885739e+002, 8.236597e+001
5.890560e+002, 8.115598e+001
5.895381e+002, 8.003660e+001
5.900203e+002, 7.927552e+001
5.905024e+002, 7.916833e+001
5.909845e+002, 7.882568e+001
5.914666e+002, 7.766333e+001
5.919487e+002, 7.566287e+001
5.924308e+002, 7.420151e+001
5.929130e+002, 7.332253e+001
5.933951e+002, 7.275838e+001
5.938772e+002, 7.235175e+001
5.943593e+002, 7.205919e+001
5.948414e+002, 7.172190e+001
5.953235e+002, 7.128530e+001
5.958057e+002, 7.090203e+001
5.962878e+002, 7.084766e+001
5.967699e+002, 7.094439e+001
5.972520e+002, 7.086169e+001
5.977341e+002, 7.024226e+001
5.982162e+002, 6.962804e+001
5.986984e+002, 6.937361e+001
5.991805e+002, 6.936828e+001
5.996626e+002, 6.917582e+001
6.001447e+002, 6.837905e+001
6.006268e+002, 6.768449e+001
6.011089e+002, 6.740126e+001
6.015911e+002, 6.756910e+001
6.020732e+002, 6.761417e+001
6.025553e+002, 6.747230e+001
6.030374e+002, 6.730962e+001
6.035195e+002, 6.727800e+001
6.040016e+002, 6.739941e+001
6.044838e+002, 6.735966e+001
6.049659e+002, 6.712001e+001
6.054480e+002, 6.679449e+001
6.059301e+002, 6.645950e+001
6.064122e+002, 6.614872e+001
6.068943e+002, 6.600394e+001
6.073765e+002, 6.611266e+001
6.078586e+002, 6.631721e+001
6.083407e+002, 6.652830e+001
6.088228e+002, 6.670164e+001
6.093049e+002, 6.672299e+001
6.097870e+002, 6.634097e+001
6.102692e+002, 6.597047e+001
6.107513e+002, 6.589069e+001
6.112334e+002, 6.607658e+001
6.117155e+002, 6.616036e+001
6.121976e+002, 6.588635e+001
6.126797e+002, 6.565995e+001
6.131619e+002, 6.570419e+001
6.136440e+002, 6.612760e+001
6.141261e+002, 6.629865e+001
6.146082e+002, 6.609529e+001
6.150903e+002, 6.583485e+001
6.155724e+002, 6.584281e+001
6.160546e+002, 6.613269e+001
6.165367e+002, 6.629902e+001
6.170188e+002, 6.626984e+001
6.175009e+002, 6.616474e+001
6.179830e+002, 6.614465e+001
6.184651e+002, 6.619402e+001
6.189473e+002, 6.626122e+001
6.194294e+002, 6.633892e+001
6.199115e+002, 6.641236e+001
6.203936e+002, 6.650570e+001
6.208757e+002, 6.658844e+001
6.213578e+002, 6.657236e+001
6.218400e+002, 6.625282e+001
6.223221e+002, 6.597032e+001
6.228042e+002, 6.594715e+001
6.232863e+002, 6.619579e+001
6.237684e+002, 6.634400e+001
6.242505e+002, 6.628532e+001
6.247327e+002, 6.618655e+001
6.252148e+002, 6.611740e+001
6.256969e+002, 6.606814e+001
6.261790e+002, 6.611076e+001
6.266611e+002, 6.629320e+001
6.271432e+002, 6.646711e+001
6.276254e+002, 6.641233e+001
6.281075e+002, 6.615189e+001
6.285896e+002, 6.607755e+001
6.290717e+002, 6.629347e+001
6.295538e+002, 6.660303e+001
6.300359e+002, 6.676996e+001
6.305181e+002, 6.682001e+001
6.310002e+002, 6.681998e+001
6.314823e+002, 6.670909e+001
6.319644e+002, 6.664339e+001
6.324465e+002, 6.679961e+001
6.329286e+002, 6.710227e+001
6.334108e+002, 6.731217e+001
6.338929e+002, 6.699673e+001
6.343750e+002, 6.690581e+001
6.348571e+002, 6.755388e+001
6.353392e+002, 6.900583e+001
6.358214e+002, 6.978445e+001
6.363035e+002, 6.950491e+001
6.367856e+002, 6.911005e+001
6.372677e+002, 6.912749e+001
6.377498e+002, 6.960719e+001
6.382319e+002, 7.012472e+001
6.387141e+002, 7.067369e+001
6.391962e+002, 7.130393e+001
6.396783e+002, 7.220705e+001
6.401604e+002, 7.326987e+001
6.406425e+002, 7.398210e+001
6.411246e+002, 7.416994e+001
6.416068e+002, 7.428443e+001
6.420889e+002, 7.474404e+001
6.425710e+002, 7.546306e+001
6.430531e+002, 7.628325e+001
6.435352e+002, 7.715761e+001
6.440173e+002, 7.811504e+001
6.444995e+002, 7.919141e+001
6.449816e+002, 8.036206e+001
6.454637e+002, 8.159447e+001
6.459458e+002, 8.278687e+001
6.464279e+002, 8.412943e+001
6.469100e+002, 8.571449e+001
6.473922e+002, 8.752634e+001
6.478743e+002, 8.916312e+001
6.483564e+002, 9.058755e+001
6.488385e+002, 9.199233e+001
6.493206e+002, 9.337514e+001
6.498027e+002, 9.480038e+001
6.502849e+002, 9.675974e+001
6.507670e+002, 9.927818e+001
6.512491e+002, 1.018965e+002
6.517312e+002, 1.041222e+002
6.522133e+002, 1.061582e+002
6.526954e+002, 1.083848e+002
6.531776e+002, 1.109069e+002
6.536597e+002, 1.134242e+002
6.541418e+002, 1.156788e+002
6.546239e+002, 1.179058e+002
6.551060e+002, 1.203891e+002
6.555881e+002, 1.234197e+002
6.560703e+002, 1.264363e+002
6.565524e+002, 1.293803e+002
6.570345e+002, 1.322521e+002
6.575166e+002, 1.349974e+002
6.579987e+002, 1.375896e+002
6.584808e+002, 1.401625e+002
6.589630e+002, 1.428184e+002
6.594451e+002, 1.454658e+002
6.599272e+002, 1.479059e+002
6.604093e+002, 1.501396e+002
6.608914e+002, 1.519399e+002
6.613735e+002, 1.534015e+002
6.618557e+002, 1.542663e+002
6.623378e+002, 1.540181e+002
6.628199e+002, 1.527005e+002
6.633020e+002, 1.507075e+002
6.637841e+002, 1.481933e+002
6.642662e+002, 1.451746e+002
6.647484e+002, 1.415982e+002
6.652305e+002, 1.374483e+002
6.657126e+002, 1.330338e+002
6.661947e+002, 1.280362e+002
6.666768e+002, 1.230792e+002
6.671589e+002, 1.185925e+002
6.676411e+002, 1.147302e+002
6.681232e+002, 1.109999e+002
6.686053e+002, 1.073386e+002
6.690874e+002, 1.038743e+002
6.695695e+002, 1.007945e+002
6.700516e+002, 9.808274e+001
6.705338e+002, 9.546748e+001
6.710159e+002, 9.282662e+001
6.714980e+002, 9.041309e+001
6.719801e+002, 8.877874e+001
6.724622e+002, 8.770561e+001
6.729443e+002, 8.664546e+001
6.734265e+002, 8.533936e+001
6.739086e+002, 8.397963e+001
6.743907e+002, 8.256192e+001
6.748728e+002, 8.116589e+001
6.753549e+002, 8.005968e+001
6.758370e+002, 7.945717e+001
6.763192e+002, 7.900886e+001
6.768013e+002, 7.870821e+001
6.772834e+002, 7.852161e+001
6.777655e+002, 7.804785e+001
6.782476e+002, 7.721082e+001
6.787297e+002, 7.624727e+001
6.792119e+002, 7.517469e+001
6.796940e+002, 7.401369e+001
6.801761e+002, 7.338257e+001
6.806582e+002, 7.332656e+001
6.811403e+002, 7.334749e+001
6.816224e+002, 7.297713e+001
6.821046e+002, 7.239677e+001
6.825867e+002, 7.196889e+001
6.830688e+002, 7.174868e+001
6.835509e+002, 7.155476e+001
6.840330e+002, 7.125098e+001
6.845151e+002, 7.091248e+001
6.849973e+002, 7.061838e+001
6.854794e+002, 7.045924e+001
6.859615e+002, 7.021684e+001
6.864436e+002, 6.970016e+001
6.869257e+002, 6.915591e+001
6.874078e+002, 6.887638e+001
6.878900e+002, 6.892028e+001
6.883721e+002, 6.909275e+001
6.888542e+002, 6.942648e+001
6.893363e+002, 6.979832e+001
6.898184e+002, 6.993899e+001
6.903005e+002, 6.986060e+001
6.907827e+002, 6.970177e+001
6.912648e+002, 6.946635e+001
6.917469e+002, 6.922907e+001
6.922290e+002, 6.913087e+001
6.927111e+002, 6.912903e+001
6.931932e+002, 6.909102e+001
6.936754e+002, 6.895262e+001
6.941575e+002, 6.875515e+001
6.946396e+002, 6.842590e+001
6.951217e+002, 6.799675e+001
6.956038e+002, 6.782712e+001
6.960859e+002, 6.822730e+001
6.965681e+002, 6.863223e+001
6.970502e+002, 6.883597e+001
6.975323e+002, 6.883144e+001
6.980144e+002, 6.881202e+001
6.984965e+002, 6.879284e+001
6.989786e+002, 6.870618e+001
6.994608e+002, 6.839809e+001
6.999429e+002, 6.795879e+001
7.004250e+002, 6.784517e+001
7.009071e+002, 6.809569e+001
7.013892e+002, 6.841933e+001
7.018713e+002, 6.858790e+001
7.023535e+002, 6.866965e+001
7.028356e+002, 6.872925e+001
7.033177e+002, 6.874549e+001
7.037998e+002, 6.885385e+001
7.042819e+002, 6.925176e+001
7.047640e+002, 6.969886e+001
7.052462e+002, 6.993262e+001
7.057283e+002, 6.986987e+001
7.062104e+002, 6.968428e+001
7.066925e+002, 6.922855e+001
7.071746e+002, 6.879803e+001
7.076567e+002, 6.896462e+001
7.081389e+002, 6.977457e+001
7.086210e+002, 7.040299e+001
7.091031e+002, 7.061268e+001
7.095852e+002, 7.064305e+001
7.100673e+002, 7.089111e+001
7.105494e+002, 7.129211e+001
7.110316e+002, 7.165752e+001
7.115137e+002, 7.184762e+001
7.119958e+002, 7.201699e+001
7.124779e+002, 7.229525e+001
7.129600e+002, 7.264159e+001
7.134421e+002, 7.292552e+001
7.139243e+002, 7.306741e+001
7.144064e+002, 7.319059e+001
7.148885e+002, 7.328025e+001
7.153706e+002, 7.336223e+001
7.158527e+002, 7.363022e+001
7.163348e+002, 7.408347e+001
7.168170e+002, 7.472696e+001
7.172991e+002, 7.567029e+001
7.177812e+002, 7.681754e+001
7.182633e+002, 7.758646e+001
7.187454e+002, 7.799324e+001
7.192275e+002, 7.833379e+001
7.197097e+002, 7.874266e+001
7.201918e+002, 7.925674e+001
7.206739e+002, 7.995668e+001
7.211560e+002, 8.084335e+001
7.216381e+002, 8.177703e+001
7.221202e+002, 8.279710e+001
7.226024e+002, 8.375681e+001
7.230845e+002, 8.452998e+001
7.235666e+002, 8.501462e+001
7.240487e+002, 8.561420e+001
7.245308e+002, 8.639958e+001
7.250129e+002, 8.721612e+001
7.254951e+002, 8.794477e+001
7.259772e+002, 8.859021e+001
7.264593e+002, 8.918608e+001
7.269414e+002, 8.974802e+001
7.274235e+002, 9.019918e+001
7.279056e+002, 9.051209e+001
7.283878e+002, 9.063918e+001
7.288699e+002, 9.048519e+001
7.293520e+002, 9.003460e+001
7.298341e+002, 8.927364e+001
7.303162e+002, 8.805384e+001
7.307983e+002, 8.657243e+001
7.312805e+002, 8.506186e+001
7.317626e+002, 8.337284e+001
7.322447e+002, 8.192618e+001
7.327268e+002, 8.077786e+001
7.332089e+002, 7.987968e+001
7.336910e+002, 7.919404e+001
7.341732e+002, 7.877872e+001
7.346553e+002, 7.830181e+001
7.351374e+002, 7.765762e+001
7.356195e+002, 7.698194e+001
7.361016e+002, 7.655777e+001
7.365837e+002, 7.634559e+001
7.370659e+002, 7.617617e+001
7.375480e+002, 7.599687e+001
7.380301e+002, 7.581023e+001
7.385122e+002, 7.559349e+001
7.389943e+002, 7.537068e+001
7.394764e+002, 7.520718e+001
7.399586e+002, 7.514833e+001
7.404407e+002, 7.512722e+001
7.409228e+002, 7.511582e+001
7.414049e+002, 7.512157e+001
7.418870e+002, 7.519984e+001
7.423691e+002, 7.538951e+001
7.428513e+002, 7.553535e+001
7.433334e+002, 7.551314e+001
7.438155e+002, 7.541342e+001
7.442976e+002, 7.573711e+001
7.447797e+002, 7.645435e+001
7.452618e+002, 7.699793e+001
7.457440e+002, 7.681312e+001
7.462261e+002, 7.639087e+001
7.467082e+002, 7.627706e+001
7.471903e+002, 7.647437e+001
7.476724e+002, 7.680519e+001
7.481545e+002, 7.735913e+001
7.486367e+002, 7.788158e+001
7.491188e+002, 7.820285e+001
7.496009e+002, 7.828952e+001
7.500830e+002, 7.848807e+001
7.505651e+002, 7.882777e+001
7.510472e+002, 7.922855e+001
7.515294e+002, 7.960474e+001
7.520115e+002, 7.996603e+001
7.524936e+002, 8.063339e+001
7.529757e+002, 8.163563e+001
7.534578e+002, 8.252079e+001
7.539399e+002, 8.268838e+001
7.544221e+002, 8.256546e+001
7.549042e+002, 8.281162e+001
7.553863e+002, 8.352759e+001
7.558684e+002, 8.425289e+001
7.563505e+002, 8.473449e+001
7.568326e+002, 8.514952e+001
7.573148e+002, 8.564242e+001
7.577969e+002, 8.627851e+001
7.582790e+002, 8.686415e+001
7.587611e+002, 8.742522e+001
7.592432e+002, 8.790970e+001
7.597253e+002, 8.830891e+001
7.602075e+002, 8.862916e+001
7.606896e+002, 8.863134e+001
7.611717e+002, 8.824841e+001
7.616538e+002, 8.779753e+001
7.621359e+002, 8.762930e+001
7.626180e+002, 8.762879e+001
7.631002e+002, 8.762704e+001
7.635823e+002, 8.763570e+001
7.640644e+002, 8.747157e+001
7.645465e+002, 8.679861e+001
7.650286e+002, 8.601135e+001
7.655107e+002, 8.554414e+001
7.659929e+002, 8.599112e+001
7.664750e+002, 8.591711e+001
7.669571e+002, 8.505598e+001
7.674392e+002, 8.393859e+001
7.679213e+002, 8.326620e+001
7.684034e+002, 8.305843e+001
7.688856e+002, 8.275011e+001
7.693677e+002, 8.221550e+001
7.698498e+002, 8.168399e+001
7.703319e+002, 8.152292e+001
7.708140e+002, 8.157543e+001
7.712961e+002, 8.150108e+001
7.717783e+002, 8.111934e+001
7.722604e+002, 8.072903e+001
7.727425e+002, 8.059897e+001
7.732246e+002, 8.052603e+001
7.737067e+002, 8.018527e+001
7.741888e+002, 7.906417e+001
7.746710e+002, 7.842304e+001
7.751531e+002, 7.858691e+001
7.756352e+002, 7.909823e+001
7.761173e+002, 7.907336e+001
7.765994e+002, 7.849497e+001
7.770815e+002, 7.806857e+001
7.775637e+002, 7.799301e+001
7.780458e+002, 7.808179e+001
7.785279e+002, 7.809897e+001
7.790100e+002, 7.807092e+001
7.794921e+002, 7.805872e+001
7.799742e+002, 7.815390e+001
7.804564e+002, 7.819160e+001
7.809385e+002, 7.800526e+001
7.814206e+002, 7.772028e+001
7.819027e+002, 7.762723e+001
7.823848e+002, 7.799737e+001
7.828669e+002, 7.810173e+001
7.833491e+002, 7.769620e+001
7.838312e+002, 7.704961e+001
7.843133e+002, 7.687746e+001
7.847954e+002, 7.716835e+001
7.852775e+002, 7.737751e+001
7.857596e+002, 7.730034e+001
7.862418e+002, 7.707884e+001
7.867239e+002, 7.681196e+001
7.872060e+002, 7.655741e+001
7.876881e+002, 7.644907e+001
7.881702e+002, 7.662638e+001
7.886523e+002, 7.687817e+001
7.891345e+002, 7.722855e+001
7.896166e+002, 7.758742e+001
7.900987e+002, 7.770036e+001
7.905808e+002, 7.741548e+001
7.910629e+002, 7.718016e+001
7.915450e+002, 7.709351e+001
7.920272e+002, 7.712520e+001
7.925093e+002, 7.722944e+001
7.929914e+002, 7.739739e+001
7.934735e+002, 7.751131e+001
7.939556e+002, 7.750166e+001
7.944377e+002, 7.743731e+001
7.949199e+002, 7.732463e+001
7.954020e+002, 7.722061e+001
7.958841e+002, 7.727937e+001
7.963662e+002, 7.783555e+001
7.968483e+002, 7.826804e+001
7.973304e+002, 7.829330e+001
7.978126e+002, 7.802370e+001
7.982947e+002, 7.778083e+001
7.987768e+002, 7.752717e+001
7.992589e+002, 7.742024e+001
7.997410e+002, 7.755917e+001
8.002231e+002, 7.782658e+001
8.007053e+002, 7.791870e+001
8.011874e+002, 7.785731e+001
8.016695e+002, 7.776314e+001
8.021516e+002, 7.766919e+001
8.026337e+002, 7.759150e+001
8.031158e+002, 7.752306e+001
8.035980e+002, 7.748152e+001
8.040801e+002, 7.751270e+001
8.045622e+002, 7.776207e+001
8.050443e+002, 7.793126e+001
8.055264e+002, 7.789848e+001
8.060085e+002, 7.773838e+001
8.064907e+002, 7.770256e+001
8.069728e+002, 7.781608e+001
8.074549e+002, 7.791322e+001
8.079370e+002, 7.790201e+001
8.084191e+002, 7.788159e+001
8.089012e+002, 7.811381e+001
8.093834e+002, 7.852878e+001
8.098655e+002, 7.887584e+001
8.103476e+002, 7.901421e+001
8.108297e+002, 7.906380e+001
8.113118e+002, 7.908315e+001
8.117939e+002, 7.907136e+001
8.122761e+002, 7.901869e+001
8.127582e+002, 7.883315e+001
8.132403e+002, 7.874113e+001
8.137224e+002, 7.882705e+001
8.142045e+002, 7.901818e+001
8.146866e+002, 7.908611e+001
8.151688e+002, 7.902808e+001
8.156509e+002, 7.899412e+001
8.161330e+002, 7.904591e+001
8.166151e+002, 7.914127e+001
8.170972e+002, 7.923714e+001
8.175793e+002, 7.932614e+001
8.180615e+002, 7.939237e+001
8.185436e+002, 7.941100e+001
8.190257e+002, 7.942270e+001
8.195078e+002, 7.940002e+001
8.199899e+002, 7.938503e+001
8.204720e+002, 7.950594e+001
8.209542e+002, 7.987395e+001
8.214363e+002, 8.008779e+001
8.219184e+002, 7.999625e+001
8.224005e+002, 7.977227e+001
8.228826e+002, 7.983995e+001
8.233647e+002, 8.015055e+001
8.238469e+002, 8.042066e+001
8.243290e+002, 8.054902e+001
8.248111e+002, 8.059499e+001
8.252932e+002, 8.059182e+001
8.257753e+002, 8.055101e+001
8.262574e+002, 8.049570e+001
8.267396e+002, 8.036784e+001
8.272217e+002, 8.030739e+001
8.277038e+002, 8.031643e+001
8.281859e+002, 8.041213e+001
8.286681e+002, 8.069875e+001
8.291502e+002, 8.123672e+001
8.296323e+002, 8.149448e+001
8.301144e+002, 8.128442e+001
8.305966e+002, 8.088110e+001
8.310787e+002, 8.057229e+001
8.315608e+002, 8.040640e+001
8.320429e+002, 8.051241e+001
8.325250e+002, 8.109853e+001
8.330071e+002, 8.169872e+001
8.334893e+002, 8.220103e+001
8.339714e+002, 8.253268e+001
8.344535e+002, 8.255320e+001
8.349356e+002, 8.195458e+001
8.354177e+002, 8.167657e+001
8.358998e+002, 8.188570e+001
8.363820e+002, 8.232028e+001
8.368641e+002, 8.266367e+001
8.373462e+002, 8.290432e+001
8.378283e+002, 8.292341e+001
8.383104e+002, 8.264263e+001
8.387925e+002, 8.233133e+001
8.392747e+002, 8.218747e+001
8.397568e+002, 8.220216e+001
8.402389e+002, 8.237986e+001
8.407210e+002, 8.287759e+001
8.412031e+002, 8.325053e+001
8.416852e+002, 8.327245e+001
8.421674e+002, 8.323029e+001
8.426495e+002, 8.341607e+001
8.431316e+002, 8.388970e+001
8.436137e+002, 8.425684e+001
8.440958e+002, 8.449454e+001
8.445779e+002, 8.461995e+001
8.450601e+002, 8.456664e+001
8.455422e+002, 8.443497e+001
8.460243e+002, 8.441585e+001
8.465064e+002, 8.453362e+001
8.469885e+002, 8.482219e+001
8.474706e+002, 8.539682e+001
8.479528e+002, 8.608895e+001
8.484349e+002, 8.677348e+001
8.489170e+002, 8.749069e+001
8.493991e+002, 8.803436e+001
8.498812e+002, 8.835530e+001
8.503633e+002, 8.860303e+001
8.508455e+002, 8.884385e+001
8.513276e+002, 8.910338e+001
8.518097e+002, 8.959169e+001
8.522918e+002, 9.032795e+001
8.527739e+002, 9.107133e+001
8.532560e+002, 9.165091e+001
8.537382e+002, 9.214095e+001
8.542203e+002, 9.256424e+001
8.547024e+002, 9.290489e+001
8.551845e+002, 9.344371e+001
8.556666e+002, 9.428272e+001
8.561487e+002, 9.529063e+001
8.566309e+002, 9.654244e+001
8.571130e+002, 9.800983e+001
8.575951e+002, 9.873893e+001
8.580772e+002, 9.865189e+001
8.585593e+002, 9.880637e+001
8.590414e+002, 1.001905e+002
8.595236e+002, 1.021397e+002
8.600057e+002, 1.036060e+002
8.604878e+002, 1.046221e+002
8.609699e+002, 1.056195e+002
8.614520e+002, 1.068276e+002
8.619341e+002, 1.080402e+002
8.624163e+002, 1.091564e+002
8.628984e+002, 1.101979e+002
8.633805e+002, 1.112752e+002
8.638626e+002, 1.124182e+002
8.643447e+002, 1.135408e+002
8.648268e+002, 1.146165e+002
8.653090e+002, 1.156597e+002
8.657911e+002, 1.167412e+002
8.662732e+002, 1.178201e+002
8.667553e+002, 1.186876e+002
8.672374e+002, 1.190333e+002
8.677195e+002, 1.193472e+002
8.682017e+002, 1.200407e+002
8.686838e+002, 1.209373e+002
8.691659e+002, 1.214738e+002
8.696480e+002, 1.213568e+002
8.701301e+002, 1.213851e+002
8.706122e+002, 1.218329e+002
8.710944e+002, 1.223693e+002
8.715765e+002, 1.221154e+002
8.720586e+002, 1.212000e+002
8.725407e+002, 1.206400e+002
8.730228e+002, 1.208905e+002
8.735049e+002, 1.212678e+002
8.739871e+002, 1.210500e+002
8.744692e+002, 1.205529e+002
8.749513e+002, 1.202530e+002
8.754334e+002, 1.202443e+002
8.759155e+002, 1.205247e+002
8.763976e+002, 1.212561e+002
8.768798e+002, 1.220965e+002
8.773619e+002, 1.226065e+002
8.778440e+002, 1.227554e+002
8.783261e+002, 1.231656e+002
8.788082e+002, 1.239848e+002
8.792903e+002, 1.246603e+002
8.797725e+002, 1.243048e+002
8.802546e+002, 1.235478e+002
8.807367e+002, 1.234323e+002
8.812188e+002, 1.243520e+002
8.817009e+002, 1.248704e+002
8.821830e+002, 1.242193e+002
8.826652e+002, 1.231787e+002
8.831473e+002, 1.222761e+002
8.836294e+002, 1.215208e+002
8.841115e+002, 1.207905e+002
8.845936e+002, 1.200568e+002
8.850757e+002, 1.194873e+002
8.855579e+002, 1.192992e+002
8.860400e+002, 1.193336e+002
8.865221e+002, 1.192027e+002
8.870042e+002, 1.189222e+002
8.874863e+002, 1.188627e+002
8.879684e+002, 1.192865e+002
8.884506e+002, 1.199346e+002
8.889327e+002, 1.206780e+002
8.894148e+002, 1.215148e+002
8.898969e+002, 1.225283e+002
8.903790e+002, 1.237466e+002
8.908611e+002, 1.250325e+002
8.913433e+002, 1.263090e+002
8.918254e+002, 1.276338e+002
8.923075e+002, 1.291800e+002
8.927896e+002, 1.309451e+002
8.932717e+002, 1.328786e+002
8.937538e+002, 1.352372e+002
8.942360e+002, 1.375116e+002
8.947181e+002, 1.392962e+002
8.952002e+002, 1.407436e+002
8.956823e+002, 1.422666e+002
8.961644e+002, 1.442379e+002
8.966465e+002, 1.455030e+002
8.971287e+002, 1.456838e+002
8.976108e+002, 1.453298e+002
8.980929e+002, 1.456316e+002
8.985750e+002, 1.463436e+002
8.990571e+002, 1.462365e+002
8.995392e+002, 1.448042e+002
9.000214e+002, 1.430441e+002
9.005035e+002, 1.416839e+002
9.009856e+002, 1.404721e+002
9.014677e+002, 1.390815e+002
9.019498e+002, 1.373444e+002
9.024319e+002, 1.356663e+002
9.029141e+002, 1.340729e+002
9.033962e+002, 1.324899e+002
9.038783e+002, 1.308130e+002
9.043604e+002, 1.290586e+002
9.048425e+002, 1.273911e+002
9.053246e+002, 1.258100e+002
9.058068e+002, 1.240666e+002
9.062889e+002, 1.219038e+002
9.067710e+002, 1.194974e+002
9.072531e+002, 1.170123e+002
9.077352e+002, 1.144881e+002
9.082173e+002, 1.116263e+002
9.086995e+002, 1.080024e+002
9.091816e+002, 1.045639e+002
9.096637e+002, 1.018015e+002
9.101458e+002, 9.962144e+001
9.106279e+002, 9.748173e+001
9.111100e+002, 9.538886e+001
9.115922e+002, 9.347679e+001
9.120743e+002, 9.196375e+001
9.125564e+002, 9.053401e+001
9.130385e+002, 8.874620e+001
9.135206e+002, 8.676549e+001
9.140027e+002, 8.504819e+001
9.144849e+002, 8.383455e+001
9.149670e+002, 8.277798e+001
9.154491e+002, 8.187283e+001
9.159312e+002, 8.104329e+001
9.164133e+002, 8.004919e+001
9.168954e+002, 7.889662e+001
9.173776e+002, 7.811657e+001
9.178597e+002, 7.792644e+001
9.183418e+002, 7.785278e+001
9.188239e+002, 7.733949e+001
9.193060e+002, 7.662282e+001
9.197881e+002, 7.603474e+001
9.202703e+002, 7.569495e+001
9.207524e+002, 7.540812e+001
9.212345e+002, 7.516154e+001
9.217166e+002, 7.493508e+001
9.221987e+002, 7.468686e+001
9.226808e+002, 7.441040e+001
9.231630e+002, 7.432437e+001
9.236451e+002, 7.444962e+001
9.241272e+002, 7.459608e+001
9.246093e+002, 7.460466e+001
9.250914e+002, 7.454220e+001
9.255735e+002, 7.442001e+001
9.260557e+002, 7.424924e+001
9.265378e+002, 7.427724e+001
9.270199e+002, 7.481574e+001
9.275020e+002, 7.530087e+001
9.279841e+002, 7.551220e+001
9.284662e+002, 7.550288e+001
9.289484e+002, 7.559374e+001
9.294305e+002, 7.578429e+001
9.299126e+002, 7.601115e+001
9.303947e+002, 7.627078e+001
9.308768e+002, 7.652245e+001
9.313589e+002, 7.659275e+001
9.318411e+002, 7.662715e+001
9.323232e+002, 7.694477e+001
9.328053e+002, 7.796716e+001
9.332874e+002, 7.885692e+001
9.337695e+002, 7.941918e+001
9.342516e+002, 7.984439e+001
9.347338e+002, 8.035974e+001
9.352159e+002, 8.097017e+001
9.356980e+002, 8.184072e+001
9.361801e+002, 8.305006e+001
9.366622e+002, 8.424023e+001
9.371443e+002, 8.490333e+001
9.376265e+002, 8.540918e+001
9.381086e+002, 8.623232e+001
9.385907e+002, 8.757093e+001
9.390728e+002, 8.876613e+001
9.395549e+002, 8.964494e+001
9.400370e+002, 9.042191e+001
9.405192e+002, 9.120773e+001
9.410013e+002, 9.199692e+001
9.414834e+002, 9.258434e+001
9.419655e+002, 9.298313e+001
9.424476e+002, 9.364914e+001
9.429297e+002, 9.528340e+001
9.434119e+002, 9.702448e+001
9.438940e+002, 9.792336e+001
9.443761e+002, 9.814697e+001
9.448582e+002, 9.854517e+001
9.453403e+002, 9.920763e+001
9.458224e+002, 1.002197e+002
9.463046e+002, 1.016639e+002
9.467867e+002, 1.034216e+002
9.472688e+002, 1.052262e+002
9.477509e+002, 1.070805e+002
9.482330e+002, 1.089184e+002
9.487151e+002, 1.106557e+002
9.491973e+002, 1.125543e+002
9.496794e+002, 1.147936e+002
9.501615e+002, 1.173606e+002
9.506436e+002, 1.203046e+002
9.511257e+002, 1.241480e+002
9.516078e+002, 1.271926e+002
9.520900e+002, 1.290227e+002
9.525721e+002, 1.307147e+002
9.530542e+002, 1.333046e+002
9.535363e+002, 1.366059e+002
9.540184e+002, 1.395606e+002
9.545005e+002, 1.420998e+002
9.549827e+002, 1.441895e+002
9.554648e+002, 1.461720e+002
9.559469e+002, 1.473759e+002
9.564290e+002, 1.470136e+002
9.569111e+002, 1.451541e+002
9.573932e+002, 1.435456e+002
9.578754e+002, 1.425484e+002
9.583575e+002, 1.411103e+002
9.588396e+002, 1.388554e+002
9.593217e+002, 1.360214e+002
9.598038e+002, 1.330019e+002
9.602859e+002, 1.299105e+002
9.607681e+002, 1.271890e+002
9.612502e+002, 1.250027e+002
9.617323e+002, 1.232176e+002
9.622144e+002, 1.217287e+002
9.626965e+002, 1.206176e+002
9.631786e+002, 1.200332e+002
9.636608e+002, 1.202091e+002
9.641429e+002, 1.201511e+002
9.646250e+002, 1.196824e+002
9.651071e+002, 1.194589e+002
9.655892e+002, 1.202067e+002
9.660714e+002, 1.216690e+002
9.665535e+002, 1.234064e+002
9.670356e+002, 1.253614e+002
9.675177e+002, 1.273748e+002
9.679998e+002, 1.292740e+002
9.684819e+002, 1.312977e+002
9.689641e+002, 1.336609e+002
9.694462e+002, 1.362984e+002
9.699283e+002, 1.389192e+002
9.704104e+002, 1.415752e+002
9.708925e+002, 1.438171e+002
9.713746e+002, 1.455104e+002
9.718568e+002, 1.466665e+002
9.723389e+002, 1.473756e+002
9.728210e+002, 1.475730e+002
9.733031e+002, 1.471373e+002
9.737852e+002, 1.459462e+002
9.742673e+002, 1.442044e+002
9.747495e+002, 1.418239e+002
9.752316e+002, 1.390104e+002
9.757137e+002, 1.359387e+002
9.761958e+002, 1.325822e+002
9.766779e+002, 1.289893e+002
9.771600e+002, 1.251321e+002
9.776422e+002, 1.212588e+002
9.781243e+002, 1.172051e+002
9.786064e+002, 1.133954e+002
9.790885e+002, 1.102729e+002
9.795706e+002, 1.078908e+002
9.800527e+002, 1.059492e+002
9.805349e+002, 1.047325e+002
9.810170e+002, 1.034316e+002
9.814991e+002, 1.016469e+002
9.819812e+002, 9.961272e+001
9.824633e+002, 9.807846e+001
9.829454e+002, 9.703139e+001
9.834276e+002, 9.641450e+001
9.839097e+002, 9.634187e+001
9.843918e+002, 9.647865e+001
9.848739e+002, 9.666834e+001
9.853560e+002, 9.687996e+001
9.858381e+002, 9.706744e+001
9.863203e+002, 9.724613e+001
9.868024e+002, 9.735490e+001
9.872845e+002, 9.737146e+001
9.877666e+002, 9.737199e+001
9.882487e+002, 9.743202e+001
9.887308e+002, 9.753915e+001
9.892130e+002, 9.766181e+001
9.896951e+002, 9.779683e+001
9.901772e+002, 9.795525e+001
9.906593e+002, 9.799352e+001
9.911414e+002, 9.820083e+001
9.916235e+002, 9.881680e+001
9.921057e+002, 9.975342e+001
9.925878e+002, 1.005043e+002
9.930699e+002, 1.010002e+002
9.935520e+002, 1.018536e+002
9.940341e+002, 1.033297e+002
9.945162e+002, 1.052012e+002
9.949984e+002, 1.072161e+002
9.954805e+002, 1.093722e+002
9.959626e+002, 1.116698e+002
9.964447e+002, 1.141141e+002
9.969268e+002, 1.167362e+002
9.974089e+002, 1.195046e+002
9.978911e+002, 1.224491e+002
9.983732e+002, 1.255654e+002
9.988553e+002, 1.288373e+002
9.993374e+002, 1.326107e+002
9.998195e+002, 1.368902e+002
1.000302e+003, 1.411426e+002
1.000784e+003, 1.452084e+002
1.001266e+003, 1.489212e+002
1.001748e+003, 1.521919e+002
1.002230e+003, 1.550202e+002
1.002712e+003, 1.574553e+002
1.003194e+003, 1.597060e+002
1.003676e+003, 1.611669e+002
1.004159e+003, 1.616381e+002
1.004641e+003, 1.612997e+002
1.005123e+003, 1.603542e+002
1.005605e+003, 1.589106e+002
1.006087e+003, 1.573376e+002
1.006569e+003, 1.558435e+002
1.007051e+003, 1.539196e+002
1.007533e+003, 1.507813e+002
1.008016e+003, 1.474427e+002
1.008498e+003, 1.447976e+002
1.008980e+003, 1.430068e+002
1.009462e+003, 1.411255e+002
1.009944e+003, 1.391279e+002
1.010426e+003, 1.371138e+002
1.010908e+003, 1.350589e+002
1.011390e+003, 1.331160e+002
1.011872e+003, 1.316648e+002
1.012355e+003, 1.305535e+002
1.012837e+003, 1.290901e+002
1.013319e+003, 1.266797e+002
1.013801e+003, 1.243511e+002
1.014283e+003, 1.224205e+002
1.014765e+003, 1.205827e+002
1.015247e+003, 1.181686e+002
1.015729e+003, 1.152364e+002
1.016211e+003, 1.123232e+002
1.016694e+003, 1.094802e+002
1.017176e+003, 1.069669e+002
1.017658e+003, 1.052846e+002
1.018140e+003, 1.038388e+002
1.018622e+003, 1.020214e+002
1.019104e+003, 9.968987e+001
1.019586e+003, 9.762113e+001
1.020068e+003, 9.582726e+001
1.020551e+003, 9.426287e+001
1.021033e+003, 9.293535e+001
1.021515e+003, 9.179613e+001
1.021997e+003, 9.075486e+001
1.022479e+003, 8.982198e+001
1.022961e+003, 8.904320e+001
1.023443e+003, 8.860720e+001
1.023925e+003, 8.811450e+001
1.024407e+003, 8.726884e+001
1.024890e+003, 8.643259e+001
1.025372e+003, 8.615591e+001
1.025854e+003, 8.646423e+001
1.026336e+003, 8.642655e+001
1.026818e+003, 8.592419e+001
1.027300e+003, 8.541118e+001
1.027782e+003, 8.528513e+001
1.028264e+003, 8.534153e+001
1.028746e+003, 8.533720e+001
1.029229e+003, 8.525981e+001
1.029711e+003, 8.551887e+001
1.030193e+003, 8.630338e+001
1.030675e+003, 8.703684e+001
1.031157e+003, 8.750200e+001
1.031639e+003, 8.782932e+001
1.032121e+003, 8.825682e+001
1.032603e+003, 8.881044e+001
1.033086e+003, 8.953354e+001
1.033568e+003, 9.039238e+001
1.034050e+003, 9.155168e+001
1.034532e+003, 9.338855e+001
1.035014e+003, 9.533334e+001
1.035496e+003, 9.688599e+001
1.035978e+003, 9.799171e+001
1.036460e+003, 9.896021e+001
1.036943e+003, 9.976219e+001
1.037425e+003, 1.006523e+002
1.037907e+003, 1.021066e+002
1.038389e+003, 1.035138e+002
1.038871e+003, 1.041629e+002
1.039353e+003, 1.041580e+002
1.039835e+003, 1.039624e+002
1.040317e+003, 1.039038e+002
1.040799e+003, 1.032258e+002
1.041281e+003, 1.016534e+002
1.041764e+003, 9.964796e+001
1.042246e+003, 9.793943e+001
1.042728e+003, 9.640341e+001
1.043210e+003, 9.465083e+001
1.043692e+003, 9.255589e+001
1.044174e+003, 9.054898e+001
1.044656e+003, 8.900627e+001
1.045138e+003, 8.748208e+001
1.045621e+003, 8.562216e+001
1.046103e+003, 8.347869e+001
1.046585e+003, 8.170386e+001
1.047067e+003, 8.031397e+001
1.047549e+003, 7.919529e+001
1.048031e+003, 7.836296e+001
1.048513e+003, 7.770614e+001
1.048995e+003, 7.717171e+001
1.049478e+003, 7.671644e+001
1.049960e+003, 7.626650e+001
1.050442e+003, 7.571032e+001
1.050924e+003, 7.531041e+001
1.051406e+003, 7.507376e+001
1.051888e+003, 7.497973e+001
1.052370e+003, 7.504649e+001
1.052852e+003, 7.523505e+001
1.053334e+003, 7.543204e+001
1.053817e+003, 7.562818e+001
1.054299e+003, 7.578859e+001
1.054781e+003, 7.602690e+001
1.055263e+003, 7.608131e+001
1.055745e+003, 7.582104e+001
1.056227e+003, 7.529723e+001
1.056709e+003, 7.454378e+001
1.057191e+003, 7.354490e+001
1.057673e+003, 7.261449e+001
1.058156e+003, 7.181643e+001
1.058638e+003, 7.109447e+001
1.059120e+003, 7.044915e+001
1.059602e+003, 6.980019e+001
1.060084e+003, 6.902471e+001
1.060566e+003, 6.805794e+001
1.061048e+003, 6.727537e+001
1.061530e+003, 6.672984e+001
1.062013e+003, 6.626376e+001
1.062495e+003, 6.585253e+001
1.062977e+003, 6.543222e+001
1.063459e+003, 6.471795e+001
1.063941e+003, 6.385043e+001
1.064423e+003, 6.321815e+001
1.064905e+003, 6.312367e+001
1.065387e+003, 6.307943e+001
1.065870e+003, 6.302323e+001
1.066352e+003, 6.288502e+001
1.066834e+003, 6.257126e+001
1.067316e+003, 6.208317e+001
1.067798e+003, 6.156956e+001
1.068280e+003, 6.103354e+001
1.068762e+003, 6.061385e+001
1.069244e+003, 6.046627e+001
1.069726e+003, 6.042070e+001
1.070208e+003, 6.037673e+001
1.070691e+003, 6.032238e+001
1.071173e+003, 6.023288e+001
1.071655e+003, 6.008720e+001
1.072137e+003, 5.998722e+001
1.072619e+003, 5.997920e+001
1.073101e+003, 5.993776e+001
1.073583e+003, 5.963213e+001
1.074065e+003, 5.920385e+001
1.074548e+003, 5.888006e+001
1.075030e+003, 5.870967e+001
1.075512e+003, 5.855952e+001
1.075994e+003, 5.836616e+001
1.076476e+003, 5.823309e+001
1.076958e+003, 5.824190e+001
1.077440e+003, 5.832889e+001
1.077922e+003, 5.822106e+001
1.078405e+003, 5.796238e+001
1.078887e+003, 5.777419e+001
1.079369e+003, 5.780874e+001
1.079851e+003, 5.781414e+001
1.080333e+003, 5.761282e+001
1.080815e+003, 5.732990e+001
1.081297e+003, 5.710478e+001
1.081779e+003, 5.694220e+001
1.082261e+003, 5.680510e+001
1.082744e+003, 5.669071e+001
1.083226e+003, 5.662175e+001
1.083708e+003, 5.673647e+001
1.084190e+003, 5.680836e+001
1.084672e+003, 5.645690e+001
1.085154e+003, 5.584821e+001
1.085636e+003, 5.557265e+001
1.086118e+003, 5.591699e+001
1.086601e+003, 5.613733e+001
1.087083e+003, 5.609796e+001
1.087565e+003, 5.602930e+001
1.088047e+003, 5.638918e+001
1.088529e+003, 5.688937e+001
1.089011e+003, 5.683356e+001
1.089493e+003, 5.614939e+001
1.089975e+003, 5.555907e+001
1.090458e+003, 5.514185e+001
1.090940e+003, 5.519264e+001
1.091422e+003, 5.608876e+001
1.091904e+003, 5.736192e+001
1.092386e+003, 5.735882e+001
1.092868e+003, 5.629428e+001
1.093350e+003, 5.553114e+001
1.093832e+003, 5.552454e+001
1.094314e+003, 5.570147e+001
1.094797e+003, 5.576152e+001
1.095279e+003, 5.575592e+001
1.095761e+003, 5.570387e+001
1.096243e+003, 5.559705e+001
1.096725e+003, 5.565091e+001
1.097207e+003, 5.587770e+001
1.097689e+003, 5.613324e+001
1.098171e+003, 5.637936e+001
1.098653e+003, 5.657151e+001
1.099136e+003, 5.660559e+001
1.099618e+003, 5.656169e+001
1.100100e+003, 5.659759e+001
1.100582e+003, 5.673546e+001
1.101064e+003, 5.697206e+001
1.101546e+003, 5.731446e+001
1.102028e+003, 5.773813e+001
1.102510e+003, 5.831542e+001
1.102993e+003, 5.892862e+001
1.103475e+003, 5.927917e+001
1.103957e+003, 5.940175e+001
1.104439e+003, 5.957156e+001
1.104921e+003, 5.992945e+001
1.105403e+003, 6.031286e+001
1.105885e+003, 6.066474e+001
1.106367e+003, 6.103047e+001
1.106849e+003, 6.144267e+001
1.107332e+003, 6.192487e+001
1.107814e+003, 6.264411e+001
1.108296e+003, 6.364951e+001
1.108778e+003, 6.463758e+001
1.109260e+003, 6.537692e+001
1.109742e+003, 6.608097e+001
1.110224e+003, 6.690219e+001
1.110706e+003, 6.781184e+001
1.111188e+003, 6.881345e+001
1.111671e+003, 6.992510e+001
1.112153e+003, 7.053481e+001
1.112635e+003, 7.032145e+001
1.113117e+003, 6.987911e+001
1.113599e+003, 6.989909e+001
1.114081e+003, 6.996757e+001
1.114563e+003, 6.951263e+001
1.115045e+003, 6.829321e+001
1.115528e+003, 6.762355e+001
1.116010e+003, 6.767961e+001
1.116492e+003, 6.750736e+001
1.116974e+003, 6.640817e+001
1.117456e+003, 6.489803e+001
1.117938e+003, 6.372335e+001
1.118420e+003, 6.279670e+001
1.118902e+003, 6.193041e+001
1.119385e+003, 6.114607e+001
1.119867e+003, 6.029280e+001
1.120349e+003, 5.931382e+001
1.120831e+003, 5.836854e+001
1.121313e+003, 5.764667e+001
1.121795e+003, 5.707831e+001
1.122277e+003, 5.638627e+001
1.122759e+003, 5.560763e+001
1.123241e+003, 5.500527e+001
1.123724e+003, 5.490946e+001
1.124206e+003, 5.474125e+001
1.124688e+003, 5.427427e+001
1.125170e+003, 5.370581e+001
1.125652e+003, 5.334473e+001
1.126134e+003, 5.316796e+001
1.126616e+003, 5.305007e+001
1.127098e+003, 5.297770e+001
1.127580e+003, 5.288863e+001
1.128063e+003, 5.277472e+001
1.128545e+003, 5.259648e+001
1.129027e+003, 5.229424e+001
1.129509e+003, 5.191386e+001
1.129991e+003, 5.157341e+001
1.130473e+003, 5.127008e+001
1.130955e+003, 5.121383e+001
1.131437e+003, 5.154270e+001
1.131920e+003, 5.179946e+001
1.132402e+003, 5.146011e+001
1.132884e+003, 5.089911e+001
1.133366e+003, 5.045407e+001
1.133848e+003, 5.015855e+001
1.134330e+003, 4.998433e+001
1.134812e+003, 4.994352e+001
1.135294e+003, 4.996944e+001
1.135776e+003, 5.009604e+001
1.136259e+003, 5.017454e+001
1.136741e+003, 4.987687e+001
1.137223e+003, 4.944169e+001
1.137705e+003, 4.925553e+001
1.138187e+003, 4.960553e+001
1.138669e+003, 4.972618e+001
1.139151e+003, 4.953008e+001
1.139633e+003, 4.931373e+001
1.140115e+003, 4.928487e+001
1.140598e+003, 4.937001e+001
1.141080e+003, 4.947888e+001
1.141562e+003, 4.957096e+001
1.142044e+003, 4.953578e+001
1.142526e+003, 4.916339e+001
1.143008e+003, 4.892463e+001
1.143490e+003, 4.897494e+001
1.143972e+003, 4.900564e+001
1.144455e+003, 4.858356e+001
1.144937e+003, 4.790169e+001
1.145419e+003, 4.761581e+001
1.145901e+003, 4.771946e+001
1.146383e+003, 4.792841e+001
1.146865e+003, 4.826637e+001
1.147347e+003, 4.847346e+001
1.147829e+003, 4.841021e+001
1.148312e+003, 4.825182e+001
1.148794e+003, 4.829655e+001
1.149276e+003, 4.850739e+001
1.149758e+003, 4.865767e+001
1.150240e+003, 4.872136e+001
1.150722e+003, 4.865192e+001
1.151204e+003, 4.825221e+001
1.151686e+003, 4.788223e+001
1.152168e+003, 4.777659e+001
1.152651e+003, 4.784174e+001
1.153133e+003, 4.778182e+001
1.153615e+003, 4.760722e+001
1.154097e+003, 4.760180e+001
1.154579e+003, 4.786300e+001
1.155061e+003, 4.812435e+001
1.155543e+003, 4.825011e+001
1.156025e+003, 4.822140e+001
1.156507e+003, 4.790700e+001
1.156990e+003, 4.736570e+001
1.157472e+003, 4.716979e+001
1.157954e+003, 4.734023e+001
1.158436e+003, 4.754750e+001
1.158918e+003, 4.771418e+001
1.159400e+003, 4.778808e+001
1.159882e+003, 4.764151e+001
1.160364e+003, 4.741547e+001
1.160847e+003, 4.727092e+001
1.161329e+003, 4.722672e+001
1.161811e+003, 4.725177e+001
1.162293e+003, 4.736670e+001
1.162775e+003, 4.741362e+001
1.163257e+003, 4.724244e+001
1.163739e+003, 4.704496e+001
1.164221e+003, 4.708500e+001
1.164703e+003, 4.725915e+001
1.165186e+003, 4.739702e+001
1.165668e+003, 4.746237e+001
1.166150e+003, 4.750073e+001
1.166632e+003, 4.751732e+001
1.167114e+003, 4.748580e+001
1.167596e+003, 4.732678e+001
1.168078e+003, 4.714402e+001
1.168560e+003, 4.714351e+001
1.169042e+003, 4.725940e+001
1.169525e+003, 4.731525e+001
1.170007e+003, 4.717368e+001
1.170489e+003, 4.713559e+001
1.170971e+003, 4.725645e+001
1.171453e+003, 4.737992e+001
1.171935e+003, 4.734163e+001
1.172417e+003, 4.720672e+001
1.172899e+003, 4.709719e+001
1.173382e+003, 4.701099e+001
1.173864e+003, 4.691428e+001
1.174346e+003, 4.669500e+001
1.174828e+003, 4.662719e+001
1.175310e+003, 4.679830e+001
1.175792e+003, 4.703838e+001
1.176274e+003, 4.712213e+001
1.176756e+003, 4.710843e+001
1.177239e+003, 4.716222e+001
1.177721e+003, 4.728713e+001
1.178203e+003, 4.733404e+001
1.178685e+003, 4.716073e+001
1.179167e+003, 4.700340e+001
1.179649e+003, 4.690332e+001
1.180131e+003, 4.686593e+001
1.180613e+003, 4.697232e+001
1.181095e+003, 4.714161e+001
1.181578e+003, 4.709934e+001
1.182060e+003, 4.679342e+001
1.182542e+003, 4.653614e+001
1.183024e+003, 4.645676e+001
1.183506e+003, 4.647205e+001
1.183988e+003, 4.657232e+001
1.184470e+003, 4.672665e+001
1.184952e+003, 4.688034e+001
1.185434e+003, 4.702069e+001
1.185917e+003, 4.710559e+001
1.186399e+003, 4.712476e+001
1.186881e+003, 4.708642e+001
1.187363e+003, 4.698568e+001
1.187845e+003, 4.682475e+001
1.188327e+003, 4.654747e+001
1.188809e+003, 4.623564e+001
1.189291e+003, 4.621638e+001
1.189774e+003, 4.644970e+001
1.190256e+003, 4.677620e+001
1.190738e+003, 4.722841e+001
1.191220e+003, 4.752406e+001
1.191702e+003, 4.746676e+001
1.192184e+003, 4.724989e+001
1.192666e+003, 4.693334e+001
1.193148e+003, 4.656293e+001
1.193630e+003, 4.648516e+001
1.194113e+003, 4.665799e+001
1.194595e+003, 4.684795e+001
1.195077e+003, 4.703051e+001
1.195559e+003, 4.707353e+001
1.196041e+003, 4.665177e+001
1.196523e+003, 4.629230e+001
1.197005e+003, 4.650274e+001
1.197487e+003, 4.722775e+001
1.197969e+003, 4.744895e+001
1.198452e+003, 4.722579e+001
1.198934e+003, 4.702368e+001
1.199416e+003, 4.714669e+001
1.199898e+003, 4.726899e+001
1.200380e+003, 4.719598e+001
1.200862e+003, 4.707652e+001
1.201344e+003, 4.707421e+001
1.201826e+003, 4.718843e+001
1.202309e+003, 4.716985e+001
1.202791e+003, 4.703130e+001
1.203273e+003, 4.693882e+001
1.203755e+003, 4.704519e+001
1.204237e+003, 4.715765e+001
1.204719e+003, 4.718160e+001
1.205201e+003, 4.715377e+001
1.205683e+003, 4.713313e+001
1.206166e+003, 4.711792e+001
1.206648e+003, 4.691439e+001
1.207130e+003, 4.653404e+001
1.207612e+003, 4.626753e+001
1.208094e+003, 4.632902e+001
1.208576e+003, 4.652847e+001
1.209058e+003, 4.688297e+001
1.209540e+003, 4.724902e+001
1.210022e+003, 4.743708e+001
1.210505e+003, 4.745032e+001
1.210987e+003, 4.728751e+001
1.211469e+003, 4.695422e+001
1.211951e+003, 4.668642e+001
1.212433e+003, 4.655843e+001
1.212915e+003, 4.663057e+001
1.213397e+003, 4.719050e+001
1.213879e+003, 4.784049e+001
1.214361e+003, 4.781086e+001
1.214844e+003, 4.715589e+001
1.215326e+003, 4.669600e+001
1.215808e+003, 4.652507e+001
1.216290e+003, 4.649644e+001
1.216772e+003, 4.661132e+001
1.217254e+003, 4.673464e+001
1.217736e+003, 4.679763e+001
1.218218e+003, 4.681545e+001
1.218701e+003, 4.682804e+001
1.219183e+003, 4.682973e+001
1.219665e+003, 4.673085e+001
1.220147e+003, 4.651085e+001
1.220629e+003, 4.634941e+001
1.221111e+003, 4.636416e+001
1.221593e+003, 4.647511e+001
1.222075e+003, 4.668946e+001
1.222557e+003, 4.693632e+001
1.223040e+003, 4.703616e+001
1.223522e+003, 4.700065e+001
1.224004e+003, 4.689466e+001
1.224486e+003, 4.671932e+001
1.224968e+003, 4.659961e+001
1.225450e+003, 4.667297e+001
1.225932e+003, 4.676073e+001
1.226414e+003, 4.678113e+001
1.226896e+003, 4.674226e+001
1.227379e+003, 4.663290e+001
1.227861e+003, 4.647758e+001
1.228343e+003, 4.640647e+001
1.228825e+003, 4.645425e+001
1.229307e+003, 4.654711e+001
1.229789e+003, 4.679576e+001
1.230271e+003, 4.689292e+001
1.230753e+003, 4.659347e+001
1.231236e+003, 4.608952e+001
1.231718e+003, 4.606324e+001
1.232200e+003, 4.641131e+001
1.232682e+003, 4.675901e+001
1.233164e+003, 4.704750e+001
1.233646e+003, 4.715188e+001
1.234128e+003, 4.676061e+001
1.234610e+003, 4.645353e+001
1.235093e+003, 4.653650e+001
1.235575e+003, 4.687798e+001
1.236057e+003, 4.707147e+001
1.236539e+003, 4.715729e+001
1.237021e+003, 4.728453e+001
1.237503e+003, 4.753834e+001
1.237985e+003, 4.766132e+001
1.238467e+003, 4.741488e+001
1.238949e+003, 4.719287e+001
1.239432e+003, 4.720554e+001
1.239914e+003, 4.733780e+001
1.240396e+003, 4.722553e+001
1.240878e+003, 4.694167e+001
1.241360e+003, 4.667125e+001
1.241842e+003, 4.641087e+001
1.242324e+003, 4.635147e+001
1.242806e+003, 4.664495e+001
1.243288e+003, 4.695276e+001
1.243771e+003, 4.713401e+001
1.244253e+003, 4.719526e+001
1.244735e+003, 4.707568e+001
1.245217e+003, 4.686530e+001
1.245699e+003, 4.678900e+001
1.246181e+003, 4.697985e+001
1.246663e+003, 4.711010e+001
1.247145e+003, 4.716053e+001
1.247628e+003, 4.710886e+001
1.248110e+003, 4.688596e+001
1.248592e+003, 4.660969e+001
1.249074e+003, 4.648596e+001
1.249556e+003, 4.651344e+001
1.250038e+003, 4.671685e+001
1.250520e+003, 4.727349e+001
1.251002e+003, 4.752612e+001
1.251484e+003, 4.736870e+001
1.251967e+003, 4.716489e+001
1.252449e+003, 4.710277e+001
1.252931e+003, 4.714198e+001
1.253413e+003, 4.726403e+001
1.253895e+003, 4.742384e+001
1.254377e+003, 4.754194e+001
1.254859e+003, 4.760465e+001
1.255341e+003, 4.758953e+001
1.255823e+003, 4.746437e+001
1.256306e+003, 4.741816e+001
1.256788e+003, 4.764195e+001
1.257270e+003, 4.790839e+001
1.257752e+003, 4.794657e+001
1.258234e+003, 4.783673e+001
1.258716e+003, 4.768373e+001
1.259198e+003, 4.745354e+001
1.259680e+003, 4.740873e+001
1.260163e+003, 4.757243e+001
1.260645e+003, 4.770240e+001
1.261127e+003, 4.762014e+001
1.261609e+003, 4.749751e+001
1.262091e+003, 4.751693e+001
1.262573e+003, 4.757718e+001
1.263055e+003, 4.751038e+001
1.263537e+003, 4.726863e+001
1.264020e+003, 4.730056e+001
1.264502e+003, 4.760119e+001
1.264984e+003, 4.781984e+001
1.265466e+003, 4.763142e+001
1.265948e+003, 4.744508e+001
1.266430e+003, 4.769894e+001
1.266912e+003, 4.797347e+001
1.267394e+003, 4.771693e+001
1.267876e+003, 4.691990e+001
1.268359e+003, 4.661666e+001
1.268841e+003, 4.676804e+001
1.269323e+003, 4.702402e+001
1.269805e+003, 4.729762e+001
1.270287e+003, 4.749895e+001
1.270769e+003, 4.757402e+001
1.271251e+003, 4.756541e+001
1.271733e+003, 4.748071e+001
1.272215e+003, 4.733311e+001
1.272698e+003, 4.723981e+001
1.273180e+003, 4.718899e+001
1.273662e+003, 4.712827e+001
1.274144e+003, 4.691560e+001
1.274626e+003, 4.687629e+001
1.275108e+003, 4.718086e+001
1.275590e+003, 4.750682e+001
1.276072e+003, 4.758630e+001
1.276555e+003, 4.748624e+001
1.277037e+003, 4.744579e+001
1.277519e+003, 4.742102e+001
1.278001e+003, 4.727902e+001
1.278483e+003, 4.666328e+001
1.278965e+003, 4.646980e+001
1.279447e+003, 4.689223e+001
1.279929e+003, 4.737010e+001
1.280411e+003, 4.746431e+001
1.280894e+003, 4.732944e+001
1.281376e+003, 4.719110e+001
1.281858e+003, 4.706255e+001
1.282340e+003, 4.697032e+001
1.282822e+003, 4.691236e+001
1.283304e+003, 4.691302e+001
1.283786e+003, 4.697972e+001
1.284268e+003, 4.707008e+001
1.284750e+003, 4.719250e+001
1.285233e+003, 4.729164e+001
1.285715e+003, 4.727165e+001
1.286197e+003, 4.719405e+001
1.286679e+003, 4.715913e+001
1.287161e+003, 4.715757e+001
1.287643e+003, 4.733590e+001
1.288125e+003, 4.770988e+001
1.288607e+003, 4.783752e+001
1.289090e+003, 4.704050e+001
1.289572e+003, 4.635772e+001
1.290054e+003, 4.677995e+001
1.290536e+003, 4.757909e+001
1.291018e+003, 4.782674e+001
1.291500e+003, 4.750076e+001
1.291982e+003, 4.719527e+001
1.292464e+003, 4.693047e+001
1.292947e+003, 4.687362e+001
1.293429e+003, 4.736294e+001
1.293911e+003, 4.773614e+001
1.294393e+003, 4.747625e+001
1.294875e+003, 4.720146e+001
1.295357e+003, 4.747251e+001
1.295839e+003, 4.813851e+001
1.296321e+003, 4.834573e+001
1.296803e+003, 4.817829e+001
1.297286e+003, 4.792342e+001
1.297768e+003, 4.758527e+001
1.298250e+003, 4.736762e+001
1.298732e+003, 4.733288e+001
1.299214e+003, 4.734046e+001
1.299696e+003, 4.727264e+001
1.300178e+003, 4.718398e+001
1.300660e+003, 4.719403e+001
##END=



