##NAMES=Metalodevite
##RRUFFID=R130693
##IDEAL CHEMISTRY=Zn^2+^(U^6+^O_2_)_2_(As^5+^O_4_)_2_&#183;10H_2_O
##LOCALITY=Riviéral, Lodève, Hérault, Languedoc-Roussillon, France
##OWNER=RRUFF
##SOURCE=Rock Currier
##DESCRIPTION=Aggregates of pale yellow-green platy crystals
##STATUS=The identification of this mineral has been confirmed only by single crystal X-ray diffraction.
##URL=rruff.info/R130693
8.806445e+001, 2.450891e+003
8.854657e+001, 2.409461e+003
8.902869e+001, 2.395183e+003
8.951080e+001, 2.420386e+003
8.999292e+001, 2.467113e+003
9.047504e+001, 2.519713e+003
9.095715e+001, 2.575600e+003
9.143927e+001, 2.631566e+003
9.192139e+001, 2.683297e+003
9.240350e+001, 2.730861e+003
9.288562e+001, 2.777238e+003
9.336774e+001, 2.805857e+003
9.384985e+001, 2.798473e+003
9.433197e+001, 2.753995e+003
9.481409e+001, 2.710876e+003
9.529620e+001, 2.660455e+003
9.577832e+001, 2.611224e+003
9.626044e+001, 2.564573e+003
9.674255e+001, 2.521962e+003
9.722467e+001, 2.485005e+003
9.770679e+001, 2.454219e+003
9.818890e+001, 2.425020e+003
9.867102e+001, 2.395958e+003
9.915314e+001, 2.367402e+003
9.963525e+001, 2.339036e+003
1.001174e+002, 2.310505e+003
1.005995e+002, 2.282275e+003
1.010816e+002, 2.256236e+003
1.015637e+002, 2.231769e+003
1.020458e+002, 2.209790e+003
1.025280e+002, 2.190213e+003
1.030101e+002, 2.172574e+003
1.034922e+002, 2.156053e+003
1.039743e+002, 2.140003e+003
1.044564e+002, 2.124318e+003
1.049385e+002, 2.112546e+003
1.054207e+002, 2.107183e+003
1.059028e+002, 2.102260e+003
1.063849e+002, 2.095325e+003
1.068670e+002, 2.086043e+003
1.073491e+002, 2.074145e+003
1.078312e+002, 2.058052e+003
1.083134e+002, 2.038060e+003
1.087955e+002, 2.020668e+003
1.092776e+002, 2.006979e+003
1.097597e+002, 1.996203e+003
1.102418e+002, 1.987634e+003
1.107239e+002, 1.981774e+003
1.112061e+002, 1.976740e+003
1.116882e+002, 1.971075e+003
1.121703e+002, 1.964811e+003
1.126524e+002, 1.958137e+003
1.131345e+002, 1.950746e+003
1.136166e+002, 1.942701e+003
1.140988e+002, 1.935457e+003
1.145809e+002, 1.930053e+003
1.150630e+002, 1.924790e+003
1.155451e+002, 1.919026e+003
1.160272e+002, 1.912608e+003
1.165093e+002, 1.905519e+003
1.169915e+002, 1.897399e+003
1.174736e+002, 1.887313e+003
1.179557e+002, 1.878688e+003
1.184378e+002, 1.872082e+003
1.189199e+002, 1.866487e+003
1.194020e+002, 1.861167e+003
1.198842e+002, 1.855880e+003
1.203663e+002, 1.850949e+003
1.208484e+002, 1.847097e+003
1.213305e+002, 1.844881e+003
1.218126e+002, 1.843286e+003
1.222947e+002, 1.843809e+003
1.227769e+002, 1.844577e+003
1.232590e+002, 1.842826e+003
1.237411e+002, 1.836854e+003
1.242232e+002, 1.827881e+003
1.247053e+002, 1.821501e+003
1.251874e+002, 1.818851e+003
1.256696e+002, 1.816875e+003
1.261517e+002, 1.814638e+003
1.266338e+002, 1.812201e+003
1.271159e+002, 1.809758e+003
1.275980e+002, 1.807478e+003
1.280801e+002, 1.805294e+003
1.285623e+002, 1.802939e+003
1.290444e+002, 1.799940e+003
1.295265e+002, 1.797103e+003
1.300086e+002, 1.795805e+003
1.304907e+002, 1.796580e+003
1.309728e+002, 1.796210e+003
1.314550e+002, 1.791766e+003
1.319371e+002, 1.785017e+003
1.324192e+002, 1.778080e+003
1.329013e+002, 1.771531e+003
1.333834e+002, 1.765434e+003
1.338655e+002, 1.760016e+003
1.343477e+002, 1.755556e+003
1.348298e+002, 1.751451e+003
1.353119e+002, 1.747535e+003
1.357940e+002, 1.743761e+003
1.362761e+002, 1.740033e+003
1.367582e+002, 1.736128e+003
1.372404e+002, 1.732039e+003
1.377225e+002, 1.728952e+003
1.382046e+002, 1.728451e+003
1.386867e+002, 1.727632e+003
1.391688e+002, 1.725654e+003
1.396509e+002, 1.722503e+003
1.401331e+002, 1.718527e+003
1.406152e+002, 1.713879e+003
1.410973e+002, 1.708088e+003
1.415794e+002, 1.703587e+003
1.420615e+002, 1.701111e+003
1.425436e+002, 1.699090e+003
1.430258e+002, 1.696290e+003
1.435079e+002, 1.692604e+003
1.439900e+002, 1.689120e+003
1.444721e+002, 1.687440e+003
1.449542e+002, 1.688679e+003
1.454363e+002, 1.688888e+003
1.459185e+002, 1.687087e+003
1.464006e+002, 1.684494e+003
1.468827e+002, 1.682559e+003
1.473648e+002, 1.681746e+003
1.478469e+002, 1.681386e+003
1.483290e+002, 1.680266e+003
1.488112e+002, 1.678293e+003
1.492933e+002, 1.676542e+003
1.497754e+002, 1.675219e+003
1.502575e+002, 1.674384e+003
1.507396e+002, 1.674347e+003
1.512217e+002, 1.675712e+003
1.517039e+002, 1.677326e+003
1.521860e+002, 1.677544e+003
1.526681e+002, 1.676171e+003
1.531502e+002, 1.674994e+003
1.536323e+002, 1.675752e+003
1.541144e+002, 1.678531e+003
1.545966e+002, 1.680788e+003
1.550787e+002, 1.681882e+003
1.555608e+002, 1.682075e+003
1.560429e+002, 1.681020e+003
1.565250e+002, 1.678591e+003
1.570071e+002, 1.676161e+003
1.574893e+002, 1.675662e+003
1.579714e+002, 1.677544e+003
1.584535e+002, 1.680281e+003
1.589356e+002, 1.684546e+003
1.594177e+002, 1.688919e+003
1.598998e+002, 1.692128e+003
1.603820e+002, 1.693686e+003
1.608641e+002, 1.694318e+003
1.613462e+002, 1.695724e+003
1.618283e+002, 1.698266e+003
1.623104e+002, 1.701190e+003
1.627925e+002, 1.704445e+003
1.632747e+002, 1.707991e+003
1.637568e+002, 1.711829e+003
1.642389e+002, 1.715939e+003
1.647210e+002, 1.720325e+003
1.652031e+002, 1.724968e+003
1.656852e+002, 1.729661e+003
1.661674e+002, 1.734885e+003
1.666495e+002, 1.741027e+003
1.671316e+002, 1.747759e+003
1.676137e+002, 1.754284e+003
1.680958e+002, 1.760026e+003
1.685779e+002, 1.765364e+003
1.690601e+002, 1.772773e+003
1.695422e+002, 1.784103e+003
1.700243e+002, 1.795134e+003
1.705064e+002, 1.803896e+003
1.709885e+002, 1.810807e+003
1.714706e+002, 1.817619e+003
1.719528e+002, 1.825128e+003
1.724349e+002, 1.833561e+003
1.729170e+002, 1.843112e+003
1.733991e+002, 1.855107e+003
1.738812e+002, 1.867185e+003
1.743633e+002, 1.877251e+003
1.748455e+002, 1.885268e+003
1.753276e+002, 1.893476e+003
1.758097e+002, 1.903451e+003
1.762918e+002, 1.914598e+003
1.767739e+002, 1.925895e+003
1.772560e+002, 1.937010e+003
1.777382e+002, 1.948251e+003
1.782203e+002, 1.959705e+003
1.787024e+002, 1.971008e+003
1.791845e+002, 1.983696e+003
1.796666e+002, 1.999081e+003
1.801487e+002, 2.016040e+003
1.806309e+002, 2.033349e+003
1.811130e+002, 2.050827e+003
1.815951e+002, 2.068180e+003
1.820772e+002, 2.084807e+003
1.825593e+002, 2.100332e+003
1.830414e+002, 2.115586e+003
1.835236e+002, 2.130862e+003
1.840057e+002, 2.146095e+003
1.844878e+002, 2.161276e+003
1.849699e+002, 2.176536e+003
1.854520e+002, 2.191695e+003
1.859341e+002, 2.205640e+003
1.864163e+002, 2.217873e+003
1.868984e+002, 2.229204e+003
1.873805e+002, 2.239738e+003
1.878626e+002, 2.249617e+003
1.883447e+002, 2.259054e+003
1.888268e+002, 2.268315e+003
1.893090e+002, 2.277344e+003
1.897911e+002, 2.285184e+003
1.902732e+002, 2.293934e+003
1.907553e+002, 2.299441e+003
1.912374e+002, 2.300989e+003
1.917195e+002, 2.298376e+003
1.922017e+002, 2.291570e+003
1.926838e+002, 2.280625e+003
1.931659e+002, 2.265453e+003
1.936480e+002, 2.245099e+003
1.941301e+002, 2.217913e+003
1.946122e+002, 2.188509e+003
1.950944e+002, 2.158366e+003
1.955765e+002, 2.127706e+003
1.960586e+002, 2.096103e+003
1.965407e+002, 2.063174e+003
1.970228e+002, 2.028797e+003
1.975049e+002, 1.995401e+003
1.979871e+002, 1.962601e+003
1.984692e+002, 1.930819e+003
1.989513e+002, 1.900374e+003
1.994334e+002, 1.871393e+003
1.999155e+002, 1.843598e+003
2.003976e+002, 1.816499e+003
2.008798e+002, 1.790507e+003
2.013619e+002, 1.767484e+003
2.018440e+002, 1.749539e+003
2.023261e+002, 1.733391e+003
2.028082e+002, 1.716067e+003
2.032903e+002, 1.697404e+003
2.037725e+002, 1.679288e+003
2.042546e+002, 1.663440e+003
2.047367e+002, 1.649515e+003
2.052188e+002, 1.636682e+003
2.057009e+002, 1.625267e+003
2.061830e+002, 1.614615e+003
2.066652e+002, 1.603660e+003
2.071473e+002, 1.592065e+003
2.076294e+002, 1.581484e+003
2.081115e+002, 1.573658e+003
2.085936e+002, 1.567523e+003
2.090757e+002, 1.561579e+003
2.095579e+002, 1.555296e+003
2.100400e+002, 1.548900e+003
2.105221e+002, 1.542702e+003
2.110042e+002, 1.536521e+003
2.114863e+002, 1.530990e+003
2.119685e+002, 1.526735e+003
2.124506e+002, 1.523172e+003
2.129327e+002, 1.519464e+003
2.134148e+002, 1.514991e+003
2.138969e+002, 1.510172e+003
2.143790e+002, 1.506446e+003
2.148612e+002, 1.504546e+003
2.153433e+002, 1.502545e+003
2.158254e+002, 1.499645e+003
2.163075e+002, 1.496278e+003
2.167896e+002, 1.493020e+003
2.172717e+002, 1.490219e+003
2.177539e+002, 1.487772e+003
2.182360e+002, 1.485233e+003
2.187181e+002, 1.482177e+003
2.192002e+002, 1.479656e+003
2.196823e+002, 1.478031e+003
2.201644e+002, 1.477035e+003
2.206466e+002, 1.476474e+003
2.211287e+002, 1.476355e+003
2.216108e+002, 1.476413e+003
2.220929e+002, 1.475110e+003
2.225750e+002, 1.470723e+003
2.230571e+002, 1.466774e+003
2.235393e+002, 1.463756e+003
2.240214e+002, 1.461571e+003
2.245035e+002, 1.460113e+003
2.249856e+002, 1.459366e+003
2.254677e+002, 1.459203e+003
2.259498e+002, 1.458830e+003
2.264320e+002, 1.457734e+003
2.269141e+002, 1.456993e+003
2.273962e+002, 1.457177e+003
2.278783e+002, 1.457777e+003
2.283604e+002, 1.457858e+003
2.288425e+002, 1.456802e+003
2.293247e+002, 1.454975e+003
2.298068e+002, 1.454520e+003
2.302889e+002, 1.457385e+003
2.307710e+002, 1.459305e+003
2.312531e+002, 1.459035e+003
2.317352e+002, 1.457251e+003
2.322174e+002, 1.455030e+003
2.326995e+002, 1.452849e+003
2.331816e+002, 1.450843e+003
2.336637e+002, 1.449711e+003
2.341458e+002, 1.450148e+003
2.346279e+002, 1.450466e+003
2.351101e+002, 1.450030e+003
2.355922e+002, 1.449183e+003
2.360743e+002, 1.448559e+003
2.365564e+002, 1.448430e+003
2.370385e+002, 1.448792e+003
2.375206e+002, 1.449750e+003
2.380028e+002, 1.452007e+003
2.384849e+002, 1.453685e+003
2.389670e+002, 1.453627e+003
2.394491e+002, 1.452514e+003
2.399312e+002, 1.451979e+003
2.404133e+002, 1.452894e+003
2.408955e+002, 1.454501e+003
2.413776e+002, 1.454968e+003
2.418597e+002, 1.453720e+003
2.423418e+002, 1.452947e+003
2.428239e+002, 1.453999e+003
2.433060e+002, 1.456283e+003
2.437882e+002, 1.458214e+003
2.442703e+002, 1.459286e+003
2.447524e+002, 1.459644e+003
2.452345e+002, 1.459492e+003
2.457166e+002, 1.458751e+003
2.461987e+002, 1.457988e+003
2.466809e+002, 1.457543e+003
2.471630e+002, 1.457308e+003
2.476451e+002, 1.456935e+003
2.481272e+002, 1.456369e+003
2.486093e+002, 1.455559e+003
2.490914e+002, 1.454388e+003
2.495736e+002, 1.452851e+003
2.500557e+002, 1.451396e+003
2.505378e+002, 1.450226e+003
2.510199e+002, 1.449335e+003
2.515020e+002, 1.448681e+003
2.519841e+002, 1.448222e+003
2.524663e+002, 1.448078e+003
2.529484e+002, 1.448189e+003
2.534305e+002, 1.448575e+003
2.539126e+002, 1.449488e+003
2.543947e+002, 1.451555e+003
2.548768e+002, 1.454431e+003
2.553590e+002, 1.456496e+003
2.558411e+002, 1.457691e+003
2.563232e+002, 1.457759e+003
2.568053e+002, 1.456387e+003
2.572874e+002, 1.453868e+003
2.577695e+002, 1.451228e+003
2.582516e+002, 1.448557e+003
2.587338e+002, 1.446101e+003
2.592159e+002, 1.445460e+003
2.596980e+002, 1.447880e+003
2.601801e+002, 1.450430e+003
2.606622e+002, 1.451684e+003
2.611443e+002, 1.451878e+003
2.616265e+002, 1.451493e+003
2.621086e+002, 1.450374e+003
2.625907e+002, 1.448865e+003
2.630728e+002, 1.448702e+003
2.635549e+002, 1.450836e+003
2.640370e+002, 1.452895e+003
2.645192e+002, 1.454244e+003
2.650013e+002, 1.454835e+003
2.654834e+002, 1.454523e+003
2.659655e+002, 1.453014e+003
2.664476e+002, 1.450689e+003
2.669297e+002, 1.448811e+003
2.674119e+002, 1.447188e+003
2.678940e+002, 1.446460e+003
2.683761e+002, 1.446932e+003
2.688582e+002, 1.448205e+003
2.693403e+002, 1.450028e+003
2.698224e+002, 1.452469e+003
2.703046e+002, 1.454912e+003
2.707867e+002, 1.455479e+003
2.712688e+002, 1.452882e+003
2.717509e+002, 1.450655e+003
2.722330e+002, 1.449184e+003
2.727151e+002, 1.448539e+003
2.731973e+002, 1.449063e+003
2.736794e+002, 1.450935e+003
2.741615e+002, 1.453308e+003
2.746436e+002, 1.454324e+003
2.751257e+002, 1.453104e+003
2.756078e+002, 1.452183e+003
2.760900e+002, 1.452480e+003
2.765721e+002, 1.452810e+003
2.770542e+002, 1.451993e+003
2.775363e+002, 1.449737e+003
2.780184e+002, 1.446960e+003
2.785005e+002, 1.445340e+003
2.789827e+002, 1.445793e+003
2.794648e+002, 1.445335e+003
2.799469e+002, 1.443674e+003
2.804290e+002, 1.441333e+003
2.809111e+002, 1.438342e+003
2.813932e+002, 1.434865e+003
2.818754e+002, 1.431479e+003
2.823575e+002, 1.429164e+003
2.828396e+002, 1.428853e+003
2.833217e+002, 1.426880e+003
2.838038e+002, 1.421949e+003
2.842859e+002, 1.416669e+003
2.847681e+002, 1.412364e+003
2.852502e+002, 1.409121e+003
2.857323e+002, 1.406341e+003
2.862144e+002, 1.403410e+003
2.866965e+002, 1.400248e+003
2.871786e+002, 1.397383e+003
2.876608e+002, 1.395239e+003
2.881429e+002, 1.392961e+003
2.886250e+002, 1.389844e+003
2.891071e+002, 1.386231e+003
2.895892e+002, 1.383158e+003
2.900714e+002, 1.381614e+003
2.905535e+002, 1.381651e+003
2.910356e+002, 1.380331e+003
2.915177e+002, 1.376307e+003
2.919998e+002, 1.372372e+003
2.924819e+002, 1.369447e+003
2.929641e+002, 1.367155e+003
2.934462e+002, 1.364484e+003
2.939283e+002, 1.360636e+003
2.944104e+002, 1.356042e+003
2.948925e+002, 1.353525e+003
2.953746e+002, 1.355458e+003
2.958568e+002, 1.356935e+003
2.963389e+002, 1.356955e+003
2.968210e+002, 1.356201e+003
2.973031e+002, 1.355623e+003
2.977852e+002, 1.355669e+003
2.982673e+002, 1.356201e+003
2.987495e+002, 1.356813e+003
2.992316e+002, 1.357836e+003
2.997137e+002, 1.358493e+003
3.001958e+002, 1.357935e+003
3.006779e+002, 1.357375e+003
3.011600e+002, 1.358345e+003
3.016422e+002, 1.361264e+003
3.021243e+002, 1.364910e+003
3.026064e+002, 1.366979e+003
3.030885e+002, 1.365855e+003
3.035706e+002, 1.365987e+003
3.040527e+002, 1.368051e+003
3.045349e+002, 1.370794e+003
3.050170e+002, 1.373430e+003
3.054991e+002, 1.375752e+003
3.059812e+002, 1.377826e+003
3.064633e+002, 1.379672e+003
3.069454e+002, 1.381069e+003
3.074276e+002, 1.383072e+003
3.079097e+002, 1.385879e+003
3.083918e+002, 1.388998e+003
3.088739e+002, 1.392102e+003
3.093560e+002, 1.395247e+003
3.098381e+002, 1.398699e+003
3.103203e+002, 1.402725e+003
3.108024e+002, 1.407311e+003
3.112845e+002, 1.412440e+003
3.117666e+002, 1.417688e+003
3.122487e+002, 1.423816e+003
3.127308e+002, 1.431343e+003
3.132130e+002, 1.439998e+003
3.136951e+002, 1.449052e+003
3.141772e+002, 1.457968e+003
3.146593e+002, 1.466985e+003
3.151414e+002, 1.477547e+003
3.156235e+002, 1.489801e+003
3.161057e+002, 1.503521e+003
3.165878e+002, 1.519610e+003
3.170699e+002, 1.536895e+003
3.175520e+002, 1.554221e+003
3.180341e+002, 1.571050e+003
3.185162e+002, 1.586950e+003
3.189984e+002, 1.600644e+003
3.194805e+002, 1.612187e+003
3.199626e+002, 1.620989e+003
3.204447e+002, 1.628879e+003
3.209268e+002, 1.633155e+003
3.214089e+002, 1.630942e+003
3.218911e+002, 1.621616e+003
3.223732e+002, 1.607254e+003
3.228553e+002, 1.590616e+003
3.233374e+002, 1.571371e+003
3.238195e+002, 1.550543e+003
3.243016e+002, 1.527000e+003
3.247838e+002, 1.503129e+003
3.252659e+002, 1.479800e+003
3.257480e+002, 1.457431e+003
3.262301e+002, 1.437002e+003
3.267122e+002, 1.419392e+003
3.271943e+002, 1.404868e+003
3.276765e+002, 1.391623e+003
3.281586e+002, 1.379305e+003
3.286407e+002, 1.368439e+003
3.291228e+002, 1.359336e+003
3.296049e+002, 1.351826e+003
3.300870e+002, 1.345580e+003
3.305692e+002, 1.340453e+003
3.310513e+002, 1.336314e+003
3.315334e+002, 1.332260e+003
3.320155e+002, 1.327970e+003
3.324976e+002, 1.324111e+003
3.329797e+002, 1.320947e+003
3.334619e+002, 1.318228e+003
3.339440e+002, 1.315682e+003
3.344261e+002, 1.313186e+003
3.349082e+002, 1.310727e+003
3.353904e+002, 1.308236e+003
3.358725e+002, 1.305701e+003
3.363546e+002, 1.303204e+003
3.368367e+002, 1.300493e+003
3.373188e+002, 1.297980e+003
3.378009e+002, 1.296112e+003
3.382831e+002, 1.294936e+003
3.387652e+002, 1.294050e+003
3.392473e+002, 1.292952e+003
3.397294e+002, 1.291607e+003
3.402115e+002, 1.290124e+003
3.406936e+002, 1.288327e+003
3.411758e+002, 1.286552e+003
3.416579e+002, 1.284752e+003
3.421400e+002, 1.283070e+003
3.426221e+002, 1.281897e+003
3.431042e+002, 1.281651e+003
3.435863e+002, 1.282323e+003
3.440685e+002, 1.282681e+003
3.445506e+002, 1.282950e+003
3.450327e+002, 1.282593e+003
3.455148e+002, 1.280813e+003
3.459969e+002, 1.278432e+003
3.464790e+002, 1.276838e+003
3.469612e+002, 1.276849e+003
3.474433e+002, 1.277830e+003
3.479254e+002, 1.277667e+003
3.484075e+002, 1.275267e+003
3.488896e+002, 1.273493e+003
3.493717e+002, 1.273238e+003
3.498539e+002, 1.273443e+003
3.503360e+002, 1.273118e+003
3.508181e+002, 1.271985e+003
3.513002e+002, 1.270559e+003
3.517823e+002, 1.269572e+003
3.522644e+002, 1.269105e+003
3.527466e+002, 1.268847e+003
3.532287e+002, 1.268904e+003
3.537108e+002, 1.269064e+003
3.541929e+002, 1.269439e+003
3.546750e+002, 1.269894e+003
3.551571e+002, 1.269984e+003
3.556393e+002, 1.269203e+003
3.561214e+002, 1.267558e+003
3.566035e+002, 1.266128e+003
3.570856e+002, 1.264828e+003
3.575677e+002, 1.263912e+003
3.580498e+002, 1.263704e+003
3.585320e+002, 1.263886e+003
3.590141e+002, 1.263881e+003
3.594962e+002, 1.263290e+003
3.599783e+002, 1.262443e+003
3.604604e+002, 1.262354e+003
3.609425e+002, 1.263541e+003
3.614247e+002, 1.264253e+003
3.619068e+002, 1.263800e+003
3.623889e+002, 1.262770e+003
3.628710e+002, 1.261389e+003
3.633531e+002, 1.259679e+003
3.638352e+002, 1.258436e+003
3.643174e+002, 1.258948e+003
3.647995e+002, 1.261443e+003
3.652816e+002, 1.263363e+003
3.657637e+002, 1.264235e+003
3.662458e+002, 1.264370e+003
3.667279e+002, 1.263615e+003
3.672101e+002, 1.262156e+003
3.676922e+002, 1.260968e+003
3.681743e+002, 1.261004e+003
3.686564e+002, 1.261948e+003
3.691385e+002, 1.262312e+003
3.696206e+002, 1.261845e+003
3.701028e+002, 1.261185e+003
3.705849e+002, 1.260448e+003
3.710670e+002, 1.259823e+003
3.715491e+002, 1.259741e+003
3.720312e+002, 1.260681e+003
3.725133e+002, 1.261904e+003
3.729955e+002, 1.262278e+003
3.734776e+002, 1.261712e+003
3.739597e+002, 1.261154e+003
3.744418e+002, 1.260814e+003
3.749239e+002, 1.260821e+003
3.754060e+002, 1.261538e+003
3.758882e+002, 1.263273e+003
3.763703e+002, 1.264538e+003
3.768524e+002, 1.263512e+003
3.773345e+002, 1.260949e+003
3.778166e+002, 1.260261e+003
3.782987e+002, 1.263036e+003
3.787809e+002, 1.266379e+003
3.792630e+002, 1.266689e+003
3.797451e+002, 1.264383e+003
3.802272e+002, 1.262596e+003
3.807093e+002, 1.262684e+003
3.811914e+002, 1.263702e+003
3.816736e+002, 1.264455e+003
3.821557e+002, 1.264837e+003
3.826378e+002, 1.265199e+003
3.831199e+002, 1.265778e+003
3.836020e+002, 1.266549e+003
3.840841e+002, 1.267339e+003
3.845663e+002, 1.268332e+003
3.850484e+002, 1.269153e+003
3.855305e+002, 1.269453e+003
3.860126e+002, 1.269378e+003
3.864947e+002, 1.269337e+003
3.869768e+002, 1.269425e+003
3.874590e+002, 1.269778e+003
3.879411e+002, 1.270839e+003
3.884232e+002, 1.272887e+003
3.889053e+002, 1.274652e+003
3.893874e+002, 1.275682e+003
3.898695e+002, 1.276393e+003
3.903517e+002, 1.277322e+003
3.908338e+002, 1.278558e+003
3.913159e+002, 1.279670e+003
3.917980e+002, 1.280158e+003
3.922801e+002, 1.279906e+003
3.927622e+002, 1.280062e+003
3.932444e+002, 1.280755e+003
3.937265e+002, 1.281689e+003
3.942086e+002, 1.282890e+003
3.946907e+002, 1.284219e+003
3.951728e+002, 1.285406e+003
3.956549e+002, 1.286295e+003
3.961371e+002, 1.286903e+003
3.966192e+002, 1.287260e+003
3.971013e+002, 1.287220e+003
3.975834e+002, 1.287097e+003
3.980655e+002, 1.287092e+003
3.985476e+002, 1.286920e+003
3.990298e+002, 1.286118e+003
3.995119e+002, 1.284635e+003
3.999940e+002, 1.283089e+003
4.004761e+002, 1.282472e+003
4.009582e+002, 1.283485e+003
4.014403e+002, 1.282898e+003
4.019225e+002, 1.279415e+003
4.024046e+002, 1.275781e+003
4.028867e+002, 1.273246e+003
4.033688e+002, 1.271629e+003
4.038509e+002, 1.270158e+003
4.043330e+002, 1.268320e+003
4.048152e+002, 1.266153e+003
4.052973e+002, 1.263880e+003
4.057794e+002, 1.261451e+003
4.062615e+002, 1.258964e+003
4.067436e+002, 1.256238e+003
4.072257e+002, 1.253560e+003
4.077079e+002, 1.251322e+003
4.081900e+002, 1.249616e+003
4.086721e+002, 1.248037e+003
4.091542e+002, 1.245931e+003
4.096363e+002, 1.243113e+003
4.101184e+002, 1.240709e+003
4.106006e+002, 1.239019e+003
4.110827e+002, 1.237628e+003
4.115648e+002, 1.236425e+003
4.120469e+002, 1.235359e+003
4.125290e+002, 1.234345e+003
4.130111e+002, 1.233396e+003
4.134933e+002, 1.232449e+003
4.139754e+002, 1.231168e+003
4.144575e+002, 1.229280e+003
4.149396e+002, 1.227815e+003
4.154217e+002, 1.227476e+003
4.159038e+002, 1.227768e+003
4.163860e+002, 1.228149e+003
4.168681e+002, 1.228431e+003
4.173502e+002, 1.228991e+003
4.178323e+002, 1.230370e+003
4.183144e+002, 1.232462e+003
4.187965e+002, 1.234379e+003
4.192787e+002, 1.236033e+003
4.197608e+002, 1.237234e+003
4.202429e+002, 1.238195e+003
4.207250e+002, 1.238872e+003
4.212071e+002, 1.237865e+003
4.216892e+002, 1.232896e+003
4.221714e+002, 1.226799e+003
4.226535e+002, 1.223514e+003
4.231356e+002, 1.223329e+003
4.236177e+002, 1.224200e+003
4.240998e+002, 1.225107e+003
4.245819e+002, 1.225954e+003
4.250641e+002, 1.226396e+003
4.255462e+002, 1.225815e+003
4.260283e+002, 1.225612e+003
4.265104e+002, 1.227092e+003
4.269925e+002, 1.229283e+003
4.274746e+002, 1.230026e+003
4.279568e+002, 1.228483e+003
4.284389e+002, 1.226241e+003
4.289210e+002, 1.225734e+003
4.294031e+002, 1.227861e+003
4.298852e+002, 1.229311e+003
4.303673e+002, 1.229277e+003
4.308495e+002, 1.229214e+003
4.313316e+002, 1.230307e+003
4.318137e+002, 1.232392e+003
4.322958e+002, 1.234425e+003
4.327779e+002, 1.235623e+003
4.332600e+002, 1.236132e+003
4.337422e+002, 1.237130e+003
4.342243e+002, 1.239448e+003
4.347064e+002, 1.241256e+003
4.351885e+002, 1.241910e+003
4.356706e+002, 1.242125e+003
4.361527e+002, 1.242561e+003
4.366349e+002, 1.243452e+003
4.371170e+002, 1.244790e+003
4.375991e+002, 1.246560e+003
4.380812e+002, 1.248739e+003
4.385633e+002, 1.251429e+003
4.390454e+002, 1.255801e+003
4.395276e+002, 1.259552e+003
4.400097e+002, 1.261229e+003
4.404918e+002, 1.261538e+003
4.409739e+002, 1.262259e+003
4.414560e+002, 1.264639e+003
4.419381e+002, 1.267967e+003
4.424203e+002, 1.269898e+003
4.429024e+002, 1.269406e+003
4.433845e+002, 1.270260e+003
4.438666e+002, 1.275502e+003
4.443487e+002, 1.281430e+003
4.448308e+002, 1.284819e+003
4.453130e+002, 1.285116e+003
4.457951e+002, 1.284854e+003
4.462772e+002, 1.286304e+003
4.467593e+002, 1.289083e+003
4.472414e+002, 1.290989e+003
4.477235e+002, 1.291204e+003
4.482057e+002, 1.291725e+003
4.486878e+002, 1.294389e+003
4.491699e+002, 1.298528e+003
4.496520e+002, 1.302697e+003
4.501341e+002, 1.307197e+003
4.506162e+002, 1.310986e+003
4.510984e+002, 1.312488e+003
4.515805e+002, 1.312100e+003
4.520626e+002, 1.312475e+003
4.525447e+002, 1.315020e+003
4.530268e+002, 1.318398e+003
4.535089e+002, 1.319949e+003
4.539911e+002, 1.319470e+003
4.544732e+002, 1.318819e+003
4.549553e+002, 1.317996e+003
4.554374e+002, 1.317433e+003
4.559195e+002, 1.317778e+003
4.564016e+002, 1.319003e+003
4.568838e+002, 1.320329e+003
4.573659e+002, 1.321182e+003
4.578480e+002, 1.321568e+003
4.583301e+002, 1.321590e+003
4.588122e+002, 1.320850e+003
4.592943e+002, 1.320279e+003
4.597765e+002, 1.320461e+003
4.602586e+002, 1.320812e+003
4.607407e+002, 1.320658e+003
4.612228e+002, 1.319754e+003
4.617049e+002, 1.318125e+003
4.621870e+002, 1.315773e+003
4.626692e+002, 1.312633e+003
4.631513e+002, 1.308965e+003
4.636334e+002, 1.304577e+003
4.641155e+002, 1.299928e+003
4.645976e+002, 1.294791e+003
4.650797e+002, 1.289566e+003
4.655619e+002, 1.285023e+003
4.660440e+002, 1.281761e+003
4.665261e+002, 1.279256e+003
4.670082e+002, 1.276051e+003
4.674903e+002, 1.271838e+003
4.679724e+002, 1.267734e+003
4.684546e+002, 1.263919e+003
4.689367e+002, 1.260382e+003
4.694188e+002, 1.257228e+003
4.699009e+002, 1.254410e+003
4.703830e+002, 1.251656e+003
4.708651e+002, 1.248692e+003
4.713473e+002, 1.245600e+003
4.718294e+002, 1.242835e+003
4.723115e+002, 1.240648e+003
4.727936e+002, 1.238041e+003
4.732757e+002, 1.233688e+003
4.737578e+002, 1.228600e+003
4.742400e+002, 1.224799e+003
4.747221e+002, 1.223202e+003
4.752042e+002, 1.221917e+003
4.756863e+002, 1.219565e+003
4.761684e+002, 1.216488e+003
4.766505e+002, 1.213773e+003
4.771327e+002, 1.211796e+003
4.776148e+002, 1.209946e+003
4.780969e+002, 1.207340e+003
4.785790e+002, 1.203846e+003
4.790611e+002, 1.200709e+003
4.795432e+002, 1.198086e+003
4.800254e+002, 1.195785e+003
4.805075e+002, 1.193907e+003
4.809896e+002, 1.192266e+003
4.814717e+002, 1.190275e+003
4.819538e+002, 1.187544e+003
4.824359e+002, 1.184542e+003
4.829181e+002, 1.182615e+003
4.834002e+002, 1.182684e+003
4.838823e+002, 1.182535e+003
4.843644e+002, 1.182349e+003
4.848465e+002, 1.181795e+003
4.853286e+002, 1.180408e+003
4.858108e+002, 1.178325e+003
4.862929e+002, 1.176252e+003
4.867750e+002, 1.174856e+003
4.872571e+002, 1.174012e+003
4.877392e+002, 1.172492e+003
4.882213e+002, 1.169332e+003
4.887035e+002, 1.167105e+003
4.891856e+002, 1.167532e+003
4.896677e+002, 1.168553e+003
4.901498e+002, 1.167709e+003
4.906319e+002, 1.164402e+003
4.911140e+002, 1.160964e+003
4.915962e+002, 1.159902e+003
4.920783e+002, 1.160932e+003
4.925604e+002, 1.161931e+003
4.930425e+002, 1.163063e+003
4.935246e+002, 1.163376e+003
4.940067e+002, 1.161548e+003
4.944889e+002, 1.158397e+003
4.949710e+002, 1.155639e+003
4.954531e+002, 1.153227e+003
4.959352e+002, 1.151831e+003
4.964173e+002, 1.153063e+003
4.968994e+002, 1.155983e+003
4.973816e+002, 1.156912e+003
4.978637e+002, 1.154360e+003
4.983458e+002, 1.150230e+003
4.988279e+002, 1.147079e+003
4.993100e+002, 1.145008e+003
4.997921e+002, 1.143522e+003
5.002743e+002, 1.143324e+003
5.007564e+002, 1.143088e+003
5.012385e+002, 1.141778e+003
5.017206e+002, 1.139645e+003
5.022027e+002, 1.137574e+003
5.026848e+002, 1.136058e+003
5.031670e+002, 1.134984e+003
5.036491e+002, 1.134054e+003
5.041312e+002, 1.133357e+003
5.046133e+002, 1.132663e+003
5.050954e+002, 1.131821e+003
5.055775e+002, 1.131093e+003
5.060597e+002, 1.130948e+003
5.065418e+002, 1.131170e+003
5.070239e+002, 1.130858e+003
5.075060e+002, 1.129049e+003
5.079881e+002, 1.126229e+003
5.084702e+002, 1.124935e+003
5.089524e+002, 1.126120e+003
5.094345e+002, 1.126671e+003
5.099166e+002, 1.124819e+003
5.103987e+002, 1.122320e+003
5.108808e+002, 1.120651e+003
5.113629e+002, 1.120045e+003
5.118451e+002, 1.120045e+003
5.123271e+002, 1.120869e+003
5.128093e+002, 1.122030e+003
5.132914e+002, 1.121940e+003
5.137735e+002, 1.120254e+003
5.142556e+002, 1.118393e+003
5.147377e+002, 1.117290e+003
5.152198e+002, 1.116799e+003
5.157020e+002, 1.116302e+003
5.161841e+002, 1.115812e+003
5.166662e+002, 1.115271e+003
5.171483e+002, 1.114548e+003
5.176304e+002, 1.113780e+003
5.181125e+002, 1.113346e+003
5.185947e+002, 1.113315e+003
5.190768e+002, 1.113021e+003
5.195589e+002, 1.111594e+003
5.200410e+002, 1.108791e+003
5.205231e+002, 1.107161e+003
5.210052e+002, 1.107174e+003
5.214874e+002, 1.107632e+003
5.219695e+002, 1.108786e+003
5.224516e+002, 1.109941e+003
5.229337e+002, 1.110047e+003
5.234158e+002, 1.108751e+003
5.238979e+002, 1.106818e+003
5.243801e+002, 1.105325e+003
5.248622e+002, 1.104341e+003
5.253443e+002, 1.103499e+003
5.258264e+002, 1.102800e+003
5.263085e+002, 1.102257e+003
5.267906e+002, 1.101983e+003
5.272728e+002, 1.101846e+003
5.277549e+002, 1.101648e+003
5.282370e+002, 1.101404e+003
5.287191e+002, 1.100853e+003
5.292012e+002, 1.099250e+003
5.296833e+002, 1.096720e+003
5.301655e+002, 1.095318e+003
5.306476e+002, 1.096021e+003
5.311297e+002, 1.097235e+003
5.316118e+002, 1.096965e+003
5.320939e+002, 1.095450e+003
5.325760e+002, 1.094489e+003
5.330582e+002, 1.095228e+003
5.335403e+002, 1.095968e+003
5.340224e+002, 1.095132e+003
5.345045e+002, 1.093173e+003
5.349866e+002, 1.091568e+003
5.354688e+002, 1.090980e+003
5.359509e+002, 1.090997e+003
5.364330e+002, 1.090887e+003
5.369151e+002, 1.090665e+003
5.373972e+002, 1.090268e+003
5.378793e+002, 1.089421e+003
5.383615e+002, 1.088671e+003
5.388436e+002, 1.088638e+003
5.393257e+002, 1.088934e+003
5.398078e+002, 1.088533e+003
5.402899e+002, 1.086778e+003
5.407720e+002, 1.084432e+003
5.412542e+002, 1.083377e+003
5.417363e+002, 1.084089e+003
5.422184e+002, 1.084474e+003
5.427005e+002, 1.084059e+003
5.431826e+002, 1.083337e+003
5.436647e+002, 1.082308e+003
5.441469e+002, 1.081158e+003
5.446290e+002, 1.080477e+003
5.451111e+002, 1.080919e+003
5.455932e+002, 1.081740e+003
5.460753e+002, 1.081814e+003
5.465574e+002, 1.081159e+003
5.470396e+002, 1.080220e+003
5.475217e+002, 1.078917e+003
5.480038e+002, 1.077743e+003
5.484859e+002, 1.077837e+003
5.489680e+002, 1.079417e+003
5.494501e+002, 1.079974e+003
5.499323e+002, 1.077990e+003
5.504144e+002, 1.075687e+003
5.508965e+002, 1.074880e+003
5.513786e+002, 1.075352e+003
5.518607e+002, 1.076021e+003
5.523428e+002, 1.076340e+003
5.528250e+002, 1.076312e+003
5.533071e+002, 1.075891e+003
5.537892e+002, 1.074617e+003
5.542713e+002, 1.073799e+003
5.547534e+002, 1.074120e+003
5.552355e+002, 1.074230e+003
5.557177e+002, 1.073120e+003
5.561998e+002, 1.071133e+003
5.566819e+002, 1.069273e+003
5.571640e+002, 1.068093e+003
5.576461e+002, 1.067502e+003
5.581282e+002, 1.067512e+003
5.586104e+002, 1.068294e+003
5.590925e+002, 1.068572e+003
5.595746e+002, 1.067818e+003
5.600567e+002, 1.066646e+003
5.605388e+002, 1.065552e+003
5.610209e+002, 1.064541e+003
5.615031e+002, 1.063610e+003
5.619852e+002, 1.062488e+003
5.624673e+002, 1.061648e+003
5.629494e+002, 1.061870e+003
5.634315e+002, 1.062914e+003
5.639136e+002, 1.063625e+003
5.643958e+002, 1.063528e+003
5.648779e+002, 1.062858e+003
5.653600e+002, 1.061911e+003
5.658421e+002, 1.060323e+003
5.663242e+002, 1.059599e+003
5.668063e+002, 1.060789e+003
5.672885e+002, 1.061824e+003
5.677706e+002, 1.061296e+003
5.682527e+002, 1.059731e+003
5.687348e+002, 1.058403e+003
5.692169e+002, 1.057938e+003
5.696990e+002, 1.057905e+003
5.701812e+002, 1.057439e+003
5.706633e+002, 1.056400e+003
5.711454e+002, 1.055490e+003
5.716275e+002, 1.054380e+003
5.721096e+002, 1.053839e+003
5.725917e+002, 1.054835e+003
5.730739e+002, 1.056649e+003
5.735560e+002, 1.057574e+003
5.740381e+002, 1.056631e+003
5.745202e+002, 1.055150e+003
5.750023e+002, 1.054672e+003
5.754844e+002, 1.055019e+003
5.759666e+002, 1.055234e+003
5.764487e+002, 1.055105e+003
5.769308e+002, 1.054691e+003
5.774129e+002, 1.053811e+003
5.778950e+002, 1.052471e+003
5.783771e+002, 1.052089e+003
5.788593e+002, 1.054035e+003
5.793414e+002, 1.055494e+003
5.798235e+002, 1.054575e+003
5.803056e+002, 1.052516e+003
5.807877e+002, 1.051403e+003
5.812698e+002, 1.051842e+003
5.817520e+002, 1.052860e+003
5.822341e+002, 1.053306e+003
5.827162e+002, 1.053179e+003
5.831984e+002, 1.052459e+003
5.836805e+002, 1.050293e+003
5.841626e+002, 1.048606e+003
5.846447e+002, 1.048371e+003
5.851268e+002, 1.048689e+003
5.856089e+002, 1.048482e+003
5.860911e+002, 1.047460e+003
5.865732e+002, 1.046076e+003
5.870553e+002, 1.044300e+003
5.875374e+002, 1.042454e+003
5.880195e+002, 1.042101e+003
5.885016e+002, 1.043686e+003
5.889838e+002, 1.045111e+003
5.894659e+002, 1.044893e+003
5.899480e+002, 1.043575e+003
5.904301e+002, 1.042916e+003
5.909122e+002, 1.043419e+003
5.913943e+002, 1.043574e+003
5.918765e+002, 1.042368e+003
5.923586e+002, 1.040916e+003
5.928407e+002, 1.040590e+003
5.933228e+002, 1.041388e+003
5.938049e+002, 1.042335e+003
5.942870e+002, 1.042797e+003
5.947692e+002, 1.042698e+003
5.952513e+002, 1.041563e+003
5.957334e+002, 1.038253e+003
5.962155e+002, 1.035954e+003
5.966976e+002, 1.035212e+003
5.971797e+002, 1.035269e+003
5.976619e+002, 1.035939e+003
5.981440e+002, 1.036992e+003
5.986261e+002, 1.037881e+003
5.991082e+002, 1.038306e+003
5.995903e+002, 1.038327e+003
6.000724e+002, 1.037877e+003
6.005546e+002, 1.036945e+003
6.010367e+002, 1.036357e+003
6.015188e+002, 1.036502e+003
6.020009e+002, 1.036879e+003
6.024830e+002, 1.036757e+003
6.029651e+002, 1.036144e+003
6.034473e+002, 1.035878e+003
6.039294e+002, 1.036532e+003
6.044115e+002, 1.037121e+003
6.048936e+002, 1.037165e+003
6.053757e+002, 1.036674e+003
6.058578e+002, 1.035565e+003
6.063400e+002, 1.033836e+003
6.068221e+002, 1.032005e+003
6.073042e+002, 1.030803e+003
6.077863e+002, 1.030292e+003
6.082684e+002, 1.030058e+003
6.087505e+002, 1.030511e+003
6.092327e+002, 1.030782e+003
6.097148e+002, 1.030451e+003
6.101969e+002, 1.029888e+003
6.106790e+002, 1.029538e+003
6.111611e+002, 1.029529e+003
6.116432e+002, 1.029713e+003
6.121254e+002, 1.030141e+003
6.126075e+002, 1.030658e+003
6.130896e+002, 1.030739e+003
6.135717e+002, 1.030303e+003
6.140538e+002, 1.029678e+003
6.145359e+002, 1.028889e+003
6.150181e+002, 1.028124e+003
6.155002e+002, 1.027995e+003
6.159823e+002, 1.028870e+003
6.164644e+002, 1.029450e+003
6.169465e+002, 1.029449e+003
6.174286e+002, 1.029057e+003
6.179108e+002, 1.028177e+003
6.183929e+002, 1.027019e+003
6.188750e+002, 1.026210e+003
6.193571e+002, 1.026173e+003
6.198392e+002, 1.026587e+003
6.203214e+002, 1.026618e+003
6.208035e+002, 1.026186e+003
6.212856e+002, 1.025618e+003
6.217677e+002, 1.024787e+003
6.222498e+002, 1.023992e+003
6.227319e+002, 1.023618e+003
6.232141e+002, 1.023406e+003
6.236962e+002, 1.022608e+003
6.241783e+002, 1.020535e+003
6.246604e+002, 1.018515e+003
6.251425e+002, 1.018196e+003
6.256246e+002, 1.019036e+003
6.261068e+002, 1.019075e+003
6.265889e+002, 1.017805e+003
6.270710e+002, 1.016440e+003
6.275531e+002, 1.016162e+003
6.280352e+002, 1.016912e+003
6.285173e+002, 1.017315e+003
6.289995e+002, 1.017200e+003
6.294816e+002, 1.017002e+003
6.299637e+002, 1.016677e+003
6.304458e+002, 1.016387e+003
6.309279e+002, 1.016198e+003
6.314100e+002, 1.016175e+003
6.318922e+002, 1.016571e+003
6.323743e+002, 1.017867e+003
6.328564e+002, 1.019532e+003
6.333385e+002, 1.019312e+003
6.338206e+002, 1.016602e+003
6.343027e+002, 1.014439e+003
6.347849e+002, 1.013641e+003
6.352670e+002, 1.013779e+003
6.357491e+002, 1.014898e+003
6.362312e+002, 1.016810e+003
6.367133e+002, 1.017536e+003
6.371954e+002, 1.015456e+003
6.376776e+002, 1.012876e+003
6.381597e+002, 1.011499e+003
6.386418e+002, 1.011105e+003
6.391239e+002, 1.011336e+003
6.396060e+002, 1.012074e+003
6.400881e+002, 1.012466e+003
6.405703e+002, 1.011289e+003
6.410524e+002, 1.008343e+003
6.415345e+002, 1.006318e+003
6.420166e+002, 1.005817e+003
6.424987e+002, 1.005609e+003
6.429808e+002, 1.005833e+003
6.434630e+002, 1.006025e+003
6.439451e+002, 1.005660e+003
6.444272e+002, 1.004678e+003
6.449093e+002, 1.003537e+003
6.453914e+002, 1.002423e+003
6.458735e+002, 1.001450e+003
6.463557e+002, 1.000925e+003
6.468378e+002, 1.000853e+003
6.473199e+002, 1.001070e+003
6.478020e+002, 1.001574e+003
6.482841e+002, 1.002246e+003
6.487662e+002, 1.003106e+003
6.492484e+002, 1.004415e+003
6.497305e+002, 1.004446e+003
6.502126e+002, 1.001867e+003
6.506947e+002, 9.991638e+002
6.511768e+002, 9.975894e+002
6.516589e+002, 9.968799e+002
6.521411e+002, 9.965058e+002
6.526232e+002, 9.962628e+002
6.531053e+002, 9.961967e+002
6.535874e+002, 9.964811e+002
6.540695e+002, 9.971234e+002
6.545516e+002, 9.972828e+002
6.550338e+002, 9.967321e+002
6.555159e+002, 9.961490e+002
6.559980e+002, 9.958177e+002
6.564801e+002, 9.956121e+002
6.569622e+002, 9.954608e+002
6.574443e+002, 9.953795e+002
6.579265e+002, 9.950939e+002
6.584086e+002, 9.944021e+002
6.588907e+002, 9.935008e+002
6.593728e+002, 9.924155e+002
6.598549e+002, 9.912786e+002
6.603370e+002, 9.905817e+002
6.608192e+002, 9.905646e+002
6.613013e+002, 9.909609e+002
6.617834e+002, 9.913984e+002
6.622655e+002, 9.921194e+002
6.627476e+002, 9.919709e+002
6.632297e+002, 9.892159e+002
6.637119e+002, 9.875159e+002
6.641940e+002, 9.893361e+002
6.646761e+002, 9.923023e+002
6.651582e+002, 9.929250e+002
6.656403e+002, 9.902823e+002
6.661224e+002, 9.873792e+002
6.666046e+002, 9.871711e+002
6.670867e+002, 9.884485e+002
6.675688e+002, 9.880255e+002
6.680509e+002, 9.857194e+002
6.685330e+002, 9.839891e+002
6.690151e+002, 9.842634e+002
6.694973e+002, 9.855192e+002
6.699794e+002, 9.857045e+002
6.704615e+002, 9.843351e+002
6.709436e+002, 9.831668e+002
6.714257e+002, 9.824393e+002
6.719078e+002, 9.816990e+002
6.723900e+002, 9.802962e+002
6.728721e+002, 9.788338e+002
6.733542e+002, 9.786019e+002
6.738363e+002, 9.800005e+002
6.743184e+002, 9.815174e+002
6.748005e+002, 9.810268e+002
6.752827e+002, 9.787938e+002
6.757648e+002, 9.775777e+002
6.762469e+002, 9.776503e+002
6.767290e+002, 9.780336e+002
6.772111e+002, 9.785754e+002
6.776932e+002, 9.789518e+002
6.781754e+002, 9.784909e+002
6.786575e+002, 9.769656e+002
6.791396e+002, 9.758842e+002
6.796217e+002, 9.759974e+002
6.801038e+002, 9.763259e+002
6.805859e+002, 9.763972e+002
6.810681e+002, 9.760593e+002
6.815502e+002, 9.749069e+002
6.820323e+002, 9.728243e+002
6.825144e+002, 9.706069e+002
6.829965e+002, 9.694461e+002
6.834786e+002, 9.694025e+002
6.839608e+002, 9.694186e+002
6.844429e+002, 9.694022e+002
6.849250e+002, 9.696070e+002
6.854071e+002, 9.708527e+002
6.858892e+002, 9.719735e+002
6.863713e+002, 9.713637e+002
6.868535e+002, 9.687763e+002
6.873356e+002, 9.666022e+002
6.878177e+002, 9.662676e+002
6.882998e+002, 9.665480e+002
6.887819e+002, 9.662000e+002
6.892640e+002, 9.653605e+002
6.897462e+002, 9.646221e+002
6.902283e+002, 9.642077e+002
6.907104e+002, 9.641555e+002
6.911925e+002, 9.646194e+002
6.916746e+002, 9.657285e+002
6.921567e+002, 9.662267e+002
6.926389e+002, 9.661690e+002
6.931210e+002, 9.653862e+002
6.936031e+002, 9.629695e+002
6.940852e+002, 9.603932e+002
6.945673e+002, 9.593094e+002
6.950494e+002, 9.598495e+002
6.955316e+002, 9.605543e+002
6.960137e+002, 9.604037e+002
6.964958e+002, 9.600438e+002
6.969779e+002, 9.606606e+002
6.974600e+002, 9.619373e+002
6.979421e+002, 9.622729e+002
6.984243e+002, 9.610521e+002
6.989064e+002, 9.591855e+002
6.993885e+002, 9.577838e+002
6.998706e+002, 9.568898e+002
7.003527e+002, 9.559105e+002
7.008348e+002, 9.542956e+002
7.013170e+002, 9.532909e+002
7.017991e+002, 9.535247e+002
7.022812e+002, 9.541986e+002
7.027633e+002, 9.547432e+002
7.032454e+002, 9.550133e+002
7.037275e+002, 9.548636e+002
7.042097e+002, 9.537849e+002
7.046918e+002, 9.525922e+002
7.051739e+002, 9.528578e+002
7.056560e+002, 9.543039e+002
7.061381e+002, 9.550403e+002
7.066202e+002, 9.544504e+002
7.071024e+002, 9.535497e+002
7.075845e+002, 9.533610e+002
7.080666e+002, 9.538668e+002
7.085487e+002, 9.543017e+002
7.090308e+002, 9.549920e+002
7.095129e+002, 9.551695e+002
7.099951e+002, 9.539280e+002
7.104772e+002, 9.527201e+002
7.109593e+002, 9.530430e+002
7.114414e+002, 9.546403e+002
7.119235e+002, 9.560828e+002
7.124056e+002, 9.567492e+002
7.128878e+002, 9.564532e+002
7.133699e+002, 9.541957e+002
7.138520e+002, 9.503955e+002
7.143341e+002, 9.483077e+002
7.148162e+002, 9.487786e+002
7.152983e+002, 9.498291e+002
7.157805e+002, 9.500037e+002
7.162626e+002, 9.494034e+002
7.167447e+002, 9.485801e+002
7.172268e+002, 9.473585e+002
7.177089e+002, 9.461962e+002
7.181910e+002, 9.447143e+002
7.186732e+002, 9.436660e+002
7.191553e+002, 9.438477e+002
7.196374e+002, 9.448983e+002
7.201195e+002, 9.459174e+002
7.206016e+002, 9.464997e+002
7.210837e+002, 9.467196e+002
7.215659e+002, 9.465825e+002
7.220480e+002, 9.461415e+002
7.225301e+002, 9.456620e+002
7.230122e+002, 9.451423e+002
7.234943e+002, 9.447219e+002
7.239764e+002, 9.444499e+002
7.244586e+002, 9.443493e+002
7.249407e+002, 9.444916e+002
7.254228e+002, 9.449109e+002
7.259049e+002, 9.454727e+002
7.263870e+002, 9.466417e+002
7.268691e+002, 9.474736e+002
7.273513e+002, 9.471864e+002
7.278334e+002, 9.462836e+002
7.283155e+002, 9.456666e+002
7.287976e+002, 9.456260e+002
7.292797e+002, 9.456774e+002
7.297618e+002, 9.451761e+002
7.302440e+002, 9.443512e+002
7.307261e+002, 9.437782e+002
7.312082e+002, 9.434020e+002
7.316903e+002, 9.447260e+002
7.321724e+002, 9.493201e+002
7.326545e+002, 9.542211e+002
7.331367e+002, 9.548483e+002
7.336188e+002, 9.502189e+002
7.341009e+002, 9.465289e+002
7.345830e+002, 9.433832e+002
7.350651e+002, 9.416041e+002
7.355472e+002, 9.423414e+002
7.360294e+002, 9.440973e+002
7.365115e+002, 9.452390e+002
7.369936e+002, 9.455085e+002
7.374757e+002, 9.456149e+002
7.379578e+002, 9.461922e+002
7.384399e+002, 9.468401e+002
7.389221e+002, 9.465240e+002
7.394042e+002, 9.453317e+002
7.398863e+002, 9.446418e+002
7.403684e+002, 9.448195e+002
7.408505e+002, 9.455143e+002
7.413326e+002, 9.466619e+002
7.418148e+002, 9.481361e+002
7.422969e+002, 9.484541e+002
7.427790e+002, 9.462170e+002
7.432611e+002, 9.448582e+002
7.437432e+002, 9.451957e+002
7.442253e+002, 9.461938e+002
7.447075e+002, 9.474012e+002
7.451896e+002, 9.485778e+002
7.456717e+002, 9.493835e+002
7.461538e+002, 9.496383e+002
7.466359e+002, 9.495615e+002
7.471180e+002, 9.492347e+002
7.476002e+002, 9.487903e+002
7.480823e+002, 9.487256e+002
7.485644e+002, 9.491054e+002
7.490465e+002, 9.497432e+002
7.495286e+002, 9.506875e+002
7.500107e+002, 9.515810e+002
7.504929e+002, 9.514799e+002
7.509750e+002, 9.494746e+002
7.514571e+002, 9.487512e+002
7.519392e+002, 9.497916e+002
7.524213e+002, 9.514617e+002
7.529034e+002, 9.541534e+002
7.533856e+002, 9.568231e+002
7.538677e+002, 9.579516e+002
7.543498e+002, 9.572504e+002
7.548319e+002, 9.562050e+002
7.553140e+002, 9.552945e+002
7.557961e+002, 9.550590e+002
7.562783e+002, 9.570896e+002
7.567604e+002, 9.608832e+002
7.572425e+002, 9.634012e+002
7.577246e+002, 9.635334e+002
7.582067e+002, 9.629741e+002
7.586888e+002, 9.637000e+002
7.591710e+002, 9.656993e+002
7.596531e+002, 9.672555e+002
7.601352e+002, 9.677197e+002
7.606173e+002, 9.687248e+002
7.610994e+002, 9.710700e+002
7.615815e+002, 9.735251e+002
7.620637e+002, 9.751440e+002
7.625458e+002, 9.760529e+002
7.630279e+002, 9.769443e+002
7.635100e+002, 9.780345e+002
7.639921e+002, 9.792764e+002
7.644742e+002, 9.808058e+002
7.649564e+002, 9.824044e+002
7.654385e+002, 9.834562e+002
7.659206e+002, 9.840198e+002
7.664027e+002, 9.850280e+002
7.668848e+002, 9.871041e+002
7.673669e+002, 9.898372e+002
7.678491e+002, 9.922523e+002
7.683312e+002, 9.942601e+002
7.688133e+002, 9.962900e+002
7.692954e+002, 9.982543e+002
7.697775e+002, 1.000370e+003
7.702596e+002, 1.002800e+003
7.707418e+002, 1.005408e+003
7.712239e+002, 1.007924e+003
7.717060e+002, 1.010277e+003
7.721881e+002, 1.013092e+003
7.726702e+002, 1.017110e+003
7.731523e+002, 1.021220e+003
7.736345e+002, 1.024345e+003
7.741166e+002, 1.026890e+003
7.745987e+002, 1.029604e+003
7.750808e+002, 1.032754e+003
7.755629e+002, 1.036498e+003
7.760450e+002, 1.041091e+003
7.765272e+002, 1.046355e+003
7.770093e+002, 1.051464e+003
7.774914e+002, 1.056436e+003
7.779735e+002, 1.061097e+003
7.784556e+002, 1.064911e+003
7.789377e+002, 1.069231e+003
7.794199e+002, 1.075149e+003
7.799020e+002, 1.082618e+003
7.803841e+002, 1.091463e+003
7.808662e+002, 1.103522e+003
7.813483e+002, 1.114206e+003
7.818304e+002, 1.120168e+003
7.823126e+002, 1.126248e+003
7.827947e+002, 1.137609e+003
7.832768e+002, 1.152478e+003
7.837589e+002, 1.164870e+003
7.842410e+002, 1.171958e+003
7.847231e+002, 1.179003e+003
7.852053e+002, 1.193841e+003
7.856874e+002, 1.214130e+003
7.861695e+002, 1.230036e+003
7.866516e+002, 1.240806e+003
7.871337e+002, 1.252582e+003
7.876158e+002, 1.267915e+003
7.880980e+002, 1.285739e+003
7.885801e+002, 1.304670e+003
7.890622e+002, 1.324632e+003
7.895443e+002, 1.345583e+003
7.900264e+002, 1.366691e+003
7.905085e+002, 1.389723e+003
7.909907e+002, 1.415274e+003
7.914728e+002, 1.442818e+003
7.919549e+002, 1.471394e+003
7.924370e+002, 1.501172e+003
7.929191e+002, 1.533862e+003
7.934012e+002, 1.570068e+003
7.938834e+002, 1.609399e+003
7.943655e+002, 1.651696e+003
7.948476e+002, 1.696762e+003
7.953297e+002, 1.743908e+003
7.958118e+002, 1.793310e+003
7.962939e+002, 1.845742e+003
7.967761e+002, 1.901748e+003
7.972582e+002, 1.961263e+003
7.977403e+002, 2.023624e+003
7.982224e+002, 2.089257e+003
7.987045e+002, 2.157387e+003
7.991866e+002, 2.227239e+003
7.996688e+002, 2.300830e+003
8.001509e+002, 2.377802e+003
8.006330e+002, 2.460163e+003
8.011151e+002, 2.550569e+003
8.015972e+002, 2.648827e+003
8.020793e+002, 2.755753e+003
8.025615e+002, 2.871941e+003
8.030436e+002, 2.996039e+003
8.035257e+002, 3.125950e+003
8.040078e+002, 3.263393e+003
8.044899e+002, 3.410123e+003
8.049720e+002, 3.566119e+003
8.054542e+002, 3.731132e+003
8.059363e+002, 3.905229e+003
8.064184e+002, 4.085914e+003
8.069005e+002, 4.270094e+003
8.073826e+002, 4.457329e+003
8.078647e+002, 4.640792e+003
8.083469e+002, 4.822799e+003
8.088290e+002, 4.986145e+003
8.093111e+002, 5.122403e+003
8.097932e+002, 5.229033e+003
8.102753e+002, 5.297551e+003
8.107574e+002, 5.325344e+003
8.112396e+002, 5.318358e+003
8.117217e+002, 5.263377e+003
8.122038e+002, 5.189518e+003
8.126859e+002, 5.100725e+003
8.131680e+002, 5.004375e+003
8.136501e+002, 4.906337e+003
8.141323e+002, 4.808236e+003
8.146144e+002, 4.718921e+003
8.150965e+002, 4.643006e+003
8.155786e+002, 4.579181e+003
8.160607e+002, 4.531808e+003
8.165428e+002, 4.495111e+003
8.170250e+002, 4.458432e+003
8.175071e+002, 4.417842e+003
8.179892e+002, 4.364000e+003
8.184713e+002, 4.289466e+003
8.189534e+002, 4.193699e+003
8.194355e+002, 4.074995e+003
8.199177e+002, 3.932031e+003
8.203998e+002, 3.770113e+003
8.208819e+002, 3.583418e+003
8.213640e+002, 3.388224e+003
8.218461e+002, 3.187193e+003
8.223282e+002, 2.986875e+003
8.228104e+002, 2.797727e+003
8.232925e+002, 2.619213e+003
8.237746e+002, 2.454068e+003
8.242567e+002, 2.302134e+003
8.247388e+002, 2.163374e+003
8.252209e+002, 2.038303e+003
8.257031e+002, 1.925805e+003
8.261852e+002, 1.826100e+003
8.266673e+002, 1.738795e+003
8.271494e+002, 1.661149e+003
8.276315e+002, 1.592298e+003
8.281136e+002, 1.531332e+003
8.285958e+002, 1.476379e+003
8.290779e+002, 1.427283e+003
8.295600e+002, 1.382849e+003
8.300421e+002, 1.342845e+003
8.305242e+002, 1.307447e+003
8.310063e+002, 1.277089e+003
8.314885e+002, 1.250863e+003
8.319706e+002, 1.226167e+003
8.324527e+002, 1.202374e+003
8.329348e+002, 1.181607e+003
8.334169e+002, 1.164838e+003
8.338990e+002, 1.149965e+003
8.343812e+002, 1.136732e+003
8.348633e+002, 1.124449e+003
8.353454e+002, 1.112067e+003
8.358275e+002, 1.099525e+003
8.363096e+002, 1.087718e+003
8.367917e+002, 1.076506e+003
8.372739e+002, 1.066672e+003
8.377560e+002, 1.059477e+003
8.382381e+002, 1.053532e+003
8.387202e+002, 1.046708e+003
8.392023e+002, 1.038901e+003
8.396844e+002, 1.031682e+003
8.401666e+002, 1.026291e+003
8.406487e+002, 1.021576e+003
8.411308e+002, 1.015331e+003
8.416129e+002, 1.007862e+003
8.420950e+002, 1.001435e+003
8.425771e+002, 9.963096e+002
8.430593e+002, 9.917758e+002
8.435414e+002, 9.875159e+002
8.440235e+002, 9.834879e+002
8.445056e+002, 9.795800e+002
8.449877e+002, 9.758165e+002
8.454698e+002, 9.721442e+002
8.459520e+002, 9.686798e+002
8.464341e+002, 9.651531e+002
8.469162e+002, 9.612957e+002
8.473983e+002, 9.575225e+002
8.478804e+002, 9.541594e+002
8.483625e+002, 9.512128e+002
8.488447e+002, 9.485290e+002
8.493268e+002, 9.461241e+002
8.498089e+002, 9.438729e+002
8.502910e+002, 9.417182e+002
8.507731e+002, 9.396534e+002
8.512552e+002, 9.376681e+002
8.517374e+002, 9.357607e+002
8.522195e+002, 9.339462e+002
8.527016e+002, 9.322311e+002
8.531837e+002, 9.304734e+002
8.536658e+002, 9.284612e+002
8.541479e+002, 9.262453e+002
8.546301e+002, 9.239677e+002
8.551122e+002, 9.216344e+002
8.555943e+002, 9.196135e+002
8.560764e+002, 9.181318e+002
8.565585e+002, 9.166658e+002
8.570406e+002, 9.145774e+002
8.575228e+002, 9.119653e+002
8.580049e+002, 9.098505e+002
8.584870e+002, 9.079478e+002
8.589691e+002, 9.070895e+002
8.594512e+002, 9.086656e+002
8.599333e+002, 9.099424e+002
8.604155e+002, 9.091183e+002
8.608976e+002, 9.070945e+002
8.613797e+002, 9.055701e+002
8.618618e+002, 9.048551e+002
8.623439e+002, 9.045823e+002
8.628260e+002, 9.051029e+002
8.633082e+002, 9.055303e+002
8.637903e+002, 9.047799e+002
8.642724e+002, 9.035768e+002
8.647545e+002, 9.034301e+002
8.652366e+002, 9.044803e+002
8.657188e+002, 9.052350e+002
8.662009e+002, 9.043339e+002
8.666830e+002, 9.027843e+002
8.671651e+002, 9.024461e+002
8.676472e+002, 9.032178e+002
8.681293e+002, 9.046204e+002
8.686115e+002, 9.065989e+002
8.690936e+002, 9.087328e+002
8.695757e+002, 9.107463e+002
8.700578e+002, 9.128153e+002
8.705399e+002, 9.153799e+002
8.710220e+002, 9.186090e+002
8.715042e+002, 9.214613e+002
8.719863e+002, 9.239045e+002
8.724684e+002, 9.260051e+002
8.729505e+002, 9.270635e+002
8.734326e+002, 9.283273e+002
8.739147e+002, 9.310678e+002
8.743969e+002, 9.351087e+002
8.748790e+002, 9.390955e+002
8.753611e+002, 9.427595e+002
8.758432e+002, 9.463763e+002
8.763253e+002, 9.492791e+002
8.768074e+002, 9.528398e+002
8.772896e+002, 9.584266e+002
8.777717e+002, 9.656833e+002
8.782538e+002, 9.734763e+002
8.787359e+002, 9.813964e+002
8.792180e+002, 9.900345e+002
8.797001e+002, 1.000317e+003
8.801823e+002, 1.011538e+003
8.806644e+002, 1.022413e+003
8.811465e+002, 1.033048e+003
8.816286e+002, 1.044178e+003
8.821107e+002, 1.055945e+003
8.825928e+002, 1.067629e+003
8.830750e+002, 1.078726e+003
8.835571e+002, 1.088696e+003
8.840392e+002, 1.095437e+003
8.845213e+002, 1.098529e+003
8.850034e+002, 1.100787e+003
8.854855e+002, 1.103095e+003
8.859677e+002, 1.102961e+003
8.864498e+002, 1.098398e+003
8.869319e+002, 1.091184e+003
8.874140e+002, 1.084063e+003
8.878961e+002, 1.077001e+003
8.883782e+002, 1.070445e+003
8.888604e+002, 1.063935e+003
8.893425e+002, 1.058603e+003
8.898246e+002, 1.054759e+003
8.903067e+002, 1.052210e+003
8.907888e+002, 1.051297e+003
8.912709e+002, 1.051520e+003
8.917531e+002, 1.051403e+003
8.922352e+002, 1.050165e+003
8.927173e+002, 1.049358e+003
8.931994e+002, 1.049953e+003
8.936815e+002, 1.051609e+003
8.941636e+002, 1.054387e+003
8.946458e+002, 1.057830e+003
8.951279e+002, 1.060950e+003
8.956100e+002, 1.063413e+003
8.960921e+002, 1.065230e+003
8.965742e+002, 1.066107e+003
8.970563e+002, 1.066676e+003
8.975385e+002, 1.068795e+003
8.980206e+002, 1.072354e+003
8.985027e+002, 1.076046e+003
8.989848e+002, 1.079688e+003
8.994669e+002, 1.082963e+003
8.999490e+002, 1.085786e+003
9.004312e+002, 1.087928e+003
9.009133e+002, 1.088954e+003
9.013954e+002, 1.088962e+003
9.018775e+002, 1.087500e+003
9.023596e+002, 1.085443e+003
9.028417e+002, 1.080376e+003
9.033239e+002, 1.070487e+003
9.038060e+002, 1.058066e+003
9.042881e+002, 1.045005e+003
9.047702e+002, 1.031326e+003
9.052523e+002, 1.017016e+003
9.057344e+002, 1.001244e+003
9.062166e+002, 9.860711e+002
9.066987e+002, 9.715409e+002
9.071808e+002, 9.581335e+002
9.076629e+002, 9.465371e+002
9.081450e+002, 9.362011e+002
9.086271e+002, 9.262140e+002
9.091093e+002, 9.163467e+002
9.095914e+002, 9.064542e+002
9.100735e+002, 8.956862e+002
9.105556e+002, 8.856097e+002
9.110377e+002, 8.787064e+002
9.115198e+002, 8.735812e+002
9.120020e+002, 8.671050e+002
9.124841e+002, 8.590751e+002
9.129662e+002, 8.518092e+002
9.134483e+002, 8.467708e+002
9.139304e+002, 8.432202e+002
9.144125e+002, 8.401348e+002
9.148947e+002, 8.374327e+002
9.153768e+002, 8.343269e+002
9.158589e+002, 8.307774e+002
9.163410e+002, 8.272719e+002
9.168231e+002, 8.239192e+002
9.173052e+002, 8.209886e+002
9.177874e+002, 8.188842e+002
9.182695e+002, 8.174963e+002
9.187516e+002, 8.157868e+002
9.192337e+002, 8.134962e+002
9.197158e+002, 8.115007e+002
9.201979e+002, 8.099541e+002
9.206801e+002, 8.086147e+002
9.211622e+002, 8.075856e+002
9.216443e+002, 8.065759e+002
9.221264e+002, 8.049892e+002
9.226085e+002, 8.026531e+002
9.230906e+002, 8.008688e+002
9.235728e+002, 7.998972e+002
9.240549e+002, 7.993935e+002
9.245370e+002, 7.999161e+002
9.250191e+002, 8.003232e+002
9.255012e+002, 7.993072e+002
9.259833e+002, 7.971971e+002
9.264655e+002, 7.952758e+002
9.269476e+002, 7.939855e+002
9.274297e+002, 7.930963e+002
9.279118e+002, 7.926008e+002
9.283939e+002, 7.922969e+002
9.288760e+002, 7.921727e+002
9.293582e+002, 7.920048e+002
9.298403e+002, 7.912153e+002
9.303224e+002, 7.897480e+002
9.308045e+002, 7.883599e+002
9.312866e+002, 7.878010e+002
9.317687e+002, 7.874047e+002
9.322509e+002, 7.854930e+002
9.327330e+002, 7.825859e+002
9.332151e+002, 7.811705e+002
9.336972e+002, 7.814792e+002
9.341793e+002, 7.822295e+002
9.346614e+002, 7.828750e+002
9.351436e+002, 7.830622e+002
9.356257e+002, 7.820895e+002
9.361078e+002, 7.800615e+002
9.365899e+002, 7.792355e+002
9.370720e+002, 7.800558e+002
9.375541e+002, 7.802468e+002
9.380363e+002, 7.791363e+002
9.385184e+002, 7.777096e+002
9.390005e+002, 7.765389e+002
9.394826e+002, 7.756380e+002
9.399647e+002, 7.750574e+002
9.404468e+002, 7.748814e+002
9.409290e+002, 7.747839e+002
9.414111e+002, 7.750322e+002
9.418932e+002, 7.750070e+002
9.423753e+002, 7.743724e+002
9.428574e+002, 7.735084e+002
9.433395e+002, 7.726321e+002
9.438217e+002, 7.718273e+002
9.443038e+002, 7.713972e+002
9.447859e+002, 7.717164e+002
9.452680e+002, 7.718250e+002
9.457501e+002, 7.712469e+002
9.462322e+002, 7.704665e+002
9.467144e+002, 7.697126e+002
9.471965e+002, 7.690781e+002
9.476786e+002, 7.687260e+002
9.481607e+002, 7.686469e+002
9.486428e+002, 7.684791e+002
9.491249e+002, 7.678676e+002
9.496071e+002, 7.672306e+002
9.500892e+002, 7.672015e+002
9.505713e+002, 7.673428e+002
9.510534e+002, 7.666613e+002
9.515355e+002, 7.653645e+002
9.520176e+002, 7.647864e+002
9.524998e+002, 7.655059e+002
9.529819e+002, 7.663178e+002
9.534640e+002, 7.655697e+002
9.539461e+002, 7.638754e+002
9.544282e+002, 7.631810e+002
9.549103e+002, 7.633593e+002
9.553925e+002, 7.635322e+002
9.558746e+002, 7.635158e+002
9.563567e+002, 7.630159e+002
9.568388e+002, 7.617460e+002
9.573209e+002, 7.601477e+002
9.578030e+002, 7.591597e+002
9.582852e+002, 7.588127e+002
9.587673e+002, 7.588362e+002
9.592494e+002, 7.594633e+002
9.597315e+002, 7.594383e+002
9.602136e+002, 7.580419e+002
9.606957e+002, 7.565753e+002
9.611779e+002, 7.564067e+002
9.616600e+002, 7.572338e+002
9.621421e+002, 7.573918e+002
9.626242e+002, 7.561879e+002
9.631063e+002, 7.557128e+002
9.635884e+002, 7.567119e+002
9.640706e+002, 7.575294e+002
9.645527e+002, 7.574006e+002
9.650348e+002, 7.568845e+002
9.655169e+002, 7.566454e+002
9.659990e+002, 7.566603e+002
9.664811e+002, 7.563555e+002
9.669633e+002, 7.554084e+002
9.674454e+002, 7.544777e+002
9.679275e+002, 7.534852e+002
9.684096e+002, 7.527668e+002
9.688917e+002, 7.525909e+002
9.693738e+002, 7.528207e+002
9.698560e+002, 7.534139e+002
9.703381e+002, 7.543193e+002
9.708202e+002, 7.546645e+002
9.713023e+002, 7.534217e+002
9.717844e+002, 7.521863e+002
9.722665e+002, 7.521924e+002
9.727487e+002, 7.526774e+002
9.732308e+002, 7.527179e+002
9.737129e+002, 7.523849e+002
9.741950e+002, 7.521227e+002
9.746771e+002, 7.521044e+002
9.751592e+002, 7.525371e+002
9.756414e+002, 7.540338e+002
9.761235e+002, 7.557769e+002
9.766056e+002, 7.564904e+002
9.770877e+002, 7.565468e+002
9.775698e+002, 7.568992e+002
9.780519e+002, 7.576483e+002
9.785341e+002, 7.581620e+002
9.790162e+002, 7.580233e+002
9.794983e+002, 7.579508e+002
9.799804e+002, 7.591789e+002
9.804625e+002, 7.613552e+002
9.809446e+002, 7.631977e+002
9.814268e+002, 7.646844e+002
9.819089e+002, 7.656810e+002
9.823910e+002, 7.661418e+002
9.828731e+002, 7.672256e+002
9.833552e+002, 7.699060e+002
9.838373e+002, 7.737067e+002
9.843195e+002, 7.775226e+002
9.848016e+002, 7.813517e+002
9.852837e+002, 7.848603e+002
9.857658e+002, 7.877274e+002
9.862479e+002, 7.923342e+002
9.867300e+002, 8.002367e+002
9.872122e+002, 8.081459e+002
9.876943e+002, 8.130809e+002
9.881764e+002, 8.150978e+002
9.886585e+002, 8.145427e+002
9.891406e+002, 8.112293e+002
9.896227e+002, 8.057139e+002
9.901049e+002, 7.967337e+002
9.905870e+002, 7.878152e+002
9.910691e+002, 7.800344e+002
9.915512e+002, 7.733741e+002
9.920333e+002, 7.679272e+002
9.925154e+002, 7.636853e+002
9.929976e+002, 7.596361e+002
9.934797e+002, 7.555286e+002
9.939618e+002, 7.519984e+002
9.944439e+002, 7.488834e+002
9.949260e+002, 7.465504e+002
9.954081e+002, 7.455353e+002
9.958903e+002, 7.452040e+002
9.963724e+002, 7.447898e+002
9.968545e+002, 7.442317e+002
9.973366e+002, 7.435844e+002
9.978187e+002, 7.428997e+002
9.983008e+002, 7.420631e+002
9.987830e+002, 7.406935e+002
9.992651e+002, 7.394904e+002
9.997472e+002, 7.391088e+002
1.000229e+003, 7.391935e+002
1.000711e+003, 7.391971e+002
1.001194e+003, 7.389978e+002
1.001676e+003, 7.383447e+002
1.002158e+003, 7.365320e+002
1.002640e+003, 7.349517e+002
1.003122e+003, 7.347193e+002
1.003604e+003, 7.348818e+002
1.004086e+003, 7.343607e+002
1.004568e+003, 7.333905e+002
1.005050e+003, 7.328370e+002
1.005533e+003, 7.329638e+002
1.006015e+003, 7.330494e+002
1.006497e+003, 7.323024e+002
1.006979e+003, 7.315690e+002
1.007461e+003, 7.320229e+002
1.007943e+003, 7.328502e+002
1.008425e+003, 7.325349e+002
1.008907e+003, 7.313119e+002
1.009390e+003, 7.306836e+002
1.009872e+003, 7.312811e+002
1.010354e+003, 7.320169e+002
1.010836e+003, 7.317664e+002
1.011318e+003, 7.310145e+002
1.011800e+003, 7.303649e+002
1.012282e+003, 7.298995e+002
1.012764e+003, 7.297822e+002
1.013246e+003, 7.300502e+002
1.013729e+003, 7.308773e+002
1.014211e+003, 7.323816e+002
1.014693e+003, 7.337371e+002
1.015175e+003, 7.338047e+002
1.015657e+003, 7.328893e+002
1.016139e+003, 7.315872e+002
1.016621e+003, 7.300710e+002
1.017103e+003, 7.292621e+002
1.017586e+003, 7.293135e+002
1.018068e+003, 7.297399e+002
1.018550e+003, 7.302789e+002
1.019032e+003, 7.306931e+002
1.019514e+003, 7.304272e+002
1.019996e+003, 7.296319e+002
1.020478e+003, 7.293605e+002
1.020960e+003, 7.296082e+002
1.021442e+003, 7.302474e+002
1.021925e+003, 7.312645e+002
1.022407e+003, 7.324554e+002
1.022889e+003, 7.337509e+002
1.023371e+003, 7.348433e+002
1.023853e+003, 7.350636e+002
1.024335e+003, 7.344008e+002
1.024817e+003, 7.334629e+002
1.025299e+003, 7.321211e+002
1.025781e+003, 7.315596e+002
1.026264e+003, 7.322386e+002
1.026746e+003, 7.329725e+002
1.027228e+003, 7.328187e+002
1.027710e+003, 7.322162e+002
1.028192e+003, 7.322615e+002
1.028674e+003, 7.330698e+002
1.029156e+003, 7.336152e+002
1.029638e+003, 7.339237e+002
1.030120e+003, 7.338525e+002
1.030603e+003, 7.332850e+002
1.031085e+003, 7.324755e+002
1.031567e+003, 7.314764e+002
1.032049e+003, 7.305074e+002
1.032531e+003, 7.301505e+002
1.033013e+003, 7.304678e+002
1.033495e+003, 7.312429e+002
1.033977e+003, 7.332172e+002
1.034460e+003, 7.340482e+002
1.034942e+003, 7.327397e+002
1.035424e+003, 7.306968e+002
1.035906e+003, 7.286447e+002
1.036388e+003, 7.268394e+002
1.036870e+003, 7.261464e+002
1.037352e+003, 7.271774e+002
1.037834e+003, 7.271787e+002
1.038317e+003, 7.250323e+002
1.038799e+003, 7.235887e+002
1.039281e+003, 7.241926e+002
1.039763e+003, 7.250158e+002
1.040245e+003, 7.244558e+002
1.040727e+003, 7.230631e+002
1.041209e+003, 7.224661e+002
1.041691e+003, 7.230745e+002
1.042173e+003, 7.231755e+002
1.042656e+003, 7.224387e+002
1.043138e+003, 7.215950e+002
1.043620e+003, 7.207436e+002
1.044102e+003, 7.199128e+002
1.044584e+003, 7.189518e+002
1.045066e+003, 7.180497e+002
1.045548e+003, 7.177171e+002
1.046030e+003, 7.180840e+002
1.046512e+003, 7.186282e+002
1.046995e+003, 7.200606e+002
1.047477e+003, 7.206461e+002
1.047959e+003, 7.189501e+002
1.048441e+003, 7.170550e+002
1.048923e+003, 7.169258e+002
1.049405e+003, 7.178206e+002
1.049887e+003, 7.177376e+002
1.050369e+003, 7.162086e+002
1.050852e+003, 7.149406e+002
1.051334e+003, 7.139602e+002
1.051816e+003, 7.136785e+002
1.052298e+003, 7.151472e+002
1.052780e+003, 7.165437e+002
1.053262e+003, 7.160947e+002
1.053744e+003, 7.144971e+002
1.054226e+003, 7.135378e+002
1.054708e+003, 7.135947e+002
1.055191e+003, 7.134510e+002
1.055673e+003, 7.123480e+002
1.056155e+003, 7.115471e+002
1.056637e+003, 7.116465e+002
1.057119e+003, 7.121454e+002
1.057601e+003, 7.129874e+002
1.058083e+003, 7.137836e+002
1.058565e+003, 7.135712e+002
1.059047e+003, 7.120743e+002
1.059530e+003, 7.114799e+002
1.060012e+003, 7.138077e+002
1.060494e+003, 7.154997e+002
1.060976e+003, 7.146169e+002
1.061458e+003, 7.128780e+002
1.061940e+003, 7.112946e+002
1.062422e+003, 7.101037e+002
1.062904e+003, 7.096174e+002
1.063387e+003, 7.098859e+002
1.063869e+003, 7.099304e+002
1.064351e+003, 7.094974e+002
1.064833e+003, 7.086243e+002
1.065315e+003, 7.066611e+002
1.065797e+003, 7.048879e+002
1.066279e+003, 7.046747e+002
1.066761e+003, 7.053145e+002
1.067244e+003, 7.054142e+002
1.067726e+003, 7.047567e+002
1.068208e+003, 7.042736e+002
1.068690e+003, 7.045291e+002
1.069172e+003, 7.047830e+002
1.069654e+003, 7.047534e+002
1.070136e+003, 7.045341e+002
1.070618e+003, 7.041425e+002
1.071100e+003, 7.036390e+002
1.071583e+003, 7.029670e+002
1.072065e+003, 7.022006e+002
1.072547e+003, 7.019224e+002
1.073029e+003, 7.027686e+002
1.073511e+003, 7.034504e+002
1.073993e+003, 7.033082e+002
1.074475e+003, 7.028138e+002
1.074957e+003, 7.021151e+002
1.075439e+003, 7.014262e+002
1.075922e+003, 7.010690e+002
1.076404e+003, 7.010202e+002
1.076886e+003, 7.008552e+002
1.077368e+003, 7.002849e+002
1.077850e+003, 6.998760e+002
1.078332e+003, 7.002314e+002
1.078814e+003, 7.004841e+002
1.079297e+003, 6.997695e+002
1.079779e+003, 6.987130e+002
1.080261e+003, 6.981691e+002
1.080743e+003, 6.981482e+002
1.081225e+003, 6.981824e+002
1.081707e+003, 6.981443e+002
1.082189e+003, 6.980457e+002
1.082671e+003, 6.976913e+002
1.083153e+003, 6.975026e+002
1.083635e+003, 6.978730e+002
1.084118e+003, 6.984762e+002
1.084600e+003, 6.992408e+002
1.085082e+003, 6.998652e+002
1.085564e+003, 6.994785e+002
1.086046e+003, 6.976351e+002
1.086528e+003, 6.959069e+002
1.087010e+003, 6.945323e+002
1.087492e+003, 6.939703e+002
1.087975e+003, 6.953536e+002
1.088457e+003, 6.969644e+002
1.088939e+003, 6.968975e+002
1.089421e+003, 6.956367e+002
1.089903e+003, 6.947371e+002
1.090385e+003, 6.945768e+002
1.090867e+003, 6.944659e+002
1.091349e+003, 6.943987e+002
1.091832e+003, 6.939949e+002
1.092314e+003, 6.927879e+002
1.092796e+003, 6.914359e+002
1.093278e+003, 6.902643e+002
1.093760e+003, 6.894645e+002
1.094242e+003, 6.893700e+002
1.094724e+003, 6.900231e+002
1.095206e+003, 6.907904e+002
1.095688e+003, 6.917845e+002
1.096171e+003, 6.924189e+002
1.096653e+003, 6.924239e+002
1.097135e+003, 6.920662e+002
1.097617e+003, 6.912248e+002
1.098099e+003, 6.903035e+002
1.098581e+003, 6.898834e+002
1.099063e+003, 6.899894e+002
1.099545e+003, 6.901672e+002
1.100027e+003, 6.907512e+002
1.100510e+003, 6.906437e+002
1.100992e+003, 6.887688e+002
1.101474e+003, 6.870432e+002
1.101956e+003, 6.864313e+002
1.102438e+003, 6.865812e+002
1.102920e+003, 6.873563e+002
1.103402e+003, 6.885186e+002
1.103884e+003, 6.891398e+002
1.104367e+003, 6.888401e+002
1.104849e+003, 6.885804e+002
1.105331e+003, 6.887504e+002
1.105813e+003, 6.887029e+002
1.106295e+003, 6.879908e+002
1.106777e+003, 6.871227e+002
1.107259e+003, 6.865988e+002
1.107741e+003, 6.862971e+002
1.108224e+003, 6.857223e+002
1.108706e+003, 6.845961e+002
1.109188e+003, 6.841835e+002
1.109670e+003, 6.857174e+002
1.110152e+003, 6.864172e+002
1.110634e+003, 6.849591e+002
1.111116e+003, 6.831683e+002
1.111598e+003, 6.819495e+002
1.112080e+003, 6.813396e+002
1.112563e+003, 6.816578e+002
1.113045e+003, 6.831222e+002
1.113527e+003, 6.834824e+002
1.114009e+003, 6.818010e+002
1.114491e+003, 6.805428e+002
1.114973e+003, 6.799996e+002
1.115455e+003, 6.798616e+002
1.115937e+003, 6.802742e+002
1.116419e+003, 6.807731e+002
1.116902e+003, 6.807307e+002
1.117384e+003, 6.801941e+002
1.117866e+003, 6.796528e+002
1.118348e+003, 6.787468e+002
1.118830e+003, 6.787270e+002
1.119312e+003, 6.800993e+002
1.119794e+003, 6.814548e+002
1.120276e+003, 6.824160e+002
1.120759e+003, 6.829710e+002
1.121241e+003, 6.830488e+002
1.121723e+003, 6.827404e+002
1.122205e+003, 6.823663e+002
1.122687e+003, 6.818964e+002
1.123169e+003, 6.814650e+002
1.123651e+003, 6.810629e+002
1.124133e+003, 6.807226e+002
1.124615e+003, 6.804903e+002
1.125098e+003, 6.801648e+002
1.125580e+003, 6.795146e+002
1.126062e+003, 6.788732e+002
1.126544e+003, 6.789539e+002
1.127026e+003, 6.797377e+002
1.127508e+003, 6.801862e+002
1.127990e+003, 6.802200e+002
1.128472e+003, 6.807233e+002
1.128954e+003, 6.819377e+002
1.129437e+003, 6.828465e+002
1.129919e+003, 6.829492e+002
1.130401e+003, 6.825220e+002
1.130883e+003, 6.818096e+002
1.131365e+003, 6.809578e+002
1.131847e+003, 6.806674e+002
1.132329e+003, 6.808875e+002
1.132811e+003, 6.804899e+002
1.133294e+003, 6.794211e+002
1.133776e+003, 6.791801e+002
1.134258e+003, 6.802687e+002
1.134740e+003, 6.811595e+002
1.135222e+003, 6.805052e+002
1.135704e+003, 6.791550e+002
1.136186e+003, 6.788145e+002
1.136668e+003, 6.792182e+002
1.137151e+003, 6.792462e+002
1.137633e+003, 6.789942e+002
1.138115e+003, 6.792538e+002
1.138597e+003, 6.800624e+002
1.139079e+003, 6.802684e+002
1.139561e+003, 6.792106e+002
1.140043e+003, 6.781409e+002
1.140525e+003, 6.790200e+002
1.141007e+003, 6.805775e+002
1.141490e+003, 6.800617e+002
1.141972e+003, 6.784282e+002
1.142454e+003, 6.779382e+002
1.142936e+003, 6.784825e+002
1.143418e+003, 6.785102e+002
1.143900e+003, 6.775697e+002
1.144382e+003, 6.768894e+002
1.144864e+003, 6.775645e+002
1.145346e+003, 6.785687e+002
1.145829e+003, 6.790013e+002
1.146311e+003, 6.789568e+002
1.146793e+003, 6.782686e+002
1.147275e+003, 6.773174e+002
1.147757e+003, 6.767321e+002
1.148239e+003, 6.766296e+002
1.148721e+003, 6.770384e+002
1.149203e+003, 6.782716e+002
1.149686e+003, 6.786241e+002
1.150168e+003, 6.758993e+002
1.150650e+003, 6.731424e+002
1.151132e+003, 6.728053e+002
1.151614e+003, 6.735061e+002
1.152096e+003, 6.736044e+002
1.152578e+003, 6.733108e+002
1.153060e+003, 6.738281e+002
1.153542e+003, 6.754670e+002
1.154025e+003, 6.762325e+002
1.154507e+003, 6.744293e+002
1.154989e+003, 6.730374e+002
1.155471e+003, 6.734200e+002
1.155953e+003, 6.741869e+002
1.156435e+003, 6.745785e+002
1.156917e+003, 6.746907e+002
1.157399e+003, 6.747349e+002
1.157881e+003, 6.747067e+002
1.158364e+003, 6.744540e+002
1.158846e+003, 6.736816e+002
1.159328e+003, 6.732137e+002
1.159810e+003, 6.733167e+002
1.160292e+003, 6.734476e+002
1.160774e+003, 6.735037e+002
1.161256e+003, 6.734794e+002
1.161738e+003, 6.733011e+002
1.162221e+003, 6.730777e+002
1.162703e+003, 6.730877e+002
1.163185e+003, 6.733729e+002
1.163667e+003, 6.736041e+002
1.164149e+003, 6.739104e+002
1.164631e+003, 6.736771e+002
1.165113e+003, 6.724306e+002
1.165595e+003, 6.718386e+002
1.166078e+003, 6.730035e+002
1.166560e+003, 6.745212e+002
1.167042e+003, 6.745767e+002
1.167524e+003, 6.735413e+002
1.168006e+003, 6.731779e+002
1.168488e+003, 6.735076e+002
1.168970e+003, 6.738167e+002
1.169452e+003, 6.740706e+002
1.169934e+003, 6.742242e+002
1.170417e+003, 6.742635e+002
1.170899e+003, 6.743309e+002
1.171381e+003, 6.745858e+002
1.171863e+003, 6.745750e+002
1.172345e+003, 6.730721e+002
1.172827e+003, 6.707690e+002
1.173309e+003, 6.704275e+002
1.173791e+003, 6.715056e+002
1.174273e+003, 6.719435e+002
1.174756e+003, 6.715300e+002
1.175238e+003, 6.708771e+002
1.175720e+003, 6.702503e+002
1.176202e+003, 6.697618e+002
1.176684e+003, 6.694485e+002
1.177166e+003, 6.694380e+002
1.177648e+003, 6.702190e+002
1.178130e+003, 6.711660e+002
1.178613e+003, 6.713356e+002
1.179095e+003, 6.709464e+002
1.179577e+003, 6.701005e+002
1.180059e+003, 6.692383e+002
1.180541e+003, 6.701702e+002
1.181023e+003, 6.741797e+002
1.181505e+003, 6.768167e+002
1.181987e+003, 6.740682e+002
1.182469e+003, 6.706104e+002
1.182952e+003, 6.690990e+002
1.183434e+003, 6.687927e+002
1.183916e+003, 6.694830e+002
1.184398e+003, 6.704943e+002
1.184880e+003, 6.706511e+002
1.185362e+003, 6.698085e+002
1.185844e+003, 6.690439e+002
1.186326e+003, 6.684092e+002
1.186808e+003, 6.681741e+002
1.187291e+003, 6.687892e+002
1.187773e+003, 6.693162e+002
1.188255e+003, 6.692587e+002
1.188737e+003, 6.690017e+002
1.189219e+003, 6.690588e+002
1.189701e+003, 6.691824e+002
1.190183e+003, 6.684495e+002
1.190665e+003, 6.664175e+002
1.191148e+003, 6.659651e+002
1.191630e+003, 6.679362e+002
1.192112e+003, 6.690406e+002
1.192594e+003, 6.683859e+002
1.193076e+003, 6.678708e+002
1.193558e+003, 6.685593e+002
1.194040e+003, 6.696581e+002
1.194522e+003, 6.702503e+002
1.195005e+003, 6.702908e+002
1.195487e+003, 6.693351e+002
1.195969e+003, 6.674501e+002
1.196451e+003, 6.663204e+002
1.196933e+003, 6.660215e+002
1.197415e+003, 6.662895e+002
1.197897e+003, 6.670177e+002
1.198379e+003, 6.674487e+002
1.198861e+003, 6.670366e+002
1.199344e+003, 6.669166e+002
1.199826e+003, 6.694094e+002
1.200308e+003, 6.727635e+002
1.200790e+003, 6.729843e+002
1.201272e+003, 6.714010e+002
1.201754e+003, 6.710515e+002
1.202236e+003, 6.717255e+002
1.202718e+003, 6.713500e+002
1.203200e+003, 6.695752e+002
1.203683e+003, 6.686853e+002
1.204165e+003, 6.705588e+002
1.204647e+003, 6.722772e+002
1.205129e+003, 6.715304e+002
1.205611e+003, 6.698214e+002
1.206093e+003, 6.678505e+002
1.206575e+003, 6.661094e+002
1.207057e+003, 6.651107e+002
1.207540e+003, 6.647858e+002
1.208022e+003, 6.649229e+002
1.208504e+003, 6.655446e+002
1.208986e+003, 6.657742e+002
1.209468e+003, 6.652636e+002
1.209950e+003, 6.645476e+002
1.210432e+003, 6.634269e+002
1.210914e+003, 6.624945e+002
1.211396e+003, 6.622119e+002
1.211879e+003, 6.621189e+002
1.212361e+003, 6.616894e+002
1.212843e+003, 6.610573e+002
1.213325e+003, 6.607936e+002
1.213807e+003, 6.610104e+002
1.214289e+003, 6.610599e+002
1.214771e+003, 6.608997e+002
1.215253e+003, 6.607156e+002
1.215735e+003, 6.604944e+002
1.216218e+003, 6.605868e+002
1.216700e+003, 6.612785e+002
1.217182e+003, 6.618375e+002
1.217664e+003, 6.611905e+002
1.218146e+003, 6.599424e+002
1.218628e+003, 6.602083e+002
1.219110e+003, 6.616260e+002
1.219592e+003, 6.623877e+002
1.220075e+003, 6.624579e+002
1.220557e+003, 6.622513e+002
1.221039e+003, 6.618948e+002
1.221521e+003, 6.613819e+002
1.222003e+003, 6.606946e+002
1.222485e+003, 6.602016e+002
1.222967e+003, 6.605556e+002
1.223449e+003, 6.610205e+002
1.223932e+003, 6.607962e+002
1.224414e+003, 6.601307e+002
1.224896e+003, 6.589572e+002
1.225378e+003, 6.577753e+002
1.225860e+003, 6.577015e+002
1.226342e+003, 6.586844e+002
1.226824e+003, 6.591652e+002
1.227306e+003, 6.583254e+002
1.227788e+003, 6.577585e+002
1.228271e+003, 6.583215e+002
1.228753e+003, 6.588458e+002
1.229235e+003, 6.587497e+002
1.229717e+003, 6.584963e+002
1.230199e+003, 6.583380e+002
1.230681e+003, 6.583394e+002
1.231163e+003, 6.586568e+002
1.231645e+003, 6.592762e+002
1.232127e+003, 6.596412e+002
1.232610e+003, 6.596248e+002
1.233092e+003, 6.597449e+002
1.233574e+003, 6.600686e+002
1.234056e+003, 6.604352e+002
1.234538e+003, 6.608846e+002
1.235020e+003, 6.609398e+002
1.235502e+003, 6.601980e+002
1.235984e+003, 6.590867e+002
1.236467e+003, 6.583234e+002
1.236949e+003, 6.578495e+002
1.237431e+003, 6.571702e+002
1.237913e+003, 6.565498e+002
1.238395e+003, 6.574390e+002
1.238877e+003, 6.596573e+002
1.239359e+003, 6.619443e+002
1.239841e+003, 6.637775e+002
1.240323e+003, 6.646331e+002
1.240806e+003, 6.640765e+002
1.241288e+003, 6.628958e+002
1.241770e+003, 6.614716e+002
1.242252e+003, 6.601716e+002
1.242734e+003, 6.592160e+002
1.243216e+003, 6.587004e+002
1.243698e+003, 6.585360e+002
1.244180e+003, 6.589619e+002
1.244662e+003, 6.609102e+002
1.245145e+003, 6.643242e+002
1.245627e+003, 6.665187e+002
1.246109e+003, 6.665977e+002
1.246591e+003, 6.657938e+002
1.247073e+003, 6.637758e+002
1.247555e+003, 6.616312e+002
1.248037e+003, 6.596017e+002
1.248519e+003, 6.577269e+002
1.249002e+003, 6.558138e+002
1.249484e+003, 6.542959e+002
1.249966e+003, 6.540999e+002
1.250448e+003, 6.551216e+002
1.250930e+003, 6.554876e+002
1.251412e+003, 6.551230e+002
1.251894e+003, 6.549464e+002
1.252376e+003, 6.550385e+002
1.252859e+003, 6.547314e+002
1.253341e+003, 6.538309e+002
1.253823e+003, 6.536373e+002
1.254305e+003, 6.551160e+002
1.254787e+003, 6.569627e+002
1.255269e+003, 6.573228e+002
1.255751e+003, 6.568577e+002
1.256233e+003, 6.566350e+002
1.256715e+003, 6.566031e+002
1.257198e+003, 6.567252e+002
1.257680e+003, 6.569319e+002
1.258162e+003, 6.572272e+002
1.258644e+003, 6.575041e+002
1.259126e+003, 6.572086e+002
1.259608e+003, 6.559162e+002
1.260090e+003, 6.547893e+002
1.260572e+003, 6.543303e+002
1.261054e+003, 6.542184e+002
1.261537e+003, 6.544362e+002
1.262019e+003, 6.548170e+002
1.262501e+003, 6.553464e+002
1.262983e+003, 6.558995e+002
1.263465e+003, 6.561605e+002
1.263947e+003, 6.562279e+002
1.264429e+003, 6.568691e+002
1.264911e+003, 6.580163e+002
1.265394e+003, 6.603209e+002
1.265876e+003, 6.645763e+002
1.266358e+003, 6.661104e+002
1.266840e+003, 6.635460e+002
1.267322e+003, 6.604160e+002
1.267804e+003, 6.585994e+002
1.268286e+003, 6.576188e+002
1.268768e+003, 6.569871e+002
1.269250e+003, 6.566121e+002
1.269733e+003, 6.561536e+002
1.270215e+003, 6.558450e+002
1.270697e+003, 6.559450e+002
1.271179e+003, 6.568065e+002
1.271661e+003, 6.605120e+002
1.272143e+003, 6.659281e+002
1.272625e+003, 6.675743e+002
1.273107e+003, 6.634075e+002
1.273589e+003, 6.587127e+002
1.274072e+003, 6.560651e+002
1.274554e+003, 6.545070e+002
1.275036e+003, 6.539749e+002
1.275518e+003, 6.539069e+002
1.276000e+003, 6.542680e+002
1.276482e+003, 6.546126e+002
1.276964e+003, 6.538983e+002
1.277446e+003, 6.529750e+002
1.277929e+003, 6.546331e+002
1.278411e+003, 6.594073e+002
1.278893e+003, 6.611032e+002
1.279375e+003, 6.587608e+002
1.279857e+003, 6.569600e+002
1.280339e+003, 6.562532e+002
1.280821e+003, 6.555390e+002
1.281303e+003, 6.544112e+002
1.281786e+003, 6.538648e+002
1.282268e+003, 6.545622e+002
##END=



