##NAMES=Montgomeryite
##RRUFFID=R140664
##IDEAL CHEMISTRY=Ca_4_MgAl_4_(PO_4_)_6_(OH)_4_&#183;12H_2_O
##LOCALITY=Foote Mineral Company mine, Kings Mountain, North Carolina, USA
##OWNER=RRUFF
##SOURCE=Rock Currier
##DESCRIPTION=Radial aggregates of colorless, bladed to platy crystals
##STATUS=The identification of this mineral has been confirmed only by single crystal X-ray diffraction.
##URL=rruff.info/R140664
8.813672e+001, 3.204660e+002
8.861884e+001, 3.264176e+002
8.910095e+001, 3.311849e+002
8.958307e+001, 3.346674e+002
9.006519e+001, 3.383096e+002
9.054730e+001, 3.433933e+002
9.102942e+001, 3.512731e+002
9.151154e+001, 3.588497e+002
9.199365e+001, 3.621187e+002
9.247577e+001, 3.618105e+002
9.295789e+001, 3.612557e+002
9.344000e+001, 3.631112e+002
9.392212e+001, 3.662787e+002
9.440424e+001, 3.684779e+002
9.488635e+001, 3.696751e+002
9.536847e+001, 3.702744e+002
9.585059e+001, 3.706880e+002
9.633270e+001, 3.708375e+002
9.681482e+001, 3.713294e+002
9.729694e+001, 3.725998e+002
9.777905e+001, 3.746337e+002
9.826117e+001, 3.775612e+002
9.874329e+001, 3.817113e+002
9.922540e+001, 3.868254e+002
9.970752e+001, 3.912668e+002
1.001896e+002, 3.949327e+002
1.006718e+002, 3.979852e+002
1.011539e+002, 4.004000e+002
1.016360e+002, 4.019140e+002
1.021181e+002, 4.038338e+002
1.026002e+002, 4.066328e+002
1.030823e+002, 4.104474e+002
1.035645e+002, 4.141963e+002
1.040466e+002, 4.176335e+002
1.045287e+002, 4.212061e+002
1.050108e+002, 4.259023e+002
1.054929e+002, 4.322280e+002
1.059750e+002, 4.389364e+002
1.064572e+002, 4.457216e+002
1.069393e+002, 4.538924e+002
1.074214e+002, 4.598663e+002
1.079035e+002, 4.629459e+002
1.083856e+002, 4.638340e+002
1.088677e+002, 4.648030e+002
1.093499e+002, 4.657451e+002
1.098320e+002, 4.669008e+002
1.103141e+002, 4.683740e+002
1.107962e+002, 4.697795e+002
1.112783e+002, 4.719804e+002
1.117604e+002, 4.754264e+002
1.122426e+002, 4.799603e+002
1.127247e+002, 4.842588e+002
1.132068e+002, 4.876817e+002
1.136889e+002, 4.910468e+002
1.141710e+002, 4.948813e+002
1.146531e+002, 5.006746e+002
1.151353e+002, 5.056270e+002
1.156174e+002, 5.083315e+002
1.160995e+002, 5.087730e+002
1.165816e+002, 5.100336e+002
1.170637e+002, 5.146099e+002
1.175458e+002, 5.201532e+002
1.180280e+002, 5.241677e+002
1.185101e+002, 5.237380e+002
1.189922e+002, 5.228328e+002
1.194743e+002, 5.239034e+002
1.199564e+002, 5.272643e+002
1.204385e+002, 5.311025e+002
1.209207e+002, 5.339368e+002
1.214028e+002, 5.364865e+002
1.218849e+002, 5.400110e+002
1.223670e+002, 5.464668e+002
1.228491e+002, 5.536589e+002
1.233312e+002, 5.592798e+002
1.238134e+002, 5.629851e+002
1.242955e+002, 5.655280e+002
1.247776e+002, 5.670901e+002
1.252597e+002, 5.679139e+002
1.257418e+002, 5.688192e+002
1.262239e+002, 5.698702e+002
1.267061e+002, 5.714196e+002
1.271882e+002, 5.741608e+002
1.276703e+002, 5.784355e+002
1.281524e+002, 5.835590e+002
1.286345e+002, 5.888097e+002
1.291166e+002, 5.941579e+002
1.295988e+002, 5.993403e+002
1.300809e+002, 6.040974e+002
1.305630e+002, 6.084905e+002
1.310451e+002, 6.128234e+002
1.315272e+002, 6.171171e+002
1.320093e+002, 6.213282e+002
1.324915e+002, 6.254257e+002
1.329736e+002, 6.293906e+002
1.334557e+002, 6.332521e+002
1.339378e+002, 6.366263e+002
1.344199e+002, 6.395381e+002
1.349020e+002, 6.434436e+002
1.353842e+002, 6.490128e+002
1.358663e+002, 6.558068e+002
1.363484e+002, 6.621370e+002
1.368305e+002, 6.678985e+002
1.373126e+002, 6.733972e+002
1.377947e+002, 6.789485e+002
1.382769e+002, 6.846489e+002
1.387590e+002, 6.900002e+002
1.392411e+002, 6.950208e+002
1.397232e+002, 6.997709e+002
1.402053e+002, 7.028153e+002
1.406874e+002, 7.036630e+002
1.411696e+002, 7.035378e+002
1.416517e+002, 7.040710e+002
1.421338e+002, 7.055822e+002
1.426159e+002, 7.071381e+002
1.430980e+002, 7.086000e+002
1.435801e+002, 7.100833e+002
1.440623e+002, 7.109342e+002
1.445444e+002, 7.106998e+002
1.450265e+002, 7.101414e+002
1.455086e+002, 7.105582e+002
1.459907e+002, 7.124757e+002
1.464728e+002, 7.147276e+002
1.469550e+002, 7.170620e+002
1.474371e+002, 7.197640e+002
1.479192e+002, 7.218639e+002
1.484013e+002, 7.227850e+002
1.488834e+002, 7.231599e+002
1.493655e+002, 7.244054e+002
1.498477e+002, 7.271340e+002
1.503298e+002, 7.301957e+002
1.508119e+002, 7.332049e+002
1.512940e+002, 7.366813e+002
1.517761e+002, 7.393399e+002
1.522583e+002, 7.407072e+002
1.527404e+002, 7.411404e+002
1.532225e+002, 7.416549e+002
1.537046e+002, 7.425999e+002
1.541867e+002, 7.434402e+002
1.546688e+002, 7.439659e+002
1.551510e+002, 7.451166e+002
1.556331e+002, 7.447806e+002
1.561152e+002, 7.418783e+002
1.565973e+002, 7.370024e+002
1.570794e+002, 7.325294e+002
1.575615e+002, 7.294187e+002
1.580437e+002, 7.265588e+002
1.585258e+002, 7.232559e+002
1.590079e+002, 7.192859e+002
1.594900e+002, 7.149409e+002
1.599721e+002, 7.098252e+002
1.604542e+002, 7.041707e+002
1.609364e+002, 6.993199e+002
1.614185e+002, 6.962087e+002
1.619006e+002, 6.938818e+002
1.623827e+002, 6.915703e+002
1.628648e+002, 6.891992e+002
1.633469e+002, 6.866603e+002
1.638291e+002, 6.838951e+002
1.643112e+002, 6.809284e+002
1.647933e+002, 6.777709e+002
1.652754e+002, 6.739405e+002
1.657575e+002, 6.700928e+002
1.662396e+002, 6.669166e+002
1.667218e+002, 6.653714e+002
1.672039e+002, 6.640371e+002
1.676860e+002, 6.618307e+002
1.681681e+002, 6.587926e+002
1.686502e+002, 6.559669e+002
1.691323e+002, 6.535778e+002
1.696145e+002, 6.519205e+002
1.700966e+002, 6.514206e+002
1.705787e+002, 6.538426e+002
1.710608e+002, 6.565387e+002
1.715429e+002, 6.567455e+002
1.720250e+002, 6.543014e+002
1.725072e+002, 6.519198e+002
1.729893e+002, 6.512802e+002
1.734714e+002, 6.521584e+002
1.739535e+002, 6.541393e+002
1.744356e+002, 6.588837e+002
1.749177e+002, 6.638121e+002
1.753999e+002, 6.656440e+002
1.758820e+002, 6.640814e+002
1.763641e+002, 6.612316e+002
1.768462e+002, 6.582667e+002
1.773283e+002, 6.554133e+002
1.778104e+002, 6.532576e+002
1.782926e+002, 6.521749e+002
1.787747e+002, 6.519433e+002
1.792568e+002, 6.525206e+002
1.797389e+002, 6.540346e+002
1.802210e+002, 6.554371e+002
1.807031e+002, 6.552521e+002
1.811853e+002, 6.538416e+002
1.816674e+002, 6.525212e+002
1.821495e+002, 6.518260e+002
1.826316e+002, 6.517141e+002
1.831137e+002, 6.523189e+002
1.835958e+002, 6.538230e+002
1.840780e+002, 6.553730e+002
1.845601e+002, 6.557024e+002
1.850422e+002, 6.549798e+002
1.855243e+002, 6.543065e+002
1.860064e+002, 6.544034e+002
1.864885e+002, 6.550599e+002
1.869707e+002, 6.554589e+002
1.874528e+002, 6.555033e+002
1.879349e+002, 6.554598e+002
1.884170e+002, 6.556791e+002
1.888991e+002, 6.561596e+002
1.893812e+002, 6.568674e+002
1.898634e+002, 6.579178e+002
1.903455e+002, 6.592328e+002
1.908276e+002, 6.604043e+002
1.913097e+002, 6.614467e+002
1.917918e+002, 6.622508e+002
1.922739e+002, 6.624937e+002
1.927561e+002, 6.621458e+002
1.932382e+002, 6.618408e+002
1.937203e+002, 6.619212e+002
1.942024e+002, 6.623625e+002
1.946845e+002, 6.630639e+002
1.951666e+002, 6.642419e+002
1.956488e+002, 6.653077e+002
1.961309e+002, 6.648638e+002
1.966130e+002, 6.627297e+002
1.970951e+002, 6.605130e+002
1.975772e+002, 6.591964e+002
1.980593e+002, 6.587959e+002
1.985415e+002, 6.581657e+002
1.990236e+002, 6.572253e+002
1.995057e+002, 6.560280e+002
1.999878e+002, 6.546952e+002
2.004699e+002, 6.532219e+002
2.009520e+002, 6.516368e+002
2.014342e+002, 6.498950e+002
2.019163e+002, 6.479560e+002
2.023984e+002, 6.462814e+002
2.028805e+002, 6.449826e+002
2.033626e+002, 6.438906e+002
2.038447e+002, 6.425578e+002
2.043269e+002, 6.409182e+002
2.048090e+002, 6.392611e+002
2.052911e+002, 6.378229e+002
2.057732e+002, 6.366601e+002
2.062553e+002, 6.351953e+002
2.067374e+002, 6.331450e+002
2.072196e+002, 6.309346e+002
2.077017e+002, 6.297405e+002
2.081838e+002, 6.296882e+002
2.086659e+002, 6.303151e+002
2.091480e+002, 6.315103e+002
2.096301e+002, 6.334622e+002
2.101123e+002, 6.353090e+002
2.105944e+002, 6.374041e+002
2.110765e+002, 6.391820e+002
2.115586e+002, 6.386875e+002
2.120407e+002, 6.350178e+002
2.125228e+002, 6.311086e+002
2.130050e+002, 6.285803e+002
2.134871e+002, 6.276702e+002
2.139692e+002, 6.273279e+002
2.144513e+002, 6.277339e+002
2.149334e+002, 6.285803e+002
2.154155e+002, 6.289476e+002
2.158977e+002, 6.286967e+002
2.163798e+002, 6.282181e+002
2.168619e+002, 6.275997e+002
2.173440e+002, 6.265880e+002
2.178261e+002, 6.262607e+002
2.183082e+002, 6.269388e+002
2.187904e+002, 6.282424e+002
2.192725e+002, 6.289480e+002
2.197546e+002, 6.286710e+002
2.202367e+002, 6.284693e+002
2.207188e+002, 6.290095e+002
2.212009e+002, 6.308369e+002
2.216831e+002, 6.319496e+002
2.221652e+002, 6.321312e+002
2.226473e+002, 6.316241e+002
2.231294e+002, 6.310422e+002
2.236115e+002, 6.301575e+002
2.240936e+002, 6.295956e+002
2.245758e+002, 6.297501e+002
2.250579e+002, 6.310666e+002
2.255400e+002, 6.320286e+002
2.260221e+002, 6.325771e+002
2.265042e+002, 6.327734e+002
2.269863e+002, 6.326750e+002
2.274685e+002, 6.318891e+002
2.279506e+002, 6.314188e+002
2.284327e+002, 6.318379e+002
2.289148e+002, 6.338505e+002
2.293969e+002, 6.350605e+002
2.298790e+002, 6.350240e+002
2.303612e+002, 6.342916e+002
2.308433e+002, 6.343136e+002
2.313254e+002, 6.355330e+002
2.318075e+002, 6.368185e+002
2.322896e+002, 6.376533e+002
2.327717e+002, 6.377596e+002
2.332539e+002, 6.380842e+002
2.337360e+002, 6.387469e+002
2.342181e+002, 6.395674e+002
2.347002e+002, 6.401164e+002
2.351823e+002, 6.401700e+002
2.356644e+002, 6.402664e+002
2.361466e+002, 6.406477e+002
2.366287e+002, 6.414833e+002
2.371108e+002, 6.421357e+002
2.375929e+002, 6.426215e+002
2.380750e+002, 6.429071e+002
2.385571e+002, 6.428786e+002
2.390393e+002, 6.423191e+002
2.395214e+002, 6.418000e+002
2.400035e+002, 6.415715e+002
2.404856e+002, 6.418063e+002
2.409677e+002, 6.418513e+002
2.414498e+002, 6.418082e+002
2.419320e+002, 6.415449e+002
2.424141e+002, 6.407036e+002
2.428962e+002, 6.386590e+002
2.433783e+002, 6.370901e+002
2.438604e+002, 6.367258e+002
2.443425e+002, 6.380627e+002
2.448247e+002, 6.387978e+002
2.453068e+002, 6.387520e+002
2.457889e+002, 6.382252e+002
2.462710e+002, 6.375813e+002
2.467531e+002, 6.363772e+002
2.472352e+002, 6.358246e+002
2.477174e+002, 6.365470e+002
2.481995e+002, 6.389738e+002
2.486816e+002, 6.403889e+002
2.491637e+002, 6.403372e+002
2.496458e+002, 6.396032e+002
2.501279e+002, 6.393359e+002
2.506101e+002, 6.399009e+002
2.510922e+002, 6.402104e+002
2.515743e+002, 6.398006e+002
2.520564e+002, 6.384812e+002
2.525385e+002, 6.379136e+002
2.530206e+002, 6.384086e+002
2.535028e+002, 6.393734e+002
2.539849e+002, 6.401194e+002
2.544670e+002, 6.407064e+002
2.549491e+002, 6.409665e+002
2.554312e+002, 6.407193e+002
2.559133e+002, 6.399170e+002
2.563955e+002, 6.396155e+002
2.568776e+002, 6.401323e+002
2.573597e+002, 6.407943e+002
2.578418e+002, 6.408317e+002
2.583239e+002, 6.399133e+002
2.588061e+002, 6.391365e+002
2.592882e+002, 6.386879e+002
2.597703e+002, 6.385648e+002
2.602524e+002, 6.387269e+002
2.607345e+002, 6.393075e+002
2.612166e+002, 6.399877e+002
2.616988e+002, 6.404885e+002
2.621809e+002, 6.407452e+002
2.626630e+002, 6.409866e+002
2.631451e+002, 6.412464e+002
2.636272e+002, 6.415268e+002
2.641093e+002, 6.417682e+002
2.645915e+002, 6.418693e+002
2.650736e+002, 6.421257e+002
2.655557e+002, 6.429229e+002
2.660378e+002, 6.445524e+002
2.665199e+002, 6.456168e+002
2.670020e+002, 6.457145e+002
2.674842e+002, 6.450953e+002
2.679663e+002, 6.450450e+002
2.684484e+002, 6.457136e+002
2.689305e+002, 6.465938e+002
2.694126e+002, 6.473239e+002
2.698947e+002, 6.478549e+002
2.703769e+002, 6.484749e+002
2.708590e+002, 6.492279e+002
2.713411e+002, 6.500811e+002
2.718232e+002, 6.509489e+002
2.723053e+002, 6.518790e+002
2.727874e+002, 6.526671e+002
2.732696e+002, 6.530909e+002
2.737517e+002, 6.530422e+002
2.742338e+002, 6.533491e+002
2.747159e+002, 6.541198e+002
2.751980e+002, 6.552195e+002
2.756801e+002, 6.564922e+002
2.761623e+002, 6.580947e+002
2.766444e+002, 6.591921e+002
2.771265e+002, 6.588740e+002
2.776086e+002, 6.569288e+002
2.780907e+002, 6.568013e+002
2.785728e+002, 6.591036e+002
2.790550e+002, 6.624018e+002
2.795371e+002, 6.640703e+002
2.800192e+002, 6.639262e+002
2.805013e+002, 6.636407e+002
2.809834e+002, 6.639508e+002
2.814655e+002, 6.648376e+002
2.819477e+002, 6.656605e+002
2.824298e+002, 6.663842e+002
2.829119e+002, 6.670911e+002
2.833940e+002, 6.677979e+002
2.838761e+002, 6.684890e+002
2.843582e+002, 6.695156e+002
2.848404e+002, 6.713209e+002
2.853225e+002, 6.736535e+002
2.858046e+002, 6.748391e+002
2.862867e+002, 6.746840e+002
2.867688e+002, 6.742222e+002
2.872509e+002, 6.745847e+002
2.877331e+002, 6.757315e+002
2.882152e+002, 6.771291e+002
2.886973e+002, 6.788306e+002
2.891794e+002, 6.806221e+002
2.896615e+002, 6.816908e+002
2.901436e+002, 6.820169e+002
2.906258e+002, 6.820869e+002
2.911079e+002, 6.824814e+002
2.915900e+002, 6.830872e+002
2.920721e+002, 6.831910e+002
2.925542e+002, 6.824055e+002
2.930363e+002, 6.812234e+002
2.935185e+002, 6.806661e+002
2.940006e+002, 6.807289e+002
2.944827e+002, 6.809953e+002
2.949648e+002, 6.812100e+002
2.954469e+002, 6.813762e+002
2.959290e+002, 6.815385e+002
2.964112e+002, 6.817808e+002
2.968933e+002, 6.818780e+002
2.973754e+002, 6.814426e+002
2.978575e+002, 6.805167e+002
2.983396e+002, 6.793661e+002
2.988217e+002, 6.780345e+002
2.993039e+002, 6.766123e+002
2.997860e+002, 6.753307e+002
3.002681e+002, 6.742327e+002
3.007502e+002, 6.731866e+002
3.012323e+002, 6.719562e+002
3.017144e+002, 6.706175e+002
3.021966e+002, 6.695095e+002
3.026787e+002, 6.691691e+002
3.031608e+002, 6.690077e+002
3.036429e+002, 6.680362e+002
3.041250e+002, 6.660740e+002
3.046071e+002, 6.641411e+002
3.050893e+002, 6.631544e+002
3.055714e+002, 6.628889e+002
3.060535e+002, 6.629054e+002
3.065356e+002, 6.631148e+002
3.070177e+002, 6.634437e+002
3.074998e+002, 6.638815e+002
3.079820e+002, 6.644324e+002
3.084641e+002, 6.648986e+002
3.089462e+002, 6.652712e+002
3.094283e+002, 6.654525e+002
3.099104e+002, 6.652994e+002
3.103925e+002, 6.643800e+002
3.108747e+002, 6.634255e+002
3.113568e+002, 6.629261e+002
3.118389e+002, 6.628569e+002
3.123210e+002, 6.630007e+002
3.128031e+002, 6.633549e+002
3.132852e+002, 6.638183e+002
3.137674e+002, 6.642839e+002
3.142495e+002, 6.645843e+002
3.147316e+002, 6.650531e+002
3.152137e+002, 6.662252e+002
3.156958e+002, 6.677846e+002
3.161779e+002, 6.686748e+002
3.166601e+002, 6.675090e+002
3.171422e+002, 6.661227e+002
3.176243e+002, 6.658429e+002
3.181064e+002, 6.675587e+002
3.185885e+002, 6.689910e+002
3.190706e+002, 6.692821e+002
3.195528e+002, 6.687660e+002
3.200349e+002, 6.680936e+002
3.205170e+002, 6.669257e+002
3.209991e+002, 6.660662e+002
3.214812e+002, 6.660063e+002
3.219633e+002, 6.670740e+002
3.224455e+002, 6.678664e+002
3.229276e+002, 6.679245e+002
3.234097e+002, 6.676235e+002
3.238918e+002, 6.674254e+002
3.243739e+002, 6.675949e+002
3.248560e+002, 6.676936e+002
3.253382e+002, 6.675303e+002
3.258203e+002, 6.670521e+002
3.263024e+002, 6.668405e+002
3.267845e+002, 6.671041e+002
3.272666e+002, 6.675652e+002
3.277487e+002, 6.680064e+002
3.282309e+002, 6.685203e+002
3.287130e+002, 6.688936e+002
3.291951e+002, 6.688229e+002
3.296772e+002, 6.684221e+002
3.301593e+002, 6.689042e+002
3.306414e+002, 6.713910e+002
3.311236e+002, 6.736796e+002
3.316057e+002, 6.744757e+002
3.320878e+002, 6.723747e+002
3.325699e+002, 6.712910e+002
3.330520e+002, 6.716183e+002
3.335341e+002, 6.729792e+002
3.340163e+002, 6.744815e+002
3.344984e+002, 6.765834e+002
3.349805e+002, 6.780156e+002
3.354626e+002, 6.779562e+002
3.359447e+002, 6.756601e+002
3.364268e+002, 6.749860e+002
3.369090e+002, 6.768344e+002
3.373911e+002, 6.793868e+002
3.378732e+002, 6.794388e+002
3.383553e+002, 6.761917e+002
3.388374e+002, 6.732559e+002
3.393195e+002, 6.717448e+002
3.398017e+002, 6.716359e+002
3.402838e+002, 6.719159e+002
3.407659e+002, 6.726935e+002
3.412480e+002, 6.736066e+002
3.417301e+002, 6.743668e+002
3.422122e+002, 6.749806e+002
3.426944e+002, 6.752099e+002
3.431765e+002, 6.747660e+002
3.436586e+002, 6.740037e+002
3.441407e+002, 6.743787e+002
3.446228e+002, 6.759915e+002
3.451049e+002, 6.775048e+002
3.455871e+002, 6.777091e+002
3.460692e+002, 6.767963e+002
3.465513e+002, 6.761155e+002
3.470334e+002, 6.759124e+002
3.475155e+002, 6.758629e+002
3.479977e+002, 6.752902e+002
3.484798e+002, 6.742731e+002
3.489619e+002, 6.735176e+002
3.494440e+002, 6.736286e+002
3.499261e+002, 6.742722e+002
3.504082e+002, 6.747344e+002
3.508904e+002, 6.749783e+002
3.513725e+002, 6.750067e+002
3.518546e+002, 6.746627e+002
3.523367e+002, 6.740887e+002
3.528188e+002, 6.736550e+002
3.533009e+002, 6.735961e+002
3.537831e+002, 6.737217e+002
3.542652e+002, 6.737595e+002
3.547473e+002, 6.737198e+002
3.552294e+002, 6.738512e+002
3.557115e+002, 6.748928e+002
3.561936e+002, 6.760467e+002
3.566758e+002, 6.761967e+002
3.571579e+002, 6.743496e+002
3.576400e+002, 6.722649e+002
3.581221e+002, 6.709391e+002
3.586042e+002, 6.703712e+002
3.590863e+002, 6.705012e+002
3.595685e+002, 6.721973e+002
3.600506e+002, 6.740367e+002
3.605327e+002, 6.748570e+002
3.610148e+002, 6.740839e+002
3.614969e+002, 6.733190e+002
3.619790e+002, 6.732598e+002
3.624612e+002, 6.736394e+002
3.629433e+002, 6.740011e+002
3.634254e+002, 6.738876e+002
3.639075e+002, 6.740027e+002
3.643896e+002, 6.748008e+002
3.648717e+002, 6.764380e+002
3.653539e+002, 6.776971e+002
3.658360e+002, 6.782192e+002
3.663181e+002, 6.782977e+002
3.668002e+002, 6.782179e+002
3.672823e+002, 6.774357e+002
3.677644e+002, 6.771166e+002
3.682466e+002, 6.776757e+002
3.687287e+002, 6.790207e+002
3.692108e+002, 6.800273e+002
3.696929e+002, 6.805872e+002
3.701750e+002, 6.809164e+002
3.706571e+002, 6.811198e+002
3.711393e+002, 6.812010e+002
3.716214e+002, 6.811271e+002
3.721035e+002, 6.805859e+002
3.725856e+002, 6.799995e+002
3.730677e+002, 6.804026e+002
3.735498e+002, 6.822816e+002
3.740320e+002, 6.842476e+002
3.745141e+002, 6.858587e+002
3.749962e+002, 6.871166e+002
3.754783e+002, 6.879090e+002
3.759604e+002, 6.880100e+002
3.764425e+002, 6.880037e+002
3.769247e+002, 6.886791e+002
3.774068e+002, 6.901599e+002
3.778889e+002, 6.915135e+002
3.783710e+002, 6.924891e+002
3.788531e+002, 6.931497e+002
3.793352e+002, 6.937204e+002
3.798174e+002, 6.941691e+002
3.802995e+002, 6.947076e+002
3.807816e+002, 6.955693e+002
3.812637e+002, 6.967149e+002
3.817458e+002, 6.976909e+002
3.822279e+002, 6.983598e+002
3.827101e+002, 6.990263e+002
3.831922e+002, 7.002635e+002
3.836743e+002, 7.020191e+002
3.841564e+002, 7.038386e+002
3.846385e+002, 7.056882e+002
3.851206e+002, 7.074066e+002
3.856028e+002, 7.085395e+002
3.860849e+002, 7.090190e+002
3.865670e+002, 7.095017e+002
3.870491e+002, 7.106807e+002
3.875312e+002, 7.123071e+002
3.880133e+002, 7.139000e+002
3.884955e+002, 7.153578e+002
3.889776e+002, 7.166403e+002
3.894597e+002, 7.176545e+002
3.899418e+002, 7.184207e+002
3.904239e+002, 7.190706e+002
3.909060e+002, 7.197487e+002
3.913882e+002, 7.203121e+002
3.918703e+002, 7.206550e+002
3.923524e+002, 7.208275e+002
3.928345e+002, 7.206292e+002
3.933166e+002, 7.196044e+002
3.937987e+002, 7.181529e+002
3.942809e+002, 7.170933e+002
3.947630e+002, 7.171700e+002
3.952451e+002, 7.172747e+002
3.957272e+002, 7.168975e+002
3.962093e+002, 7.159266e+002
3.966914e+002, 7.149169e+002
3.971736e+002, 7.139885e+002
3.976557e+002, 7.130559e+002
3.981378e+002, 7.120353e+002
3.986199e+002, 7.113284e+002
3.991020e+002, 7.100602e+002
3.995841e+002, 7.076147e+002
4.000663e+002, 7.042800e+002
4.005484e+002, 7.020328e+002
4.010305e+002, 7.015732e+002
4.015126e+002, 7.014490e+002
4.019947e+002, 7.009823e+002
4.024768e+002, 7.000891e+002
4.029590e+002, 6.990626e+002
4.034411e+002, 6.977757e+002
4.039232e+002, 6.964693e+002
4.044053e+002, 6.956334e+002
4.048874e+002, 6.954650e+002
4.053695e+002, 6.951951e+002
4.058517e+002, 6.944872e+002
4.063338e+002, 6.934032e+002
4.068159e+002, 6.927599e+002
4.072980e+002, 6.926584e+002
4.077801e+002, 6.926602e+002
4.082622e+002, 6.921827e+002
4.087444e+002, 6.912620e+002
4.092265e+002, 6.909114e+002
4.097086e+002, 6.914698e+002
4.101907e+002, 6.924881e+002
4.106728e+002, 6.930312e+002
4.111549e+002, 6.931345e+002
4.116371e+002, 6.932494e+002
4.121192e+002, 6.937723e+002
4.126013e+002, 6.944770e+002
4.130834e+002, 6.948074e+002
4.135655e+002, 6.946716e+002
4.140476e+002, 6.944857e+002
4.145298e+002, 6.947431e+002
4.150119e+002, 6.952390e+002
4.154940e+002, 6.955634e+002
4.159761e+002, 6.950751e+002
4.164582e+002, 6.947075e+002
4.169403e+002, 6.956481e+002
4.174225e+002, 6.976522e+002
4.179046e+002, 6.991862e+002
4.183867e+002, 6.989973e+002
4.188688e+002, 6.981553e+002
4.193509e+002, 6.975143e+002
4.198330e+002, 6.972427e+002
4.203152e+002, 6.971945e+002
4.207973e+002, 6.974025e+002
4.212794e+002, 6.977925e+002
4.217615e+002, 6.982260e+002
4.222436e+002, 6.985273e+002
4.227257e+002, 6.990079e+002
4.232079e+002, 7.000001e+002
4.236900e+002, 7.016586e+002
4.241721e+002, 7.026057e+002
4.246542e+002, 7.019843e+002
4.251363e+002, 7.010797e+002
4.256184e+002, 7.008025e+002
4.261006e+002, 7.012029e+002
4.265827e+002, 7.021751e+002
4.270648e+002, 7.039745e+002
4.275469e+002, 7.063201e+002
4.280290e+002, 7.082542e+002
4.285111e+002, 7.098555e+002
4.289933e+002, 7.108495e+002
4.294754e+002, 7.109016e+002
4.299575e+002, 7.098063e+002
4.304396e+002, 7.091807e+002
4.309217e+002, 7.090096e+002
4.314038e+002, 7.092995e+002
4.318860e+002, 7.101830e+002
4.323681e+002, 7.116816e+002
4.328502e+002, 7.132404e+002
4.333323e+002, 7.147932e+002
4.338144e+002, 7.162719e+002
4.342965e+002, 7.174441e+002
4.347787e+002, 7.183239e+002
4.352608e+002, 7.191191e+002
4.357429e+002, 7.197953e+002
4.362250e+002, 7.205223e+002
4.367071e+002, 7.218250e+002
4.371892e+002, 7.238873e+002
4.376714e+002, 7.260432e+002
4.381535e+002, 7.274943e+002
4.386356e+002, 7.284841e+002
4.391177e+002, 7.295283e+002
4.395998e+002, 7.306044e+002
4.400819e+002, 7.320003e+002
4.405641e+002, 7.340992e+002
4.410462e+002, 7.368353e+002
4.415283e+002, 7.396085e+002
4.420104e+002, 7.420592e+002
4.424925e+002, 7.443834e+002
4.429746e+002, 7.466970e+002
4.434568e+002, 7.490046e+002
4.439389e+002, 7.513492e+002
4.444210e+002, 7.537628e+002
4.449031e+002, 7.562146e+002
4.453852e+002, 7.586611e+002
4.458673e+002, 7.611186e+002
4.463495e+002, 7.635197e+002
4.468316e+002, 7.657595e+002
4.473137e+002, 7.677678e+002
4.477958e+002, 7.702451e+002
4.482779e+002, 7.735967e+002
4.487600e+002, 7.770697e+002
4.492422e+002, 7.801210e+002
4.497243e+002, 7.827350e+002
4.502064e+002, 7.849797e+002
4.506885e+002, 7.867997e+002
4.511706e+002, 7.883243e+002
4.516527e+002, 7.897865e+002
4.521349e+002, 7.910847e+002
4.526170e+002, 7.927093e+002
4.530991e+002, 7.951355e+002
4.535812e+002, 7.983217e+002
4.540633e+002, 8.003894e+002
4.545454e+002, 8.012284e+002
4.550276e+002, 8.015754e+002
4.555097e+002, 8.022605e+002
4.559918e+002, 8.031770e+002
4.564739e+002, 8.036954e+002
4.569560e+002, 8.036874e+002
4.574381e+002, 8.031857e+002
4.579203e+002, 8.020372e+002
4.584024e+002, 8.003687e+002
4.588845e+002, 7.987317e+002
4.593666e+002, 7.977994e+002
4.598488e+002, 7.969456e+002
4.603309e+002, 7.953479e+002
4.608130e+002, 7.929077e+002
4.612951e+002, 7.902444e+002
4.617772e+002, 7.876799e+002
4.622593e+002, 7.852179e+002
4.627415e+002, 7.829140e+002
4.632236e+002, 7.808554e+002
4.637057e+002, 7.788897e+002
4.641878e+002, 7.769581e+002
4.646699e+002, 7.750934e+002
4.651520e+002, 7.733583e+002
4.656342e+002, 7.717596e+002
4.661163e+002, 7.703555e+002
4.665984e+002, 7.692553e+002
4.670805e+002, 7.687487e+002
4.675626e+002, 7.677445e+002
4.680447e+002, 7.657714e+002
4.685269e+002, 7.635829e+002
4.690090e+002, 7.618842e+002
4.694911e+002, 7.606393e+002
4.699732e+002, 7.599813e+002
4.704553e+002, 7.599608e+002
4.709374e+002, 7.605234e+002
4.714196e+002, 7.616570e+002
4.719017e+002, 7.636590e+002
4.723838e+002, 7.652609e+002
4.728659e+002, 7.656097e+002
4.733480e+002, 7.646959e+002
4.738301e+002, 7.638069e+002
4.743123e+002, 7.628866e+002
4.747944e+002, 7.622441e+002
4.752765e+002, 7.625817e+002
4.757586e+002, 7.636569e+002
4.762407e+002, 7.641533e+002
4.767228e+002, 7.633442e+002
4.772050e+002, 7.621271e+002
4.776871e+002, 7.620583e+002
4.781692e+002, 7.629199e+002
4.786513e+002, 7.636404e+002
4.791334e+002, 7.632995e+002
4.796155e+002, 7.626155e+002
4.800977e+002, 7.624436e+002
4.805798e+002, 7.629671e+002
4.810619e+002, 7.634002e+002
4.815440e+002, 7.630316e+002
4.820261e+002, 7.624052e+002
4.825082e+002, 7.621466e+002
4.829904e+002, 7.628235e+002
4.834725e+002, 7.635001e+002
4.839546e+002, 7.640621e+002
4.844367e+002, 7.644374e+002
4.849188e+002, 7.643280e+002
4.854009e+002, 7.630280e+002
4.858831e+002, 7.618079e+002
4.863652e+002, 7.611843e+002
4.868473e+002, 7.613558e+002
4.873294e+002, 7.613332e+002
4.878115e+002, 7.607696e+002
4.882936e+002, 7.603096e+002
4.887758e+002, 7.607320e+002
4.892579e+002, 7.623978e+002
4.897400e+002, 7.637565e+002
4.902221e+002, 7.645067e+002
4.907042e+002, 7.648115e+002
4.911863e+002, 7.650292e+002
4.916685e+002, 7.651265e+002
4.921506e+002, 7.655033e+002
4.926327e+002, 7.664785e+002
4.931148e+002, 7.679619e+002
4.935969e+002, 7.695701e+002
4.940790e+002, 7.713670e+002
4.945612e+002, 7.728785e+002
4.950433e+002, 7.733573e+002
4.955254e+002, 7.732469e+002
4.960075e+002, 7.734911e+002
4.964896e+002, 7.743018e+002
4.969717e+002, 7.756622e+002
4.974539e+002, 7.778716e+002
4.979360e+002, 7.806472e+002
4.984181e+002, 7.831628e+002
4.989002e+002, 7.847996e+002
4.993823e+002, 7.862490e+002
4.998644e+002, 7.878121e+002
5.003466e+002, 7.894994e+002
5.008287e+002, 7.915995e+002
5.013108e+002, 7.946081e+002
5.017929e+002, 7.978024e+002
5.022750e+002, 8.006194e+002
5.027571e+002, 8.027452e+002
5.032393e+002, 8.048092e+002
5.037214e+002, 8.067341e+002
5.042035e+002, 8.086150e+002
5.046856e+002, 8.107142e+002
5.051677e+002, 8.131706e+002
5.056498e+002, 8.155885e+002
5.061320e+002, 8.179568e+002
5.066141e+002, 8.202822e+002
5.070962e+002, 8.220662e+002
5.075783e+002, 8.232968e+002
5.080604e+002, 8.240779e+002
5.085425e+002, 8.243564e+002
5.090247e+002, 8.241855e+002
5.095068e+002, 8.240514e+002
5.099889e+002, 8.239396e+002
5.104710e+002, 8.241247e+002
5.109531e+002, 8.254675e+002
5.114352e+002, 8.275607e+002
5.119174e+002, 8.289001e+002
5.123995e+002, 8.287076e+002
5.128816e+002, 8.275093e+002
5.133637e+002, 8.256268e+002
5.138458e+002, 8.231477e+002
5.143279e+002, 8.206387e+002
5.148101e+002, 8.181042e+002
5.152922e+002, 8.158590e+002
5.157743e+002, 8.142277e+002
5.162564e+002, 8.134013e+002
5.167385e+002, 8.126271e+002
5.172206e+002, 8.118217e+002
5.177028e+002, 8.108619e+002
5.181849e+002, 8.096122e+002
5.186670e+002, 8.072401e+002
5.191491e+002, 8.055389e+002
5.196312e+002, 8.053521e+002
5.201133e+002, 8.061640e+002
5.205955e+002, 8.056102e+002
5.210776e+002, 8.027872e+002
5.215597e+002, 8.001726e+002
5.220418e+002, 7.989363e+002
5.225239e+002, 7.992493e+002
5.230060e+002, 7.991513e+002
5.234882e+002, 7.984974e+002
5.239703e+002, 7.978792e+002
5.244524e+002, 7.980155e+002
5.249345e+002, 7.988538e+002
5.254166e+002, 7.996572e+002
5.258987e+002, 8.003815e+002
5.263809e+002, 8.008246e+002
5.268630e+002, 8.003779e+002
5.273451e+002, 7.992714e+002
5.278272e+002, 7.984866e+002
5.283093e+002, 7.986827e+002
5.287914e+002, 7.993302e+002
5.292736e+002, 7.999313e+002
5.297557e+002, 8.004617e+002
5.302378e+002, 8.008660e+002
5.307199e+002, 8.009854e+002
5.312020e+002, 8.010322e+002
5.316841e+002, 8.012482e+002
5.321663e+002, 8.019710e+002
5.326484e+002, 8.022027e+002
5.331305e+002, 8.011562e+002
5.336126e+002, 7.996395e+002
5.340947e+002, 7.988047e+002
5.345768e+002, 7.996484e+002
5.350590e+002, 8.000977e+002
5.355411e+002, 7.997603e+002
5.360232e+002, 7.987590e+002
5.365053e+002, 7.977419e+002
5.369874e+002, 7.966200e+002
5.374695e+002, 7.957440e+002
5.379517e+002, 7.952798e+002
5.384338e+002, 7.952275e+002
5.389159e+002, 7.956279e+002
5.393980e+002, 7.965010e+002
5.398801e+002, 7.977295e+002
5.403622e+002, 7.998086e+002
5.408444e+002, 8.023021e+002
5.413265e+002, 8.029568e+002
5.418086e+002, 8.005601e+002
5.422907e+002, 7.975685e+002
5.427728e+002, 7.976224e+002
5.432549e+002, 7.997550e+002
5.437371e+002, 8.012132e+002
5.442192e+002, 7.997505e+002
5.447013e+002, 7.977004e+002
5.451834e+002, 7.970477e+002
5.456655e+002, 7.977273e+002
5.461476e+002, 7.979311e+002
5.466298e+002, 7.963055e+002
5.471119e+002, 7.943674e+002
5.475940e+002, 7.931633e+002
5.480761e+002, 7.933204e+002
5.485582e+002, 7.932249e+002
5.490403e+002, 7.924424e+002
5.495225e+002, 7.914998e+002
5.500046e+002, 7.910622e+002
5.504867e+002, 7.914380e+002
5.509688e+002, 7.916697e+002
5.514509e+002, 7.914781e+002
5.519330e+002, 7.910507e+002
5.524152e+002, 7.911785e+002
5.528973e+002, 7.919615e+002
5.533794e+002, 7.926395e+002
5.538615e+002, 7.927079e+002
5.543436e+002, 7.922931e+002
5.548257e+002, 7.920936e+002
5.553079e+002, 7.921112e+002
5.557900e+002, 7.922614e+002
5.562721e+002, 7.925357e+002
5.567542e+002, 7.928771e+002
5.572363e+002, 7.931757e+002
5.577184e+002, 7.933973e+002
5.582006e+002, 7.936218e+002
5.586827e+002, 7.941029e+002
5.591648e+002, 7.946045e+002
5.596469e+002, 7.947325e+002
5.601290e+002, 7.938846e+002
5.606111e+002, 7.930945e+002
5.610933e+002, 7.928060e+002
5.615754e+002, 7.929642e+002
5.620575e+002, 7.931504e+002
5.625396e+002, 7.930331e+002
5.630217e+002, 7.931984e+002
5.635038e+002, 7.939905e+002
5.639860e+002, 7.956574e+002
5.644681e+002, 7.967823e+002
5.649502e+002, 7.972746e+002
5.654323e+002, 7.973614e+002
5.659144e+002, 7.970200e+002
5.663965e+002, 7.961475e+002
5.668787e+002, 7.961682e+002
5.673608e+002, 7.975045e+002
5.678429e+002, 7.993809e+002
5.683250e+002, 8.003525e+002
5.688071e+002, 8.005826e+002
5.692892e+002, 8.008834e+002
5.697714e+002, 8.014681e+002
5.702535e+002, 8.024183e+002
5.707356e+002, 8.041534e+002
5.712177e+002, 8.065160e+002
5.716998e+002, 8.084426e+002
5.721819e+002, 8.087419e+002
5.726641e+002, 8.087772e+002
5.731462e+002, 8.097252e+002
5.736283e+002, 8.119338e+002
5.741104e+002, 8.139029e+002
5.745925e+002, 8.150564e+002
5.750746e+002, 8.158324e+002
5.755568e+002, 8.166412e+002
5.760389e+002, 8.172241e+002
5.765210e+002, 8.182526e+002
5.770031e+002, 8.200978e+002
5.774852e+002, 8.222698e+002
5.779673e+002, 8.236942e+002
5.784495e+002, 8.241255e+002
5.789316e+002, 8.246365e+002
5.794137e+002, 8.254611e+002
5.798958e+002, 8.266429e+002
5.803779e+002, 8.287223e+002
5.808600e+002, 8.317464e+002
5.813422e+002, 8.344310e+002
5.818243e+002, 8.356064e+002
5.823064e+002, 8.358512e+002
5.827885e+002, 8.362463e+002
5.832706e+002, 8.368386e+002
5.837527e+002, 8.381274e+002
5.842349e+002, 8.414515e+002
5.847170e+002, 8.453564e+002
5.851991e+002, 8.479023e+002
5.856812e+002, 8.476586e+002
5.861633e+002, 8.476077e+002
5.866454e+002, 8.495691e+002
5.871276e+002, 8.524892e+002
5.876097e+002, 8.544337e+002
5.880918e+002, 8.543427e+002
5.885739e+002, 8.540193e+002
5.890560e+002, 8.536648e+002
5.895381e+002, 8.533368e+002
5.900203e+002, 8.535529e+002
5.905024e+002, 8.547116e+002
5.909845e+002, 8.556403e+002
5.914666e+002, 8.556728e+002
5.919487e+002, 8.548082e+002
5.924308e+002, 8.541149e+002
5.929130e+002, 8.535986e+002
5.933951e+002, 8.532900e+002
5.938772e+002, 8.531854e+002
5.943593e+002, 8.533170e+002
5.948414e+002, 8.538649e+002
5.953235e+002, 8.549684e+002
5.958057e+002, 8.561185e+002
5.962878e+002, 8.569889e+002
5.967699e+002, 8.575070e+002
5.972520e+002, 8.575313e+002
5.977341e+002, 8.565433e+002
5.982162e+002, 8.554868e+002
5.986984e+002, 8.548376e+002
5.991805e+002, 8.545032e+002
5.996626e+002, 8.540970e+002
6.001447e+002, 8.535621e+002
6.006268e+002, 8.528890e+002
6.011089e+002, 8.520450e+002
6.015911e+002, 8.510079e+002
6.020732e+002, 8.499875e+002
6.025553e+002, 8.489108e+002
6.030374e+002, 8.479843e+002
6.035195e+002, 8.474860e+002
6.040016e+002, 8.474841e+002
6.044838e+002, 8.470973e+002
6.049659e+002, 8.462688e+002
6.054480e+002, 8.451204e+002
6.059301e+002, 8.435121e+002
6.064122e+002, 8.416501e+002
6.068943e+002, 8.404005e+002
6.073765e+002, 8.402578e+002
6.078586e+002, 8.403744e+002
6.083407e+002, 8.397847e+002
6.088228e+002, 8.387133e+002
6.093049e+002, 8.377300e+002
6.097870e+002, 8.374125e+002
6.102692e+002, 8.369502e+002
6.107513e+002, 8.357758e+002
6.112334e+002, 8.339432e+002
6.117155e+002, 8.322482e+002
6.121976e+002, 8.307178e+002
6.126797e+002, 8.294678e+002
6.131619e+002, 8.285880e+002
6.136440e+002, 8.281658e+002
6.141261e+002, 8.277370e+002
6.146082e+002, 8.274119e+002
6.150903e+002, 8.269068e+002
6.155724e+002, 8.259232e+002
6.160546e+002, 8.244567e+002
6.165367e+002, 8.227115e+002
6.170188e+002, 8.205278e+002
6.175009e+002, 8.186068e+002
6.179830e+002, 8.183775e+002
6.184651e+002, 8.193533e+002
6.189473e+002, 8.198329e+002
6.194294e+002, 8.188585e+002
6.199115e+002, 8.175236e+002
6.203936e+002, 8.167626e+002
6.208757e+002, 8.164903e+002
6.213578e+002, 8.164442e+002
6.218400e+002, 8.170644e+002
6.223221e+002, 8.173878e+002
6.228042e+002, 8.165305e+002
6.232863e+002, 8.144407e+002
6.237684e+002, 8.134473e+002
6.242505e+002, 8.146734e+002
6.247327e+002, 8.161765e+002
6.252148e+002, 8.169978e+002
6.256969e+002, 8.169390e+002
6.261790e+002, 8.170403e+002
6.266611e+002, 8.173754e+002
6.271432e+002, 8.177230e+002
6.276254e+002, 8.178154e+002
6.281075e+002, 8.176701e+002
6.285896e+002, 8.175214e+002
6.290717e+002, 8.173455e+002
6.295538e+002, 8.173458e+002
6.300359e+002, 8.178309e+002
6.305181e+002, 8.187053e+002
6.310002e+002, 8.197592e+002
6.314823e+002, 8.212877e+002
6.319644e+002, 8.225787e+002
6.324465e+002, 8.230092e+002
6.329286e+002, 8.227659e+002
6.334108e+002, 8.224391e+002
6.338929e+002, 8.219847e+002
6.343750e+002, 8.217096e+002
6.348571e+002, 8.217073e+002
6.353392e+002, 8.219863e+002
6.358214e+002, 8.226647e+002
6.363035e+002, 8.242275e+002
6.367856e+002, 8.255299e+002
6.372677e+002, 8.257338e+002
6.377498e+002, 8.246041e+002
6.382319e+002, 8.243827e+002
6.387141e+002, 8.252733e+002
6.391962e+002, 8.263229e+002
6.396783e+002, 8.264670e+002
6.401604e+002, 8.259211e+002
6.406425e+002, 8.255029e+002
6.411246e+002, 8.253771e+002
6.416068e+002, 8.253580e+002
6.420889e+002, 8.253516e+002
6.425710e+002, 8.252991e+002
6.430531e+002, 8.251000e+002
6.435352e+002, 8.245590e+002
6.440173e+002, 8.240145e+002
6.444995e+002, 8.235141e+002
6.449816e+002, 8.231010e+002
6.454637e+002, 8.228917e+002
6.459458e+002, 8.230980e+002
6.464279e+002, 8.232917e+002
6.469100e+002, 8.233604e+002
6.473922e+002, 8.233124e+002
6.478743e+002, 8.232628e+002
6.483564e+002, 8.231653e+002
6.488385e+002, 8.231896e+002
6.493206e+002, 8.233944e+002
6.498027e+002, 8.237913e+002
6.502849e+002, 8.246768e+002
6.507670e+002, 8.260959e+002
6.512491e+002, 8.271768e+002
6.517312e+002, 8.266064e+002
6.522133e+002, 8.253234e+002
6.526954e+002, 8.249324e+002
6.531776e+002, 8.259092e+002
6.536597e+002, 8.270007e+002
6.541418e+002, 8.274265e+002
6.546239e+002, 8.275604e+002
6.551060e+002, 8.278401e+002
6.555881e+002, 8.290678e+002
6.560703e+002, 8.295967e+002
6.565524e+002, 8.284604e+002
6.570345e+002, 8.266814e+002
6.575166e+002, 8.262128e+002
6.579987e+002, 8.278375e+002
6.584808e+002, 8.287410e+002
6.589630e+002, 8.280301e+002
6.594451e+002, 8.262491e+002
6.599272e+002, 8.251542e+002
6.604093e+002, 8.247462e+002
6.608914e+002, 8.248683e+002
6.613735e+002, 8.258107e+002
6.618557e+002, 8.270956e+002
6.623378e+002, 8.278321e+002
6.628199e+002, 8.280662e+002
6.633020e+002, 8.282038e+002
6.637841e+002, 8.284988e+002
6.642662e+002, 8.288173e+002
6.647484e+002, 8.290704e+002
6.652305e+002, 8.292522e+002
6.657126e+002, 8.293337e+002
6.661947e+002, 8.292074e+002
6.666768e+002, 8.290446e+002
6.671589e+002, 8.290209e+002
6.676411e+002, 8.295765e+002
6.681232e+002, 8.291620e+002
6.686053e+002, 8.272268e+002
6.690874e+002, 8.250468e+002
6.695695e+002, 8.242473e+002
6.700516e+002, 8.248058e+002
6.705338e+002, 8.259532e+002
6.710159e+002, 8.277802e+002
6.714980e+002, 8.295615e+002
6.719801e+002, 8.299479e+002
6.724622e+002, 8.293759e+002
6.729443e+002, 8.290440e+002
6.734265e+002, 8.300917e+002
6.739086e+002, 8.309485e+002
6.743907e+002, 8.300778e+002
6.748728e+002, 8.280973e+002
6.753549e+002, 8.269029e+002
6.758370e+002, 8.278957e+002
6.763192e+002, 8.289300e+002
6.768013e+002, 8.290778e+002
6.772834e+002, 8.284531e+002
6.777655e+002, 8.285511e+002
6.782476e+002, 8.297650e+002
6.787297e+002, 8.308956e+002
6.792119e+002, 8.313255e+002
6.796940e+002, 8.310818e+002
6.801761e+002, 8.305035e+002
6.806582e+002, 8.295364e+002
6.811403e+002, 8.288082e+002
6.816224e+002, 8.290023e+002
6.821046e+002, 8.297634e+002
6.825867e+002, 8.304462e+002
6.830688e+002, 8.309706e+002
6.835509e+002, 8.314235e+002
6.840330e+002, 8.317382e+002
6.845151e+002, 8.320771e+002
6.849973e+002, 8.326385e+002
6.854794e+002, 8.338246e+002
6.859615e+002, 8.346349e+002
6.864436e+002, 8.346551e+002
6.869257e+002, 8.343502e+002
6.874078e+002, 8.342903e+002
6.878900e+002, 8.346962e+002
6.883721e+002, 8.346820e+002
6.888542e+002, 8.338553e+002
6.893363e+002, 8.328868e+002
6.898184e+002, 8.334290e+002
6.903005e+002, 8.353492e+002
6.907827e+002, 8.370178e+002
6.912648e+002, 8.377374e+002
6.917469e+002, 8.379337e+002
6.922290e+002, 8.382142e+002
6.927111e+002, 8.384880e+002
6.931932e+002, 8.384530e+002
6.936754e+002, 8.373575e+002
6.941575e+002, 8.364305e+002
6.946396e+002, 8.363676e+002
6.951217e+002, 8.371470e+002
6.956038e+002, 8.382426e+002
6.960859e+002, 8.401578e+002
6.965681e+002, 8.417288e+002
6.970502e+002, 8.425216e+002
6.975323e+002, 8.425206e+002
6.980144e+002, 8.419180e+002
6.984965e+002, 8.404298e+002
6.989786e+002, 8.393792e+002
6.994608e+002, 8.402946e+002
6.999429e+002, 8.426096e+002
7.004250e+002, 8.436308e+002
7.009071e+002, 8.431750e+002
7.013892e+002, 8.422511e+002
7.018713e+002, 8.411586e+002
7.023535e+002, 8.403723e+002
7.028356e+002, 8.406843e+002
7.033177e+002, 8.427189e+002
7.037998e+002, 8.443455e+002
7.042819e+002, 8.443605e+002
7.047640e+002, 8.437426e+002
7.052462e+002, 8.435328e+002
7.057283e+002, 8.438869e+002
7.062104e+002, 8.445045e+002
7.066925e+002, 8.455208e+002
7.071746e+002, 8.466465e+002
7.076567e+002, 8.474143e+002
7.081389e+002, 8.478004e+002
7.086210e+002, 8.481035e+002
7.091031e+002, 8.483890e+002
7.095852e+002, 8.486360e+002
7.100673e+002, 8.487426e+002
7.105494e+002, 8.487747e+002
7.110316e+002, 8.489333e+002
7.115137e+002, 8.493675e+002
7.119958e+002, 8.499092e+002
7.124779e+002, 8.506092e+002
7.129600e+002, 8.513527e+002
7.134421e+002, 8.517751e+002
7.139243e+002, 8.511715e+002
7.144064e+002, 8.509019e+002
7.148885e+002, 8.515290e+002
7.153706e+002, 8.529114e+002
7.158527e+002, 8.539011e+002
7.163348e+002, 8.544313e+002
7.168170e+002, 8.547531e+002
7.172991e+002, 8.549238e+002
7.177812e+002, 8.549742e+002
7.182633e+002, 8.550515e+002
7.187454e+002, 8.551537e+002
7.192275e+002, 8.552891e+002
7.197097e+002, 8.555494e+002
7.201918e+002, 8.558021e+002
7.206739e+002, 8.558508e+002
7.211560e+002, 8.556813e+002
7.216381e+002, 8.555585e+002
7.221202e+002, 8.553172e+002
7.226024e+002, 8.553828e+002
7.230845e+002, 8.561115e+002
7.235666e+002, 8.577698e+002
7.240487e+002, 8.593957e+002
7.245308e+002, 8.611885e+002
7.250129e+002, 8.627156e+002
7.254951e+002, 8.635471e+002
7.259772e+002, 8.636542e+002
7.264593e+002, 8.636658e+002
7.269414e+002, 8.635809e+002
7.274235e+002, 8.635970e+002
7.279056e+002, 8.639852e+002
7.283878e+002, 8.646327e+002
7.288699e+002, 8.653076e+002
7.293520e+002, 8.659686e+002
7.298341e+002, 8.666150e+002
7.303162e+002, 8.672160e+002
7.307983e+002, 8.678130e+002
7.312805e+002, 8.684669e+002
7.317626e+002, 8.696151e+002
7.322447e+002, 8.702523e+002
7.327268e+002, 8.700056e+002
7.332089e+002, 8.693747e+002
7.336910e+002, 8.691224e+002
7.341732e+002, 8.692457e+002
7.346553e+002, 8.698790e+002
7.351374e+002, 8.712534e+002
7.356195e+002, 8.728379e+002
7.361016e+002, 8.733956e+002
7.365837e+002, 8.731738e+002
7.370659e+002, 8.732751e+002
7.375480e+002, 8.746711e+002
7.380301e+002, 8.760353e+002
7.385122e+002, 8.756979e+002
7.389943e+002, 8.743495e+002
7.394764e+002, 8.737784e+002
7.399586e+002, 8.752895e+002
7.404407e+002, 8.769310e+002
7.409228e+002, 8.781335e+002
7.414049e+002, 8.789421e+002
7.418870e+002, 8.795622e+002
7.423691e+002, 8.800012e+002
7.428513e+002, 8.801964e+002
7.433334e+002, 8.800233e+002
7.438155e+002, 8.796139e+002
7.442976e+002, 8.794723e+002
7.447797e+002, 8.796041e+002
7.452618e+002, 8.799813e+002
7.457440e+002, 8.808754e+002
7.462261e+002, 8.818373e+002
7.467082e+002, 8.822498e+002
7.471903e+002, 8.821585e+002
7.476724e+002, 8.821707e+002
7.481545e+002, 8.824865e+002
7.486367e+002, 8.830316e+002
7.491188e+002, 8.839112e+002
7.496009e+002, 8.852006e+002
7.500830e+002, 8.859399e+002
7.505651e+002, 8.858912e+002
7.510472e+002, 8.857304e+002
7.515294e+002, 8.859399e+002
7.520115e+002, 8.864933e+002
7.524936e+002, 8.864774e+002
7.529757e+002, 8.858559e+002
7.534578e+002, 8.852518e+002
7.539399e+002, 8.850551e+002
7.544221e+002, 8.852911e+002
7.549042e+002, 8.862582e+002
7.553863e+002, 8.880822e+002
7.558684e+002, 8.894398e+002
7.563505e+002, 8.892054e+002
7.568326e+002, 8.885546e+002
7.573148e+002, 8.884338e+002
7.577969e+002, 8.892599e+002
7.582790e+002, 8.897327e+002
7.587611e+002, 8.895253e+002
7.592432e+002, 8.894138e+002
7.597253e+002, 8.903064e+002
7.602075e+002, 8.922447e+002
7.606896e+002, 8.932141e+002
7.611717e+002, 8.929089e+002
7.616538e+002, 8.924424e+002
7.621359e+002, 8.931566e+002
7.626180e+002, 8.945255e+002
7.631002e+002, 8.955827e+002
7.635823e+002, 8.960492e+002
7.640644e+002, 8.964542e+002
7.645465e+002, 8.971935e+002
7.650286e+002, 8.979866e+002
7.655107e+002, 8.985300e+002
7.659929e+002, 8.987899e+002
7.664750e+002, 8.987869e+002
7.669571e+002, 8.983582e+002
7.674392e+002, 8.978541e+002
7.679213e+002, 8.976254e+002
7.684034e+002, 8.976648e+002
7.688856e+002, 8.983192e+002
7.693677e+002, 8.997411e+002
7.698498e+002, 9.014393e+002
7.703319e+002, 9.028592e+002
7.708140e+002, 9.040693e+002
7.712961e+002, 9.052867e+002
7.717783e+002, 9.068629e+002
7.722604e+002, 9.079018e+002
7.727425e+002, 9.075527e+002
7.732246e+002, 9.064725e+002
7.737067e+002, 9.056516e+002
7.741888e+002, 9.050673e+002
7.746710e+002, 9.050087e+002
7.751531e+002, 9.056979e+002
7.756352e+002, 9.067709e+002
7.761173e+002, 9.075936e+002
7.765994e+002, 9.081613e+002
7.770815e+002, 9.086521e+002
7.775637e+002, 9.090734e+002
7.780458e+002, 9.095256e+002
7.785279e+002, 9.099908e+002
7.790100e+002, 9.106039e+002
7.794921e+002, 9.116965e+002
7.799742e+002, 9.143520e+002
7.804564e+002, 9.163851e+002
7.809385e+002, 9.165331e+002
7.814206e+002, 9.154141e+002
7.819027e+002, 9.142753e+002
7.823848e+002, 9.124887e+002
7.828669e+002, 9.120391e+002
7.833491e+002, 9.138646e+002
7.838312e+002, 9.167740e+002
7.843133e+002, 9.176113e+002
7.847954e+002, 9.164346e+002
7.852775e+002, 9.155521e+002
7.857596e+002, 9.157317e+002
7.862418e+002, 9.166378e+002
7.867239e+002, 9.184655e+002
7.872060e+002, 9.206516e+002
7.876881e+002, 9.218634e+002
7.881702e+002, 9.204522e+002
7.886523e+002, 9.190556e+002
7.891345e+002, 9.184445e+002
7.896166e+002, 9.186680e+002
7.900987e+002, 9.198123e+002
7.905808e+002, 9.225652e+002
7.910629e+002, 9.247908e+002
7.915450e+002, 9.259169e+002
7.920272e+002, 9.262358e+002
7.925093e+002, 9.264426e+002
7.929914e+002, 9.265424e+002
7.934735e+002, 9.265856e+002
7.939556e+002, 9.264548e+002
7.944377e+002, 9.264252e+002
7.949199e+002, 9.267963e+002
7.954020e+002, 9.275383e+002
7.958841e+002, 9.285507e+002
7.963662e+002, 9.305284e+002
7.968483e+002, 9.319897e+002
7.973304e+002, 9.320679e+002
7.978126e+002, 9.312123e+002
7.982947e+002, 9.307842e+002
7.987768e+002, 9.308888e+002
7.992589e+002, 9.311326e+002
7.997410e+002, 9.313830e+002
8.002231e+002, 9.317274e+002
8.007053e+002, 9.325202e+002
8.011874e+002, 9.336697e+002
8.016695e+002, 9.346625e+002
8.021516e+002, 9.350106e+002
8.026337e+002, 9.352996e+002
8.031158e+002, 9.361060e+002
8.035980e+002, 9.372691e+002
8.040801e+002, 9.383815e+002
8.045622e+002, 9.397049e+002
8.050443e+002, 9.404584e+002
8.055264e+002, 9.400715e+002
8.060085e+002, 9.390369e+002
8.064907e+002, 9.390402e+002
8.069728e+002, 9.402699e+002
8.074549e+002, 9.415552e+002
8.079370e+002, 9.425765e+002
8.084191e+002, 9.433475e+002
8.089012e+002, 9.438997e+002
8.093834e+002, 9.442294e+002
8.098655e+002, 9.443254e+002
8.103476e+002, 9.437108e+002
8.108297e+002, 9.433150e+002
8.113118e+002, 9.441151e+002
8.117939e+002, 9.456249e+002
8.122761e+002, 9.463624e+002
8.127582e+002, 9.453160e+002
8.132403e+002, 9.446110e+002
8.137224e+002, 9.446989e+002
8.142045e+002, 9.453908e+002
8.146866e+002, 9.461325e+002
8.151688e+002, 9.469094e+002
8.156509e+002, 9.479945e+002
8.161330e+002, 9.497435e+002
8.166151e+002, 9.515217e+002
8.170972e+002, 9.522913e+002
8.175793e+002, 9.523238e+002
8.180615e+002, 9.523493e+002
8.185436e+002, 9.522354e+002
8.190257e+002, 9.526418e+002
8.195078e+002, 9.544009e+002
8.199899e+002, 9.568393e+002
8.204720e+002, 9.580869e+002
8.209542e+002, 9.576722e+002
8.214363e+002, 9.571190e+002
8.219184e+002, 9.566271e+002
8.224005e+002, 9.563245e+002
8.228826e+002, 9.565584e+002
8.233647e+002, 9.572743e+002
8.238469e+002, 9.581735e+002
8.243290e+002, 9.594583e+002
8.248111e+002, 9.604593e+002
8.252932e+002, 9.601070e+002
8.257753e+002, 9.591053e+002
8.262574e+002, 9.588458e+002
8.267396e+002, 9.608640e+002
8.272217e+002, 9.622209e+002
8.277038e+002, 9.620929e+002
8.281859e+002, 9.612195e+002
8.286681e+002, 9.609353e+002
8.291502e+002, 9.612775e+002
8.296323e+002, 9.620363e+002
8.301144e+002, 9.633333e+002
8.305966e+002, 9.646487e+002
8.310787e+002, 9.651688e+002
8.315608e+002, 9.650975e+002
8.320429e+002, 9.649307e+002
8.325250e+002, 9.647875e+002
8.330071e+002, 9.646664e+002
8.334893e+002, 9.643931e+002
8.339714e+002, 9.641948e+002
8.344535e+002, 9.644496e+002
8.349356e+002, 9.653459e+002
8.354177e+002, 9.663059e+002
8.358998e+002, 9.672273e+002
8.363820e+002, 9.682562e+002
8.368641e+002, 9.696780e+002
8.373462e+002, 9.714493e+002
8.378283e+002, 9.734415e+002
8.383104e+002, 9.758624e+002
8.387925e+002, 9.775517e+002
8.392747e+002, 9.766615e+002
8.397568e+002, 9.745822e+002
8.402389e+002, 9.732057e+002
8.407210e+002, 9.731336e+002
8.412031e+002, 9.735857e+002
8.416852e+002, 9.746954e+002
8.421674e+002, 9.760643e+002
8.426495e+002, 9.775025e+002
8.431316e+002, 9.792070e+002
8.436137e+002, 9.798856e+002
8.440958e+002, 9.794056e+002
8.445779e+002, 9.781174e+002
8.450601e+002, 9.757401e+002
8.455422e+002, 9.730045e+002
8.460243e+002, 9.714208e+002
8.465064e+002, 9.713233e+002
8.469885e+002, 9.719421e+002
8.474706e+002, 9.737361e+002
8.479528e+002, 9.754711e+002
8.484349e+002, 9.758916e+002
8.489170e+002, 9.741179e+002
8.493991e+002, 9.734446e+002
8.498812e+002, 9.741614e+002
8.503633e+002, 9.753487e+002
8.508455e+002, 9.762860e+002
8.513276e+002, 9.770149e+002
8.518097e+002, 9.779302e+002
8.522918e+002, 9.790714e+002
8.527739e+002, 9.799183e+002
8.532560e+002, 9.799088e+002
8.537382e+002, 9.795349e+002
8.542203e+002, 9.792880e+002
8.547024e+002, 9.792599e+002
8.551845e+002, 9.790351e+002
8.556666e+002, 9.780205e+002
8.561487e+002, 9.773855e+002
8.566309e+002, 9.779541e+002
8.571130e+002, 9.796921e+002
8.575951e+002, 9.797833e+002
8.580772e+002, 9.780058e+002
8.585593e+002, 9.772961e+002
8.590414e+002, 9.811392e+002
8.595236e+002, 9.865558e+002
8.600057e+002, 9.886735e+002
8.604878e+002, 9.877408e+002
8.609699e+002, 9.863981e+002
8.614520e+002, 9.850709e+002
8.619341e+002, 9.843380e+002
8.624163e+002, 9.847758e+002
8.628984e+002, 9.861688e+002
8.633805e+002, 9.871943e+002
8.638626e+002, 9.878797e+002
8.643447e+002, 9.880879e+002
8.648268e+002, 9.874587e+002
8.653090e+002, 9.865558e+002
8.657911e+002, 9.869439e+002
8.662732e+002, 9.883685e+002
8.667553e+002, 9.897781e+002
8.672374e+002, 9.908072e+002
8.677195e+002, 9.914893e+002
8.682017e+002, 9.916873e+002
8.686838e+002, 9.915360e+002
8.691659e+002, 9.914059e+002
8.696480e+002, 9.912355e+002
8.701301e+002, 9.912877e+002
8.706122e+002, 9.918119e+002
8.710944e+002, 9.923816e+002
8.715765e+002, 9.918796e+002
8.720586e+002, 9.904730e+002
8.725407e+002, 9.893729e+002
8.730228e+002, 9.890034e+002
8.735049e+002, 9.889812e+002
8.739871e+002, 9.891924e+002
8.744692e+002, 9.894568e+002
8.749513e+002, 9.894918e+002
8.754334e+002, 9.889830e+002
8.759155e+002, 9.885926e+002
8.763976e+002, 9.882849e+002
8.768798e+002, 9.882024e+002
8.773619e+002, 9.886398e+002
8.778440e+002, 9.896384e+002
8.783261e+002, 9.900983e+002
8.788082e+002, 9.897333e+002
8.792903e+002, 9.896050e+002
8.797725e+002, 9.913343e+002
8.802546e+002, 9.938202e+002
8.807367e+002, 9.954576e+002
8.812188e+002, 9.958417e+002
8.817009e+002, 9.958633e+002
8.821830e+002, 9.953348e+002
8.826652e+002, 9.949338e+002
8.831473e+002, 9.951701e+002
8.836294e+002, 9.961689e+002
8.841115e+002, 9.970510e+002
8.845936e+002, 9.978552e+002
8.850757e+002, 9.984113e+002
8.855579e+002, 9.984355e+002
8.860400e+002, 9.981937e+002
8.865221e+002, 9.983444e+002
8.870042e+002, 9.988699e+002
8.874863e+002, 9.990841e+002
8.879684e+002, 9.979993e+002
8.884506e+002, 9.970789e+002
8.889327e+002, 9.973015e+002
8.894148e+002, 9.986029e+002
8.898969e+002, 9.996554e+002
8.903790e+002, 1.000331e+003
8.908611e+002, 1.001113e+003
8.913433e+002, 1.002249e+003
8.918254e+002, 1.003585e+003
8.923075e+002, 1.004767e+003
8.927896e+002, 1.005816e+003
8.932717e+002, 1.006836e+003
8.937538e+002, 1.008088e+003
8.942360e+002, 1.009112e+003
8.947181e+002, 1.009498e+003
8.952002e+002, 1.009428e+003
8.956823e+002, 1.009378e+003
8.961644e+002, 1.009349e+003
8.966465e+002, 1.009328e+003
8.971287e+002, 1.009114e+003
8.976108e+002, 1.009200e+003
8.980929e+002, 1.011119e+003
8.985750e+002, 1.014320e+003
8.990571e+002, 1.016034e+003
8.995392e+002, 1.015189e+003
9.000214e+002, 1.013831e+003
9.005035e+002, 1.013130e+003
9.009856e+002, 1.013070e+003
9.014677e+002, 1.013670e+003
9.019498e+002, 1.015704e+003
9.024319e+002, 1.016972e+003
9.029141e+002, 1.017140e+003
9.033962e+002, 1.017021e+003
9.038783e+002, 1.017245e+003
9.043604e+002, 1.017820e+003
9.048425e+002, 1.019006e+003
9.053246e+002, 1.020865e+003
9.058068e+002, 1.022539e+003
9.062889e+002, 1.023291e+003
9.067710e+002, 1.023562e+003
9.072531e+002, 1.023525e+003
9.077352e+002, 1.023145e+003
9.082173e+002, 1.023557e+003
9.086995e+002, 1.025286e+003
9.091816e+002, 1.027336e+003
9.096637e+002, 1.029649e+003
9.101458e+002, 1.031962e+003
9.106279e+002, 1.031798e+003
9.111100e+002, 1.029307e+003
9.115922e+002, 1.027480e+003
9.120743e+002, 1.028592e+003
9.125564e+002, 1.030731e+003
9.130385e+002, 1.032072e+003
9.135206e+002, 1.032823e+003
9.140027e+002, 1.033683e+003
9.144849e+002, 1.034891e+003
9.149670e+002, 1.036226e+003
9.154491e+002, 1.037949e+003
9.159312e+002, 1.039562e+003
9.164133e+002, 1.039666e+003
9.168954e+002, 1.038303e+003
9.173776e+002, 1.037769e+003
9.178597e+002, 1.038772e+003
9.183418e+002, 1.040262e+003
9.188239e+002, 1.041221e+003
9.193060e+002, 1.041869e+003
9.197881e+002, 1.042528e+003
9.202703e+002, 1.043411e+003
9.207524e+002, 1.043979e+003
9.212345e+002, 1.043646e+003
9.217166e+002, 1.043500e+003
9.221987e+002, 1.044808e+003
9.226808e+002, 1.047676e+003
9.231630e+002, 1.048658e+003
9.236451e+002, 1.047480e+003
9.241272e+002, 1.046432e+003
9.246093e+002, 1.047964e+003
9.250914e+002, 1.050403e+003
9.255735e+002, 1.051802e+003
9.260557e+002, 1.052010e+003
9.265378e+002, 1.052301e+003
9.270199e+002, 1.053275e+003
9.275020e+002, 1.054099e+003
9.279841e+002, 1.054398e+003
9.284662e+002, 1.054295e+003
9.289484e+002, 1.054662e+003
9.294305e+002, 1.055496e+003
9.299126e+002, 1.056022e+003
9.303947e+002, 1.055712e+003
9.308768e+002, 1.055094e+003
9.313589e+002, 1.054628e+003
9.318411e+002, 1.054352e+003
9.323232e+002, 1.054356e+003
9.328053e+002, 1.054891e+003
9.332874e+002, 1.055472e+003
9.337695e+002, 1.056232e+003
9.342516e+002, 1.056836e+003
9.347338e+002, 1.056489e+003
9.352159e+002, 1.055199e+003
9.356980e+002, 1.054872e+003
9.361801e+002, 1.055924e+003
9.366622e+002, 1.057350e+003
9.371443e+002, 1.058223e+003
9.376265e+002, 1.058821e+003
9.381086e+002, 1.059536e+003
9.385907e+002, 1.060592e+003
9.390728e+002, 1.061050e+003
9.395549e+002, 1.060364e+003
9.400370e+002, 1.059516e+003
9.405192e+002, 1.058901e+003
9.410013e+002, 1.058540e+003
9.414834e+002, 1.059094e+003
9.419655e+002, 1.060552e+003
9.424476e+002, 1.062297e+003
9.429297e+002, 1.064392e+003
9.434119e+002, 1.066216e+003
9.438940e+002, 1.067387e+003
9.443761e+002, 1.067807e+003
9.448582e+002, 1.067084e+003
9.453403e+002, 1.063151e+003
9.458224e+002, 1.060857e+003
9.463046e+002, 1.061681e+003
9.467867e+002, 1.064350e+003
9.472688e+002, 1.065999e+003
9.477509e+002, 1.066727e+003
9.482330e+002, 1.067141e+003
9.487151e+002, 1.067265e+003
9.491973e+002, 1.067556e+003
9.496794e+002, 1.068705e+003
9.501615e+002, 1.070151e+003
9.506436e+002, 1.071194e+003
9.511257e+002, 1.071328e+003
9.516078e+002, 1.071824e+003
9.520900e+002, 1.072867e+003
9.525721e+002, 1.074005e+003
9.530542e+002, 1.074711e+003
9.535363e+002, 1.075128e+003
9.540184e+002, 1.076355e+003
9.545005e+002, 1.078377e+003
9.549827e+002, 1.080063e+003
9.554648e+002, 1.079719e+003
9.559469e+002, 1.079469e+003
9.564290e+002, 1.081086e+003
9.569111e+002, 1.084517e+003
9.573932e+002, 1.087554e+003
9.578754e+002, 1.090183e+003
9.583575e+002, 1.092192e+003
9.588396e+002, 1.093303e+003
9.593217e+002, 1.093927e+003
9.598038e+002, 1.094838e+003
9.602859e+002, 1.096073e+003
9.607681e+002, 1.097834e+003
9.612502e+002, 1.100686e+003
9.617323e+002, 1.103270e+003
9.622144e+002, 1.104576e+003
9.626965e+002, 1.105291e+003
9.631786e+002, 1.106188e+003
9.636608e+002, 1.106817e+003
9.641429e+002, 1.109262e+003
9.646250e+002, 1.114079e+003
9.651071e+002, 1.119105e+003
9.655892e+002, 1.122092e+003
9.660714e+002, 1.123693e+003
9.665535e+002, 1.125507e+003
9.670356e+002, 1.127639e+003
9.675177e+002, 1.129263e+003
9.679998e+002, 1.128560e+003
9.684819e+002, 1.128592e+003
9.689641e+002, 1.131422e+003
9.694462e+002, 1.136593e+003
9.699283e+002, 1.140996e+003
9.704104e+002, 1.144524e+003
9.708925e+002, 1.148025e+003
9.713746e+002, 1.152023e+003
9.718568e+002, 1.155922e+003
9.723389e+002, 1.158455e+003
9.728210e+002, 1.160281e+003
9.733031e+002, 1.162830e+003
9.737852e+002, 1.166635e+003
9.742673e+002, 1.171183e+003
9.747495e+002, 1.177242e+003
9.752316e+002, 1.183309e+003
9.757137e+002, 1.187800e+003
9.761958e+002, 1.190715e+003
9.766779e+002, 1.193047e+003
9.771600e+002, 1.194882e+003
9.776422e+002, 1.196137e+003
9.781243e+002, 1.196322e+003
9.786064e+002, 1.196217e+003
9.790885e+002, 1.196793e+003
9.795706e+002, 1.198147e+003
9.800527e+002, 1.199050e+003
9.805349e+002, 1.199217e+003
9.810170e+002, 1.199064e+003
9.814991e+002, 1.198807e+003
9.819812e+002, 1.198292e+003
9.824633e+002, 1.196692e+003
9.829454e+002, 1.194210e+003
9.834276e+002, 1.192166e+003
9.839097e+002, 1.191557e+003
9.843918e+002, 1.190861e+003
9.848739e+002, 1.188521e+003
9.853560e+002, 1.185530e+003
9.858381e+002, 1.183469e+003
9.863203e+002, 1.182782e+003
9.868024e+002, 1.182335e+003
9.872845e+002, 1.182251e+003
9.877666e+002, 1.182026e+003
9.882487e+002, 1.180593e+003
9.887308e+002, 1.178711e+003
9.892130e+002, 1.178480e+003
9.896951e+002, 1.180038e+003
9.901772e+002, 1.181903e+003
9.906593e+002, 1.183401e+003
9.911414e+002, 1.184854e+003
9.916235e+002, 1.186106e+003
9.921057e+002, 1.187352e+003
9.925878e+002, 1.190094e+003
9.930699e+002, 1.194509e+003
9.935520e+002, 1.199103e+003
9.940341e+002, 1.203423e+003
9.945162e+002, 1.207561e+003
9.949984e+002, 1.211281e+003
9.954805e+002, 1.214999e+003
9.959626e+002, 1.219511e+003
9.964447e+002, 1.225260e+003
9.969268e+002, 1.231648e+003
9.974089e+002, 1.238889e+003
9.978911e+002, 1.246335e+003
9.983732e+002, 1.253295e+003
9.988553e+002, 1.259766e+003
9.993374e+002, 1.267006e+003
9.998195e+002, 1.275052e+003
1.000302e+003, 1.283209e+003
1.000784e+003, 1.290850e+003
1.001266e+003, 1.298531e+003
1.001748e+003, 1.306891e+003
1.002230e+003, 1.315901e+003
1.002712e+003, 1.324735e+003
1.003194e+003, 1.333273e+003
1.003676e+003, 1.341665e+003
1.004159e+003, 1.350024e+003
1.004641e+003, 1.358218e+003
1.005123e+003, 1.366328e+003
1.005605e+003, 1.374199e+003
1.006087e+003, 1.381492e+003
1.006569e+003, 1.388327e+003
1.007051e+003, 1.394227e+003
1.007533e+003, 1.398777e+003
1.008016e+003, 1.402553e+003
1.008498e+003, 1.406293e+003
1.008980e+003, 1.410184e+003
1.009462e+003, 1.412871e+003
1.009944e+003, 1.414273e+003
1.010426e+003, 1.415341e+003
1.010908e+003, 1.417176e+003
1.011390e+003, 1.418830e+003
1.011872e+003, 1.418633e+003
1.012355e+003, 1.416970e+003
1.012837e+003, 1.415715e+003
1.013319e+003, 1.416541e+003
1.013801e+003, 1.416308e+003
1.014283e+003, 1.414075e+003
1.014765e+003, 1.410720e+003
1.015247e+003, 1.408230e+003
1.015729e+003, 1.406281e+003
1.016211e+003, 1.402433e+003
1.016694e+003, 1.395998e+003
1.017176e+003, 1.388743e+003
1.017658e+003, 1.382324e+003
1.018140e+003, 1.375638e+003
1.018622e+003, 1.367630e+003
1.019104e+003, 1.358173e+003
1.019586e+003, 1.347538e+003
1.020068e+003, 1.335418e+003
1.020551e+003, 1.323190e+003
1.021033e+003, 1.311469e+003
1.021515e+003, 1.300190e+003
1.021997e+003, 1.289076e+003
1.022479e+003, 1.278374e+003
1.022961e+003, 1.268957e+003
1.023443e+003, 1.261661e+003
1.023925e+003, 1.255146e+003
1.024407e+003, 1.249599e+003
1.024890e+003, 1.244213e+003
1.025372e+003, 1.237707e+003
1.025854e+003, 1.230066e+003
1.026336e+003, 1.223508e+003
1.026818e+003, 1.218265e+003
1.027300e+003, 1.213572e+003
1.027782e+003, 1.208708e+003
1.028264e+003, 1.204005e+003
1.028746e+003, 1.199871e+003
1.029229e+003, 1.196353e+003
1.029711e+003, 1.192659e+003
1.030193e+003, 1.188411e+003
1.030675e+003, 1.184617e+003
1.031157e+003, 1.181565e+003
1.031639e+003, 1.179226e+003
1.032121e+003, 1.177992e+003
1.032603e+003, 1.177381e+003
1.033086e+003, 1.175809e+003
1.033568e+003, 1.171993e+003
1.034050e+003, 1.168811e+003
1.034532e+003, 1.168109e+003
1.035014e+003, 1.168294e+003
1.035496e+003, 1.167983e+003
1.035978e+003, 1.167118e+003
1.036460e+003, 1.166326e+003
1.036943e+003, 1.165652e+003
1.037425e+003, 1.164614e+003
1.037907e+003, 1.162153e+003
1.038389e+003, 1.159680e+003
1.038871e+003, 1.158976e+003
1.039353e+003, 1.159672e+003
1.039835e+003, 1.160190e+003
1.040317e+003, 1.160113e+003
1.040799e+003, 1.159974e+003
1.041281e+003, 1.159833e+003
1.041764e+003, 1.159659e+003
1.042246e+003, 1.159248e+003
1.042728e+003, 1.158760e+003
1.043210e+003, 1.158915e+003
1.043692e+003, 1.159959e+003
1.044174e+003, 1.160609e+003
1.044656e+003, 1.159814e+003
1.045138e+003, 1.158668e+003
1.045621e+003, 1.157773e+003
1.046103e+003, 1.157150e+003
1.046585e+003, 1.157079e+003
1.047067e+003, 1.157613e+003
1.047549e+003, 1.157980e+003
1.048031e+003, 1.157576e+003
1.048513e+003, 1.157191e+003
1.048995e+003, 1.158386e+003
1.049478e+003, 1.160098e+003
1.049960e+003, 1.160514e+003
1.050442e+003, 1.157504e+003
1.050924e+003, 1.155819e+003
1.051406e+003, 1.156005e+003
1.051888e+003, 1.156618e+003
1.052370e+003, 1.156107e+003
1.052852e+003, 1.154944e+003
1.053334e+003, 1.154881e+003
1.053817e+003, 1.155889e+003
1.054299e+003, 1.156901e+003
1.054781e+003, 1.157422e+003
1.055263e+003, 1.157715e+003
1.055745e+003, 1.157935e+003
1.056227e+003, 1.158012e+003
1.056709e+003, 1.157721e+003
1.057191e+003, 1.157044e+003
1.057673e+003, 1.156092e+003
1.058156e+003, 1.154688e+003
1.058638e+003, 1.153842e+003
1.059120e+003, 1.154998e+003
1.059602e+003, 1.157013e+003
1.060084e+003, 1.158775e+003
1.060566e+003, 1.160163e+003
1.061048e+003, 1.160833e+003
1.061530e+003, 1.160492e+003
1.062013e+003, 1.160156e+003
1.062495e+003, 1.160230e+003
1.062977e+003, 1.160703e+003
1.063459e+003, 1.161634e+003
1.063941e+003, 1.162935e+003
1.064423e+003, 1.164406e+003
1.064905e+003, 1.166752e+003
1.065387e+003, 1.168138e+003
1.065870e+003, 1.167091e+003
1.066352e+003, 1.165521e+003
1.066834e+003, 1.165089e+003
1.067316e+003, 1.165807e+003
1.067798e+003, 1.166868e+003
1.068280e+003, 1.168252e+003
1.068762e+003, 1.169297e+003
1.069244e+003, 1.169019e+003
1.069726e+003, 1.168660e+003
1.070208e+003, 1.169151e+003
1.070691e+003, 1.170447e+003
1.071173e+003, 1.172137e+003
1.071655e+003, 1.174507e+003
1.072137e+003, 1.176289e+003
1.072619e+003, 1.177201e+003
1.073101e+003, 1.177624e+003
1.073583e+003, 1.177854e+003
1.074065e+003, 1.178031e+003
1.074548e+003, 1.178454e+003
1.075030e+003, 1.179213e+003
1.075512e+003, 1.179736e+003
1.075994e+003, 1.179121e+003
1.076476e+003, 1.179253e+003
1.076958e+003, 1.181181e+003
1.077440e+003, 1.184326e+003
1.077922e+003, 1.186789e+003
1.078405e+003, 1.188555e+003
1.078887e+003, 1.189484e+003
1.079369e+003, 1.189080e+003
1.079851e+003, 1.188649e+003
1.080333e+003, 1.188995e+003
1.080815e+003, 1.189665e+003
1.081297e+003, 1.190096e+003
1.081779e+003, 1.190167e+003
1.082261e+003, 1.190673e+003
1.082744e+003, 1.191617e+003
1.083226e+003, 1.192966e+003
1.083708e+003, 1.195427e+003
1.084190e+003, 1.197696e+003
1.084672e+003, 1.197908e+003
1.085154e+003, 1.196714e+003
1.085636e+003, 1.196405e+003
1.086118e+003, 1.197726e+003
1.086601e+003, 1.199063e+003
1.087083e+003, 1.200289e+003
1.087565e+003, 1.201338e+003
1.088047e+003, 1.202263e+003
1.088529e+003, 1.202903e+003
1.089011e+003, 1.202841e+003
1.089493e+003, 1.202036e+003
1.089975e+003, 1.201090e+003
1.090458e+003, 1.199659e+003
1.090940e+003, 1.198881e+003
1.091422e+003, 1.199452e+003
1.091904e+003, 1.200788e+003
1.092386e+003, 1.200997e+003
1.092868e+003, 1.200252e+003
1.093350e+003, 1.199592e+003
1.093832e+003, 1.199221e+003
1.094314e+003, 1.199312e+003
1.094797e+003, 1.200635e+003
1.095279e+003, 1.202026e+003
1.095761e+003, 1.202269e+003
1.096243e+003, 1.201266e+003
1.096725e+003, 1.200826e+003
1.097207e+003, 1.200989e+003
1.097689e+003, 1.201433e+003
1.098171e+003, 1.202493e+003
1.098653e+003, 1.203238e+003
1.099136e+003, 1.202009e+003
1.099618e+003, 1.199807e+003
1.100100e+003, 1.198585e+003
1.100582e+003, 1.199157e+003
1.101064e+003, 1.199995e+003
1.101546e+003, 1.201186e+003
1.102028e+003, 1.202283e+003
1.102510e+003, 1.203050e+003
1.102993e+003, 1.203361e+003
1.103475e+003, 1.202553e+003
1.103957e+003, 1.200868e+003
1.104439e+003, 1.199896e+003
1.104921e+003, 1.201340e+003
1.105403e+003, 1.202198e+003
1.105885e+003, 1.201256e+003
1.106367e+003, 1.199861e+003
1.106849e+003, 1.200748e+003
1.107332e+003, 1.203424e+003
1.107814e+003, 1.205070e+003
1.108296e+003, 1.205199e+003
1.108778e+003, 1.205473e+003
1.109260e+003, 1.207530e+003
1.109742e+003, 1.209557e+003
1.110224e+003, 1.210244e+003
1.110706e+003, 1.209868e+003
1.111188e+003, 1.209958e+003
1.111671e+003, 1.210512e+003
1.112153e+003, 1.210981e+003
1.112635e+003, 1.210888e+003
1.113117e+003, 1.211398e+003
1.113599e+003, 1.214501e+003
1.114081e+003, 1.218396e+003
1.114563e+003, 1.220829e+003
1.115045e+003, 1.221282e+003
1.115528e+003, 1.221904e+003
1.116010e+003, 1.222842e+003
1.116492e+003, 1.223316e+003
1.116974e+003, 1.222240e+003
1.117456e+003, 1.221024e+003
1.117938e+003, 1.222733e+003
1.118420e+003, 1.225957e+003
1.118902e+003, 1.227662e+003
1.119385e+003, 1.224957e+003
1.119867e+003, 1.223865e+003
1.120349e+003, 1.225311e+003
1.120831e+003, 1.227158e+003
1.121313e+003, 1.227126e+003
1.121795e+003, 1.226002e+003
1.122277e+003, 1.226017e+003
1.122759e+003, 1.227158e+003
1.123241e+003, 1.228896e+003
1.123724e+003, 1.232381e+003
1.124206e+003, 1.234550e+003
1.124688e+003, 1.233926e+003
1.125170e+003, 1.232205e+003
1.125652e+003, 1.232199e+003
1.126134e+003, 1.233595e+003
1.126616e+003, 1.234198e+003
1.127098e+003, 1.233725e+003
1.127580e+003, 1.233127e+003
1.128063e+003, 1.233153e+003
1.128545e+003, 1.233162e+003
1.129027e+003, 1.232668e+003
1.129509e+003, 1.231856e+003
1.129991e+003, 1.231577e+003
1.130473e+003, 1.231873e+003
1.130955e+003, 1.230896e+003
1.131437e+003, 1.227676e+003
1.131920e+003, 1.225081e+003
1.132402e+003, 1.226550e+003
1.132884e+003, 1.229469e+003
1.133366e+003, 1.231256e+003
1.133848e+003, 1.231612e+003
1.134330e+003, 1.232331e+003
1.134812e+003, 1.233542e+003
1.135294e+003, 1.234280e+003
1.135776e+003, 1.233654e+003
1.136259e+003, 1.233061e+003
1.136741e+003, 1.234606e+003
1.137223e+003, 1.237364e+003
1.137705e+003, 1.240057e+003
1.138187e+003, 1.243095e+003
1.138669e+003, 1.243853e+003
1.139151e+003, 1.241274e+003
1.139633e+003, 1.239107e+003
1.140115e+003, 1.240371e+003
1.140598e+003, 1.243534e+003
1.141080e+003, 1.245543e+003
1.141562e+003, 1.246734e+003
1.142044e+003, 1.248100e+003
1.142526e+003, 1.250587e+003
1.143008e+003, 1.252336e+003
1.143490e+003, 1.252813e+003
1.143972e+003, 1.253097e+003
1.144455e+003, 1.254398e+003
1.144937e+003, 1.256387e+003
1.145419e+003, 1.258133e+003
1.145901e+003, 1.259545e+003
1.146383e+003, 1.260393e+003
1.146865e+003, 1.260148e+003
1.147347e+003, 1.259771e+003
1.147829e+003, 1.259253e+003
1.148312e+003, 1.259058e+003
1.148794e+003, 1.260374e+003
1.149276e+003, 1.262845e+003
1.149758e+003, 1.263779e+003
1.150240e+003, 1.262838e+003
1.150722e+003, 1.261910e+003
1.151204e+003, 1.262360e+003
1.151686e+003, 1.263004e+003
1.152168e+003, 1.263240e+003
1.152651e+003, 1.263136e+003
1.153133e+003, 1.262904e+003
1.153615e+003, 1.262539e+003
1.154097e+003, 1.261895e+003
1.154579e+003, 1.260892e+003
1.155061e+003, 1.259893e+003
1.155543e+003, 1.259196e+003
1.156025e+003, 1.258622e+003
1.156507e+003, 1.257986e+003
1.156990e+003, 1.257305e+003
1.157472e+003, 1.256864e+003
1.157954e+003, 1.256670e+003
1.158436e+003, 1.256743e+003
1.158918e+003, 1.257266e+003
1.159400e+003, 1.257653e+003
1.159882e+003, 1.257246e+003
1.160364e+003, 1.256415e+003
1.160847e+003, 1.255465e+003
1.161329e+003, 1.254318e+003
1.161811e+003, 1.253959e+003
1.162293e+003, 1.254520e+003
1.162775e+003, 1.255037e+003
1.163257e+003, 1.254809e+003
1.163739e+003, 1.254518e+003
1.164221e+003, 1.255167e+003
1.164703e+003, 1.256298e+003
1.165186e+003, 1.257159e+003
1.165668e+003, 1.257618e+003
1.166150e+003, 1.257719e+003
1.166632e+003, 1.257435e+003
1.167114e+003, 1.256858e+003
1.167596e+003, 1.255499e+003
1.168078e+003, 1.254229e+003
1.168560e+003, 1.254922e+003
1.169042e+003, 1.256879e+003
1.169525e+003, 1.258227e+003
1.170007e+003, 1.258373e+003
1.170489e+003, 1.257912e+003
1.170971e+003, 1.256552e+003
1.171453e+003, 1.255428e+003
1.171935e+003, 1.255922e+003
1.172417e+003, 1.257294e+003
1.172899e+003, 1.258125e+003
1.173382e+003, 1.258463e+003
1.173864e+003, 1.258804e+003
1.174346e+003, 1.259018e+003
1.174828e+003, 1.259760e+003
1.175310e+003, 1.261344e+003
1.175792e+003, 1.263075e+003
1.176274e+003, 1.264274e+003
1.176756e+003, 1.264879e+003
1.177239e+003, 1.264405e+003
1.177721e+003, 1.262940e+003
1.178203e+003, 1.262202e+003
1.178685e+003, 1.263779e+003
1.179167e+003, 1.264920e+003
1.179649e+003, 1.264695e+003
1.180131e+003, 1.264052e+003
1.180613e+003, 1.264716e+003
1.181095e+003, 1.266370e+003
1.181578e+003, 1.268251e+003
1.182060e+003, 1.270288e+003
1.182542e+003, 1.271921e+003
1.183024e+003, 1.272750e+003
1.183506e+003, 1.273304e+003
1.183988e+003, 1.273755e+003
1.184470e+003, 1.274105e+003
1.184952e+003, 1.274312e+003
1.185434e+003, 1.274421e+003
1.185917e+003, 1.274623e+003
1.186399e+003, 1.275025e+003
1.186881e+003, 1.275202e+003
1.187363e+003, 1.274044e+003
1.187845e+003, 1.273671e+003
1.188327e+003, 1.275428e+003
1.188809e+003, 1.278580e+003
1.189291e+003, 1.280378e+003
1.189774e+003, 1.281043e+003
1.190256e+003, 1.281776e+003
1.190738e+003, 1.283252e+003
1.191220e+003, 1.283957e+003
1.191702e+003, 1.282143e+003
1.192184e+003, 1.280272e+003
1.192666e+003, 1.279903e+003
1.193148e+003, 1.280842e+003
1.193630e+003, 1.282065e+003
1.194113e+003, 1.283471e+003
1.194595e+003, 1.284427e+003
1.195077e+003, 1.284322e+003
1.195559e+003, 1.284365e+003
1.196041e+003, 1.285648e+003
1.196523e+003, 1.286900e+003
1.197005e+003, 1.286965e+003
1.197487e+003, 1.285956e+003
1.197969e+003, 1.285715e+003
1.198452e+003, 1.286195e+003
1.198934e+003, 1.287000e+003
1.199416e+003, 1.288451e+003
1.199898e+003, 1.289501e+003
1.200380e+003, 1.289201e+003
1.200862e+003, 1.288577e+003
1.201344e+003, 1.288687e+003
1.201826e+003, 1.289531e+003
1.202309e+003, 1.289867e+003
1.202791e+003, 1.289766e+003
1.203273e+003, 1.290086e+003
1.203755e+003, 1.292048e+003
1.204237e+003, 1.293745e+003
1.204719e+003, 1.293704e+003
1.205201e+003, 1.293161e+003
1.205683e+003, 1.293576e+003
1.206166e+003, 1.294923e+003
1.206648e+003, 1.296583e+003
1.207130e+003, 1.298464e+003
1.207612e+003, 1.299826e+003
1.208094e+003, 1.299607e+003
1.208576e+003, 1.299343e+003
1.209058e+003, 1.300016e+003
1.209540e+003, 1.301061e+003
1.210022e+003, 1.301716e+003
1.210505e+003, 1.302000e+003
1.210987e+003, 1.302145e+003
1.211469e+003, 1.302179e+003
1.211951e+003, 1.302232e+003
1.212433e+003, 1.302439e+003
1.212915e+003, 1.302659e+003
1.213397e+003, 1.302677e+003
1.213879e+003, 1.302746e+003
1.214361e+003, 1.303409e+003
1.214844e+003, 1.304616e+003
1.215326e+003, 1.305481e+003
1.215808e+003, 1.305896e+003
1.216290e+003, 1.306449e+003
1.216772e+003, 1.308244e+003
1.217254e+003, 1.309486e+003
1.217736e+003, 1.308292e+003
1.218218e+003, 1.306336e+003
1.218701e+003, 1.307663e+003
1.219183e+003, 1.311889e+003
1.219665e+003, 1.314580e+003
1.220147e+003, 1.314993e+003
1.220629e+003, 1.314889e+003
1.221111e+003, 1.314983e+003
1.221593e+003, 1.315331e+003
1.222075e+003, 1.316109e+003
1.222557e+003, 1.317064e+003
1.223040e+003, 1.317504e+003
1.223522e+003, 1.317508e+003
1.224004e+003, 1.317546e+003
1.224486e+003, 1.317667e+003
1.224968e+003, 1.318333e+003
1.225450e+003, 1.320831e+003
1.225932e+003, 1.322852e+003
1.226414e+003, 1.323027e+003
1.226896e+003, 1.322039e+003
1.227379e+003, 1.321879e+003
1.227861e+003, 1.322433e+003
1.228343e+003, 1.323078e+003
1.228825e+003, 1.323699e+003
1.229307e+003, 1.324258e+003
1.229789e+003, 1.324696e+003
1.230271e+003, 1.325064e+003
1.230753e+003, 1.325236e+003
1.231236e+003, 1.325424e+003
1.231718e+003, 1.326732e+003
1.232200e+003, 1.328734e+003
1.232682e+003, 1.329567e+003
1.233164e+003, 1.328541e+003
1.233646e+003, 1.327403e+003
1.234128e+003, 1.326073e+003
1.234610e+003, 1.326054e+003
1.235093e+003, 1.328740e+003
1.235575e+003, 1.332797e+003
1.236057e+003, 1.333598e+003
1.236539e+003, 1.332014e+003
1.237021e+003, 1.330836e+003
1.237503e+003, 1.330904e+003
1.237985e+003, 1.331231e+003
1.238467e+003, 1.331808e+003
1.238949e+003, 1.332091e+003
1.239432e+003, 1.331574e+003
1.239914e+003, 1.330762e+003
1.240396e+003, 1.331329e+003
1.240878e+003, 1.332875e+003
1.241360e+003, 1.334309e+003
1.241842e+003, 1.335340e+003
1.242324e+003, 1.336202e+003
1.242806e+003, 1.336927e+003
1.243288e+003, 1.337584e+003
1.243771e+003, 1.338297e+003
1.244253e+003, 1.338906e+003
1.244735e+003, 1.338661e+003
1.245217e+003, 1.338055e+003
1.245699e+003, 1.338362e+003
1.246181e+003, 1.340536e+003
1.246663e+003, 1.341817e+003
1.247145e+003, 1.341352e+003
1.247628e+003, 1.341286e+003
1.248110e+003, 1.343161e+003
1.248592e+003, 1.345802e+003
1.249074e+003, 1.346533e+003
1.249556e+003, 1.346156e+003
1.250038e+003, 1.346227e+003
1.250520e+003, 1.347140e+003
1.251002e+003, 1.348762e+003
1.251484e+003, 1.351504e+003
1.251967e+003, 1.353571e+003
1.252449e+003, 1.353633e+003
1.252931e+003, 1.352687e+003
1.253413e+003, 1.351946e+003
1.253895e+003, 1.351486e+003
1.254377e+003, 1.351469e+003
1.254859e+003, 1.351981e+003
1.255341e+003, 1.352876e+003
1.255823e+003, 1.354252e+003
1.256306e+003, 1.355509e+003
1.256788e+003, 1.356245e+003
1.257270e+003, 1.356722e+003
1.257752e+003, 1.357003e+003
1.258234e+003, 1.357347e+003
1.258716e+003, 1.358260e+003
1.259198e+003, 1.360011e+003
1.259680e+003, 1.361608e+003
1.260163e+003, 1.363169e+003
1.260645e+003, 1.363585e+003
1.261127e+003, 1.361190e+003
1.261609e+003, 1.358714e+003
1.262091e+003, 1.359040e+003
1.262573e+003, 1.360618e+003
1.263055e+003, 1.361144e+003
1.263537e+003, 1.360253e+003
1.264020e+003, 1.360874e+003
1.264502e+003, 1.362975e+003
1.264984e+003, 1.364702e+003
1.265466e+003, 1.364549e+003
1.265948e+003, 1.364165e+003
1.266430e+003, 1.364378e+003
1.266912e+003, 1.365098e+003
1.267394e+003, 1.366430e+003
1.267876e+003, 1.368374e+003
1.268359e+003, 1.368705e+003
1.268841e+003, 1.367623e+003
1.269323e+003, 1.366956e+003
1.269805e+003, 1.368337e+003
1.270287e+003, 1.369492e+003
1.270769e+003, 1.369030e+003
1.271251e+003, 1.368262e+003
1.271733e+003, 1.368069e+003
1.272215e+003, 1.368478e+003
1.272698e+003, 1.370182e+003
1.273180e+003, 1.372778e+003
1.273662e+003, 1.374284e+003
1.274144e+003, 1.372848e+003
1.274626e+003, 1.371592e+003
1.275108e+003, 1.371180e+003
1.275590e+003, 1.371125e+003
1.276072e+003, 1.370980e+003
1.276555e+003, 1.370903e+003
1.277037e+003, 1.371631e+003
1.277519e+003, 1.372884e+003
1.278001e+003, 1.373850e+003
1.278483e+003, 1.373487e+003
1.278965e+003, 1.374046e+003
1.279447e+003, 1.375953e+003
1.279929e+003, 1.377967e+003
1.280411e+003, 1.379161e+003
1.280894e+003, 1.379781e+003
1.281376e+003, 1.380113e+003
1.281858e+003, 1.380275e+003
1.282340e+003, 1.380553e+003
1.282822e+003, 1.381160e+003
1.283304e+003, 1.381508e+003
1.283786e+003, 1.381486e+003
1.284268e+003, 1.381805e+003
1.284750e+003, 1.383399e+003
1.285233e+003, 1.385224e+003
1.285715e+003, 1.386043e+003
1.286197e+003, 1.386231e+003
1.286679e+003, 1.386282e+003
1.287161e+003, 1.385802e+003
1.287643e+003, 1.387416e+003
1.288125e+003, 1.391211e+003
1.288607e+003, 1.394476e+003
1.289090e+003, 1.394995e+003
1.289572e+003, 1.394891e+003
1.290054e+003, 1.395814e+003
1.290536e+003, 1.396823e+003
1.291018e+003, 1.396543e+003
1.291500e+003, 1.394875e+003
1.291982e+003, 1.394990e+003
1.292464e+003, 1.396706e+003
1.292947e+003, 1.398366e+003
1.293429e+003, 1.399357e+003
1.293911e+003, 1.399806e+003
1.294393e+003, 1.399548e+003
1.294875e+003, 1.399017e+003
1.295357e+003, 1.398313e+003
1.295839e+003, 1.397557e+003
1.296321e+003, 1.397799e+003
1.296803e+003, 1.398809e+003
1.297286e+003, 1.399621e+003
1.297768e+003, 1.399293e+003
1.298250e+003, 1.399808e+003
1.298732e+003, 1.401895e+003
1.299214e+003, 1.403999e+003
1.299696e+003, 1.404749e+003
1.300178e+003, 1.404786e+003
1.300660e+003, 1.405875e+003
##END=



