##NAMES=Mozartite
##RRUFFID=R180002
##IDEAL CHEMISTRY=CaMn^3+^SiO_4_(OH)
##LOCALITY=N'Chwaning III mine, Kalahari manganese field, Northern Cape Province, South Africa
##OWNER=RRUFF
##SOURCE=Ludi von Bezing
##DESCRIPTION=Red granular or pseudo-rhombohedral crystals, associated with colorless elongated celestine, calcite, and quartz (two pieces)
##STATUS=The identification of this mineral has been confirmed only by single crystal X-ray diffraction.
##URL=rruff.info/R180002
8.758203e+001, 5.760461e+002
8.806415e+001, 5.750162e+002
8.854626e+001, 5.748682e+002
8.902838e+001, 5.759876e+002
8.951050e+001, 5.773856e+002
8.999261e+001, 5.788080e+002
9.047473e+001, 5.801951e+002
9.095685e+001, 5.814122e+002
9.143896e+001, 5.822928e+002
9.192108e+001, 5.828257e+002
9.240320e+001, 5.833777e+002
9.288531e+001, 5.772858e+002
9.336743e+001, 5.610786e+002
9.384955e+001, 5.376768e+002
9.433167e+001, 5.154018e+002
9.481378e+001, 4.936410e+002
9.529590e+001, 4.753388e+002
9.577802e+001, 4.599914e+002
9.626013e+001, 4.467500e+002
9.674225e+001, 4.351204e+002
9.722437e+001, 4.248474e+002
9.770648e+001, 4.156866e+002
9.818860e+001, 4.080092e+002
9.867072e+001, 4.007805e+002
9.915283e+001, 3.933183e+002
9.963495e+001, 3.855487e+002
1.001171e+002, 3.780248e+002
1.005992e+002, 3.715388e+002
1.010813e+002, 3.661555e+002
1.015634e+002, 3.613657e+002
1.020455e+002, 3.567917e+002
1.025277e+002, 3.525505e+002
1.030098e+002, 3.486613e+002
1.034919e+002, 3.451108e+002
1.039740e+002, 3.419599e+002
1.044561e+002, 3.395203e+002
1.049382e+002, 3.394160e+002
1.054204e+002, 3.381193e+002
1.059025e+002, 3.347894e+002
1.063846e+002, 3.300145e+002
1.068667e+002, 3.246546e+002
1.073488e+002, 3.190272e+002
1.078309e+002, 3.133381e+002
1.083131e+002, 3.090318e+002
1.087952e+002, 3.068624e+002
1.092773e+002, 3.051432e+002
1.097594e+002, 3.029715e+002
1.102415e+002, 3.003291e+002
1.107236e+002, 2.976590e+002
1.112058e+002, 2.951640e+002
1.116879e+002, 2.929101e+002
1.121700e+002, 2.911299e+002
1.126521e+002, 2.902718e+002
1.131342e+002, 2.898232e+002
1.136163e+002, 2.889052e+002
1.140985e+002, 2.873187e+002
1.145806e+002, 2.856001e+002
1.150627e+002, 2.841924e+002
1.155448e+002, 2.829653e+002
1.160269e+002, 2.815760e+002
1.165090e+002, 2.797332e+002
1.169912e+002, 2.774507e+002
1.174733e+002, 2.752318e+002
1.179554e+002, 2.727688e+002
1.184375e+002, 2.706662e+002
1.189196e+002, 2.691840e+002
1.194017e+002, 2.683125e+002
1.198839e+002, 2.678882e+002
1.203660e+002, 2.678617e+002
1.208481e+002, 2.686888e+002
1.213302e+002, 2.687052e+002
1.218123e+002, 2.676976e+002
1.222944e+002, 2.662158e+002
1.227766e+002, 2.644207e+002
1.232587e+002, 2.624189e+002
1.237408e+002, 2.604273e+002
1.242229e+002, 2.588728e+002
1.247050e+002, 2.580670e+002
1.251871e+002, 2.573348e+002
1.256693e+002, 2.566540e+002
1.261514e+002, 2.560436e+002
1.266335e+002, 2.555411e+002
1.271156e+002, 2.551660e+002
1.275977e+002, 2.548930e+002
1.280798e+002, 2.546709e+002
1.285620e+002, 2.546778e+002
1.290441e+002, 2.544753e+002
1.295262e+002, 2.538093e+002
1.300083e+002, 2.527583e+002
1.304904e+002, 2.516412e+002
1.309725e+002, 2.505674e+002
1.314547e+002, 2.495664e+002
1.319368e+002, 2.486731e+002
1.324189e+002, 2.478957e+002
1.329010e+002, 2.472229e+002
1.333831e+002, 2.466862e+002
1.338652e+002, 2.463188e+002
1.343474e+002, 2.459183e+002
1.348295e+002, 2.452765e+002
1.353116e+002, 2.445757e+002
1.357937e+002, 2.440220e+002
1.362758e+002, 2.437304e+002
1.367579e+002, 2.436084e+002
1.372401e+002, 2.434676e+002
1.377222e+002, 2.435516e+002
1.382043e+002, 2.431762e+002
1.386864e+002, 2.419951e+002
1.391685e+002, 2.403014e+002
1.396507e+002, 2.385115e+002
1.401328e+002, 2.369010e+002
1.406149e+002, 2.354570e+002
1.410970e+002, 2.339990e+002
1.415791e+002, 2.323625e+002
1.420612e+002, 2.308701e+002
1.425434e+002, 2.296652e+002
1.430255e+002, 2.286944e+002
1.435076e+002, 2.277987e+002
1.439897e+002, 2.268288e+002
1.444718e+002, 2.257535e+002
1.449539e+002, 2.247969e+002
1.454361e+002, 2.239612e+002
1.459182e+002, 2.232077e+002
1.464003e+002, 2.225052e+002
1.468824e+002, 2.218546e+002
1.473645e+002, 2.212805e+002
1.478466e+002, 2.207892e+002
1.483288e+002, 2.203500e+002
1.488109e+002, 2.202281e+002
1.492930e+002, 2.206399e+002
1.497751e+002, 2.212742e+002
1.502572e+002, 2.218086e+002
1.507393e+002, 2.221665e+002
1.512215e+002, 2.224584e+002
1.517036e+002, 2.227879e+002
1.521857e+002, 2.231334e+002
1.526678e+002, 2.236526e+002
1.531499e+002, 2.246641e+002
1.536320e+002, 2.258978e+002
1.541142e+002, 2.266137e+002
1.545963e+002, 2.264020e+002
1.550784e+002, 2.259375e+002
1.555605e+002, 2.259499e+002
1.560426e+002, 2.264338e+002
1.565247e+002, 2.270338e+002
1.570069e+002, 2.275524e+002
1.574890e+002, 2.279898e+002
1.579711e+002, 2.283243e+002
1.584532e+002, 2.284702e+002
1.589353e+002, 2.285656e+002
1.594174e+002, 2.287004e+002
1.598996e+002, 2.288862e+002
1.603817e+002, 2.290756e+002
1.608638e+002, 2.292888e+002
1.613459e+002, 2.296523e+002
1.618280e+002, 2.295826e+002
1.623102e+002, 2.285566e+002
1.627923e+002, 2.273820e+002
1.632744e+002, 2.266899e+002
1.637565e+002, 2.266371e+002
1.642386e+002, 2.267908e+002
1.647207e+002, 2.263182e+002
1.652029e+002, 2.248459e+002
1.656850e+002, 2.232829e+002
1.661671e+002, 2.216251e+002
1.666492e+002, 2.199621e+002
1.671313e+002, 2.184399e+002
1.676134e+002, 2.171279e+002
1.680956e+002, 2.158345e+002
1.685777e+002, 2.139940e+002
1.690598e+002, 2.107708e+002
1.695419e+002, 2.079377e+002
1.700240e+002, 2.059669e+002
1.705061e+002, 2.043861e+002
1.709883e+002, 2.025149e+002
1.714704e+002, 1.999983e+002
1.719525e+002, 1.969863e+002
1.724346e+002, 1.941024e+002
1.729167e+002, 1.912680e+002
1.733988e+002, 1.885837e+002
1.738810e+002, 1.861840e+002
1.743631e+002, 1.839777e+002
1.748452e+002, 1.817158e+002
1.753273e+002, 1.792347e+002
1.758094e+002, 1.766321e+002
1.762915e+002, 1.743158e+002
1.767737e+002, 1.724769e+002
1.772558e+002, 1.706790e+002
1.777379e+002, 1.686245e+002
1.782200e+002, 1.663413e+002
1.787021e+002, 1.640536e+002
1.791842e+002, 1.619159e+002
1.796664e+002, 1.598404e+002
1.801485e+002, 1.576324e+002
1.806306e+002, 1.551235e+002
1.811127e+002, 1.526339e+002
1.815948e+002, 1.505709e+002
1.820769e+002, 1.489882e+002
1.825591e+002, 1.475251e+002
1.830412e+002, 1.459429e+002
1.835233e+002, 1.443936e+002
1.840054e+002, 1.430942e+002
1.844875e+002, 1.422633e+002
1.849696e+002, 1.415641e+002
1.854518e+002, 1.403000e+002
1.859339e+002, 1.381523e+002
1.864160e+002, 1.361569e+002
1.868981e+002, 1.347841e+002
1.873802e+002, 1.337249e+002
1.878623e+002, 1.326117e+002
1.883445e+002, 1.312346e+002
1.888266e+002, 1.297296e+002
1.893087e+002, 1.285896e+002
1.897908e+002, 1.280203e+002
1.902729e+002, 1.275540e+002
1.907550e+002, 1.272024e+002
1.912372e+002, 1.268433e+002
1.917193e+002, 1.263140e+002
1.922014e+002, 1.255072e+002
1.926835e+002, 1.244634e+002
1.931656e+002, 1.234610e+002
1.936477e+002, 1.223790e+002
1.941299e+002, 1.214869e+002
1.946120e+002, 1.209825e+002
1.950941e+002, 1.206869e+002
1.955762e+002, 1.202937e+002
1.960583e+002, 1.195741e+002
1.965404e+002, 1.185623e+002
1.970226e+002, 1.178873e+002
1.975047e+002, 1.178566e+002
1.979868e+002, 1.178147e+002
1.984689e+002, 1.174945e+002
1.989510e+002, 1.170116e+002
1.994331e+002, 1.166819e+002
1.999153e+002, 1.167605e+002
2.003974e+002, 1.172282e+002
2.008795e+002, 1.173596e+002
2.013616e+002, 1.170056e+002
2.018437e+002, 1.165420e+002
2.023258e+002, 1.160600e+002
2.028080e+002, 1.155896e+002
2.032901e+002, 1.152061e+002
2.037722e+002, 1.149990e+002
2.042543e+002, 1.149388e+002
2.047364e+002, 1.146595e+002
2.052185e+002, 1.140251e+002
2.057007e+002, 1.133068e+002
2.061828e+002, 1.126263e+002
2.066649e+002, 1.119968e+002
2.071470e+002, 1.114728e+002
2.076291e+002, 1.111471e+002
2.081112e+002, 1.109690e+002
2.085934e+002, 1.106711e+002
2.090755e+002, 1.102103e+002
2.095576e+002, 1.096479e+002
2.100397e+002, 1.089949e+002
2.105218e+002, 1.082458e+002
2.110039e+002, 1.075398e+002
2.114861e+002, 1.069699e+002
2.119682e+002, 1.065115e+002
2.124503e+002, 1.061094e+002
2.129324e+002, 1.057830e+002
2.134145e+002, 1.054906e+002
2.138967e+002, 1.051651e+002
2.143788e+002, 1.047862e+002
2.148609e+002, 1.044657e+002
2.153430e+002, 1.044001e+002
2.158251e+002, 1.044006e+002
2.163072e+002, 1.042157e+002
2.167894e+002, 1.037100e+002
2.172715e+002, 1.030271e+002
2.177536e+002, 1.024015e+002
2.182357e+002, 1.018419e+002
2.187178e+002, 1.013180e+002
2.191999e+002, 1.008029e+002
2.196821e+002, 1.003138e+002
2.201642e+002, 9.987160e+001
2.206463e+002, 9.947674e+001
2.211284e+002, 9.914519e+001
2.216105e+002, 9.893263e+001
2.220926e+002, 9.893358e+001
2.225748e+002, 9.886456e+001
2.230569e+002, 9.857134e+001
2.235390e+002, 9.819900e+001
2.240211e+002, 9.792036e+001
2.245032e+002, 9.783015e+001
2.249853e+002, 9.784425e+001
2.254675e+002, 9.770002e+001
2.259496e+002, 9.719283e+001
2.264317e+002, 9.686785e+001
2.269138e+002, 9.687318e+001
2.273959e+002, 9.708005e+001
2.278780e+002, 9.739942e+001
2.283602e+002, 9.780351e+001
2.288423e+002, 9.820523e+001
2.293244e+002, 9.831406e+001
2.298065e+002, 9.786900e+001
2.302886e+002, 9.746404e+001
2.307707e+002, 9.703214e+001
2.312529e+002, 9.672502e+001
2.317350e+002, 9.678391e+001
2.322171e+002, 9.733231e+001
2.326992e+002, 9.815865e+001
2.331813e+002, 9.857628e+001
2.336634e+002, 9.796735e+001
2.341456e+002, 9.767155e+001
2.346277e+002, 9.793336e+001
2.351098e+002, 9.850338e+001
2.355919e+002, 9.913139e+001
2.360740e+002, 9.970480e+001
2.365561e+002, 1.002096e+002
2.370383e+002, 1.006026e+002
2.375204e+002, 1.008320e+002
2.380025e+002, 1.009984e+002
2.384846e+002, 1.010715e+002
2.389667e+002, 1.010971e+002
2.394488e+002, 1.010913e+002
2.399310e+002, 1.010571e+002
2.404131e+002, 1.010702e+002
2.408952e+002, 1.013322e+002
2.413773e+002, 1.021044e+002
2.418594e+002, 1.027700e+002
2.423415e+002, 1.031467e+002
2.428237e+002, 1.034237e+002
2.433058e+002, 1.038832e+002
2.437879e+002, 1.046456e+002
2.442700e+002, 1.055216e+002
2.447521e+002, 1.061096e+002
2.452342e+002, 1.063561e+002
2.457164e+002, 1.064476e+002
2.461985e+002, 1.061773e+002
2.466806e+002, 1.058341e+002
2.471627e+002, 1.058890e+002
2.476448e+002, 1.065361e+002
2.481269e+002, 1.073947e+002
2.486091e+002, 1.077646e+002
2.490912e+002, 1.075165e+002
2.495733e+002, 1.073363e+002
2.500554e+002, 1.074538e+002
2.505375e+002, 1.076934e+002
2.510196e+002, 1.077634e+002
2.515018e+002, 1.075638e+002
2.519839e+002, 1.072945e+002
2.524660e+002, 1.072830e+002
2.529481e+002, 1.075440e+002
2.534302e+002, 1.077417e+002
2.539123e+002, 1.077789e+002
2.543945e+002, 1.077081e+002
2.548766e+002, 1.075695e+002
2.553587e+002, 1.073405e+002
2.558408e+002, 1.071608e+002
2.563229e+002, 1.072840e+002
2.568051e+002, 1.076648e+002
2.572872e+002, 1.079451e+002
2.577693e+002, 1.079968e+002
2.582514e+002, 1.078935e+002
2.587335e+002, 1.077449e+002
2.592156e+002, 1.075613e+002
2.596978e+002, 1.073444e+002
2.601799e+002, 1.071396e+002
2.606620e+002, 1.069189e+002
2.611441e+002, 1.065379e+002
2.616262e+002, 1.057815e+002
2.621083e+002, 1.048882e+002
2.625905e+002, 1.042630e+002
2.630726e+002, 1.039884e+002
2.635547e+002, 1.037820e+002
2.640368e+002, 1.034326e+002
2.645189e+002, 1.029924e+002
2.650010e+002, 1.025604e+002
2.654832e+002, 1.022272e+002
2.659653e+002, 1.018993e+002
2.664474e+002, 1.013905e+002
2.669295e+002, 1.006452e+002
2.674116e+002, 9.993385e+001
2.678937e+002, 9.951991e+001
2.683759e+002, 9.923091e+001
2.688580e+002, 9.881650e+001
2.693401e+002, 9.814149e+001
2.698222e+002, 9.736235e+001
2.703043e+002, 9.668707e+001
2.707864e+002, 9.611401e+001
2.712686e+002, 9.565417e+001
2.717507e+002, 9.551546e+001
2.722328e+002, 9.542149e+001
2.727149e+002, 9.502098e+001
2.731970e+002, 9.410950e+001
2.736791e+002, 9.308938e+001
2.741613e+002, 9.256431e+001
2.746434e+002, 9.263884e+001
2.751255e+002, 9.264372e+001
2.756076e+002, 9.223850e+001
2.760897e+002, 9.169500e+001
2.765718e+002, 9.119842e+001
2.770540e+002, 9.078589e+001
2.775361e+002, 9.044715e+001
2.780182e+002, 9.021706e+001
2.785003e+002, 9.013000e+001
2.789824e+002, 8.991563e+001
2.794645e+002, 8.938436e+001
2.799467e+002, 8.877288e+001
2.804288e+002, 8.826501e+001
2.809109e+002, 8.788510e+001
2.813930e+002, 8.746549e+001
2.818751e+002, 8.676052e+001
2.823572e+002, 8.573251e+001
2.828394e+002, 8.490395e+001
2.833215e+002, 8.459761e+001
2.838036e+002, 8.432607e+001
2.842857e+002, 8.373747e+001
2.847678e+002, 8.286426e+001
2.852499e+002, 8.205225e+001
2.857321e+002, 8.172240e+001
2.862142e+002, 8.189366e+001
2.866963e+002, 8.176326e+001
2.871784e+002, 8.109233e+001
2.876605e+002, 8.028741e+001
2.881426e+002, 7.949744e+001
2.886248e+002, 7.873502e+001
2.891069e+002, 7.799841e+001
2.895890e+002, 7.725811e+001
2.900711e+002, 7.652216e+001
2.905532e+002, 7.595309e+001
2.910353e+002, 7.573649e+001
2.915175e+002, 7.545580e+001
2.919996e+002, 7.487780e+001
2.924817e+002, 7.412644e+001
2.929638e+002, 7.343259e+001
2.934459e+002, 7.291330e+001
2.939280e+002, 7.256817e+001
2.944102e+002, 7.245096e+001
2.948923e+002, 7.284176e+001
2.953744e+002, 7.301141e+001
2.958565e+002, 7.262291e+001
2.963386e+002, 7.195375e+001
2.968207e+002, 7.137357e+001
2.973029e+002, 7.107998e+001
2.977850e+002, 7.092545e+001
2.982671e+002, 7.049973e+001
2.987492e+002, 6.955116e+001
2.992313e+002, 6.884877e+001
2.997134e+002, 6.875373e+001
3.001956e+002, 6.885275e+001
3.006777e+002, 6.873611e+001
3.011598e+002, 6.826063e+001
3.016419e+002, 6.767226e+001
3.021240e+002, 6.744686e+001
3.026061e+002, 6.780170e+001
3.030883e+002, 6.789883e+001
3.035704e+002, 6.736824e+001
3.040525e+002, 6.672121e+001
3.045346e+002, 6.625581e+001
3.050167e+002, 6.604147e+001
3.054988e+002, 6.601777e+001
3.059810e+002, 6.618218e+001
3.064631e+002, 6.661790e+001
3.069452e+002, 6.685125e+001
3.074273e+002, 6.669781e+001
3.079094e+002, 6.645219e+001
3.083915e+002, 6.617986e+001
3.088737e+002, 6.592104e+001
3.093558e+002, 6.574810e+001
3.098379e+002, 6.576026e+001
3.103200e+002, 6.596921e+001
3.108021e+002, 6.612194e+001
3.112842e+002, 6.625338e+001
3.117664e+002, 6.628110e+001
3.122485e+002, 6.612012e+001
3.127306e+002, 6.583291e+001
3.132127e+002, 6.554224e+001
3.136948e+002, 6.531754e+001
3.141769e+002, 6.516294e+001
3.146591e+002, 6.511318e+001
3.151412e+002, 6.527611e+001
3.156233e+002, 6.539706e+001
3.161054e+002, 6.538078e+001
3.165875e+002, 6.529028e+001
3.170696e+002, 6.520428e+001
3.175518e+002, 6.515756e+001
3.180339e+002, 6.514769e+001
3.185160e+002, 6.517644e+001
3.189981e+002, 6.527577e+001
3.194802e+002, 6.534940e+001
3.199623e+002, 6.542899e+001
3.204445e+002, 6.545274e+001
3.209266e+002, 6.531548e+001
3.214087e+002, 6.498826e+001
3.218908e+002, 6.464053e+001
3.223729e+002, 6.452110e+001
3.228550e+002, 6.465598e+001
3.233372e+002, 6.493105e+001
3.238193e+002, 6.554477e+001
3.243014e+002, 6.613593e+001
3.247835e+002, 6.649702e+001
3.252656e+002, 6.660608e+001
3.257477e+002, 6.657592e+001
3.262299e+002, 6.646818e+001
3.267120e+002, 6.626419e+001
3.271941e+002, 6.617692e+001
3.276762e+002, 6.627782e+001
3.281583e+002, 6.644247e+001
3.286404e+002, 6.666762e+001
3.291226e+002, 6.691729e+001
3.296047e+002, 6.710550e+001
3.300868e+002, 6.711950e+001
3.305689e+002, 6.700758e+001
3.310510e+002, 6.711752e+001
3.315331e+002, 6.762973e+001
3.320153e+002, 6.810128e+001
3.324974e+002, 6.831087e+001
3.329795e+002, 6.839698e+001
3.334616e+002, 6.858152e+001
3.339437e+002, 6.900552e+001
3.344258e+002, 6.952231e+001
3.349080e+002, 6.972686e+001
3.353901e+002, 6.939463e+001
3.358722e+002, 6.934925e+001
3.363543e+002, 7.015097e+001
3.368365e+002, 7.116322e+001
3.373186e+002, 7.182220e+001
3.378007e+002, 7.196316e+001
3.382828e+002, 7.189494e+001
3.387649e+002, 7.198365e+001
3.392470e+002, 7.224749e+001
3.397292e+002, 7.252767e+001
3.402113e+002, 7.278139e+001
3.406934e+002, 7.305320e+001
3.411755e+002, 7.337019e+001
3.416576e+002, 7.373197e+001
3.421397e+002, 7.412402e+001
3.426219e+002, 7.452943e+001
3.431040e+002, 7.494935e+001
3.435861e+002, 7.539987e+001
3.440682e+002, 7.585318e+001
3.445503e+002, 7.638249e+001
3.450324e+002, 7.710075e+001
3.455146e+002, 7.792113e+001
3.459967e+002, 7.862539e+001
3.464788e+002, 7.904337e+001
3.469609e+002, 7.928279e+001
3.474430e+002, 7.959708e+001
3.479251e+002, 8.000007e+001
3.484073e+002, 8.044292e+001
3.488894e+002, 8.094876e+001
3.493715e+002, 8.146719e+001
3.498536e+002, 8.192769e+001
3.503357e+002, 8.228361e+001
3.508178e+002, 8.263590e+001
3.513000e+002, 8.316336e+001
3.517821e+002, 8.388280e+001
3.522642e+002, 8.445383e+001
3.527463e+002, 8.473376e+001
3.532284e+002, 8.482442e+001
3.537105e+002, 8.482091e+001
3.541927e+002, 8.472215e+001
3.546748e+002, 8.460249e+001
3.551569e+002, 8.451904e+001
3.556390e+002, 8.445962e+001
3.561211e+002, 8.437844e+001
3.566032e+002, 8.429313e+001
3.570854e+002, 8.413585e+001
3.575675e+002, 8.385497e+001
3.580496e+002, 8.345857e+001
3.585317e+002, 8.295652e+001
3.590138e+002, 8.225712e+001
3.594959e+002, 8.148625e+001
3.599781e+002, 8.085106e+001
3.604602e+002, 8.038103e+001
3.609423e+002, 7.994460e+001
3.614244e+002, 7.947266e+001
3.619065e+002, 7.896913e+001
3.623886e+002, 7.844209e+001
3.628708e+002, 7.790053e+001
3.633529e+002, 7.732884e+001
3.638350e+002, 7.668733e+001
3.643171e+002, 7.599170e+001
3.647992e+002, 7.535174e+001
3.652813e+002, 7.485395e+001
3.657635e+002, 7.440577e+001
3.662456e+002, 7.381736e+001
3.667277e+002, 7.306538e+001
3.672098e+002, 7.227647e+001
3.676919e+002, 7.139225e+001
3.681740e+002, 7.052419e+001
3.686562e+002, 6.993887e+001
3.691383e+002, 6.974116e+001
3.696204e+002, 6.963572e+001
3.701025e+002, 6.925947e+001
3.705846e+002, 6.860168e+001
3.710667e+002, 6.789950e+001
3.715489e+002, 6.707474e+001
3.720310e+002, 6.628520e+001
3.725131e+002, 6.570475e+001
3.729952e+002, 6.532843e+001
3.734773e+002, 6.500389e+001
3.739594e+002, 6.462846e+001
3.744416e+002, 6.420290e+001
3.749237e+002, 6.377977e+001
3.754058e+002, 6.338468e+001
3.758879e+002, 6.296567e+001
3.763700e+002, 6.246272e+001
3.768521e+002, 6.192201e+001
3.773343e+002, 6.144184e+001
3.778164e+002, 6.106582e+001
3.782985e+002, 6.077320e+001
3.787806e+002, 6.051984e+001
3.792627e+002, 6.032497e+001
3.797448e+002, 6.013726e+001
3.802270e+002, 6.001533e+001
3.807091e+002, 5.986501e+001
3.811912e+002, 5.954588e+001
3.816733e+002, 5.905182e+001
3.821554e+002, 5.856438e+001
3.826375e+002, 5.829336e+001
3.831197e+002, 5.829774e+001
3.836018e+002, 5.822866e+001
3.840839e+002, 5.799006e+001
3.845660e+002, 5.778425e+001
3.850481e+002, 5.774413e+001
3.855302e+002, 5.781525e+001
3.860124e+002, 5.785611e+001
3.864945e+002, 5.777453e+001
3.869766e+002, 5.758757e+001
3.874587e+002, 5.738380e+001
3.879408e+002, 5.717626e+001
3.884229e+002, 5.693157e+001
3.889051e+002, 5.654293e+001
3.893872e+002, 5.616540e+001
3.898693e+002, 5.597962e+001
3.903514e+002, 5.603850e+001
3.908335e+002, 5.621643e+001
3.913156e+002, 5.633944e+001
3.917978e+002, 5.645356e+001
3.922799e+002, 5.637951e+001
3.927620e+002, 5.590495e+001
3.932441e+002, 5.543570e+001
3.937262e+002, 5.523600e+001
3.942083e+002, 5.524937e+001
3.946905e+002, 5.519824e+001
3.951726e+002, 5.479158e+001
3.956547e+002, 5.409435e+001
3.961368e+002, 5.380790e+001
3.966189e+002, 5.425547e+001
3.971010e+002, 5.466516e+001
3.975832e+002, 5.483387e+001
3.980653e+002, 5.481659e+001
3.985474e+002, 5.466387e+001
3.990295e+002, 5.437986e+001
3.995116e+002, 5.404099e+001
3.999937e+002, 5.374316e+001
4.004759e+002, 5.346936e+001
4.009580e+002, 5.332888e+001
4.014401e+002, 5.347829e+001
4.019222e+002, 5.368150e+001
4.024043e+002, 5.375832e+001
4.028864e+002, 5.370507e+001
4.033686e+002, 5.367265e+001
4.038507e+002, 5.384019e+001
4.043328e+002, 5.413731e+001
4.048149e+002, 5.422813e+001
4.052970e+002, 5.400579e+001
4.057791e+002, 5.375235e+001
4.062613e+002, 5.363510e+001
4.067434e+002, 5.362688e+001
4.072255e+002, 5.369809e+001
4.077076e+002, 5.397132e+001
4.081897e+002, 5.419670e+001
4.086718e+002, 5.395682e+001
4.091540e+002, 5.327569e+001
4.096361e+002, 5.285750e+001
4.101182e+002, 5.314293e+001
4.106003e+002, 5.374714e+001
4.110824e+002, 5.397151e+001
4.115645e+002, 5.372874e+001
4.120467e+002, 5.348016e+001
4.125288e+002, 5.344252e+001
4.130109e+002, 5.352717e+001
4.134930e+002, 5.359853e+001
4.139751e+002, 5.363558e+001
4.144572e+002, 5.360281e+001
4.149394e+002, 5.342983e+001
4.154215e+002, 5.310959e+001
4.159036e+002, 5.289096e+001
4.163857e+002, 5.281567e+001
4.168678e+002, 5.281771e+001
4.173499e+002, 5.289960e+001
4.178321e+002, 5.303163e+001
4.183142e+002, 5.313037e+001
4.187963e+002, 5.315094e+001
4.192784e+002, 5.310274e+001
4.197605e+002, 5.301284e+001
4.202426e+002, 5.284426e+001
4.207248e+002, 5.268699e+001
4.212069e+002, 5.260018e+001
4.216890e+002, 5.250433e+001
4.221711e+002, 5.226281e+001
4.226532e+002, 5.186810e+001
4.231353e+002, 5.151318e+001
4.236175e+002, 5.145605e+001
4.240996e+002, 5.179815e+001
4.245817e+002, 5.191571e+001
4.250638e+002, 5.169005e+001
4.255459e+002, 5.139331e+001
4.260280e+002, 5.103631e+001
4.265102e+002, 5.069794e+001
4.269923e+002, 5.052369e+001
4.274744e+002, 5.061171e+001
4.279565e+002, 5.086995e+001
4.284386e+002, 5.098743e+001
4.289207e+002, 5.089099e+001
4.294029e+002, 5.077911e+001
4.298850e+002, 5.071600e+001
4.303671e+002, 5.062726e+001
4.308492e+002, 5.041366e+001
4.313313e+002, 5.007688e+001
4.318134e+002, 4.976303e+001
4.322956e+002, 4.963853e+001
4.327777e+002, 4.970728e+001
4.332598e+002, 4.978682e+001
4.337419e+002, 4.993267e+001
4.342241e+002, 5.000634e+001
4.347062e+002, 4.990124e+001
4.351883e+002, 4.969149e+001
4.356704e+002, 4.952023e+001
4.361525e+002, 4.946041e+001
4.366346e+002, 4.945457e+001
4.371168e+002, 4.941940e+001
4.375989e+002, 4.935431e+001
4.380810e+002, 4.926192e+001
4.385631e+002, 4.908104e+001
4.390452e+002, 4.892533e+001
4.395273e+002, 4.895823e+001
4.400095e+002, 4.920549e+001
4.404916e+002, 4.938648e+001
4.409737e+002, 4.929484e+001
4.414558e+002, 4.904265e+001
4.419379e+002, 4.887926e+001
4.424200e+002, 4.885204e+001
4.429022e+002, 4.879589e+001
4.433843e+002, 4.846498e+001
4.438664e+002, 4.796059e+001
4.443485e+002, 4.785244e+001
4.448306e+002, 4.865369e+001
4.453127e+002, 4.939253e+001
4.457949e+002, 4.937336e+001
4.462770e+002, 4.884523e+001
4.467591e+002, 4.849533e+001
4.472412e+002, 4.862062e+001
4.477233e+002, 4.898106e+001
4.482054e+002, 4.911873e+001
4.486876e+002, 4.888808e+001
4.491697e+002, 4.876473e+001
4.496518e+002, 4.888680e+001
4.501339e+002, 4.903642e+001
4.506160e+002, 4.899554e+001
4.510981e+002, 4.879486e+001
4.515803e+002, 4.867050e+001
4.520624e+002, 4.883648e+001
4.525445e+002, 4.925881e+001
4.530266e+002, 4.948172e+001
4.535087e+002, 4.929605e+001
4.539908e+002, 4.913852e+001
4.544730e+002, 4.903242e+001
4.549551e+002, 4.900108e+001
4.554372e+002, 4.909551e+001
4.559193e+002, 4.932173e+001
4.564014e+002, 4.958476e+001
4.568835e+002, 4.974803e+001
4.573657e+002, 4.978976e+001
4.578478e+002, 4.982621e+001
4.583299e+002, 4.985096e+001
4.588120e+002, 4.987857e+001
4.592941e+002, 4.994332e+001
4.597762e+002, 5.001563e+001
4.602584e+002, 5.002454e+001
4.607405e+002, 4.991270e+001
4.612226e+002, 4.973493e+001
4.617047e+002, 4.958953e+001
4.621868e+002, 4.946603e+001
4.626689e+002, 4.942851e+001
4.631511e+002, 4.960567e+001
4.636332e+002, 4.980927e+001
4.641153e+002, 4.984885e+001
4.645974e+002, 4.970440e+001
4.650795e+002, 4.950917e+001
4.655616e+002, 4.930114e+001
4.660438e+002, 4.910624e+001
4.665259e+002, 4.900060e+001
4.670080e+002, 4.900859e+001
4.674901e+002, 4.901015e+001
4.679722e+002, 4.886865e+001
4.684543e+002, 4.863700e+001
4.689365e+002, 4.856477e+001
4.694186e+002, 4.882397e+001
4.699007e+002, 4.908007e+001
4.703828e+002, 4.923747e+001
4.708649e+002, 4.925762e+001
4.713470e+002, 4.896526e+001
4.718292e+002, 4.826740e+001
4.723113e+002, 4.752031e+001
4.727934e+002, 4.729159e+001
4.732755e+002, 4.783926e+001
4.737576e+002, 4.818990e+001
4.742397e+002, 4.833442e+001
4.747219e+002, 4.829842e+001
4.752040e+002, 4.793974e+001
4.756861e+002, 4.740025e+001
4.761682e+002, 4.703797e+001
4.766503e+002, 4.709352e+001
4.771324e+002, 4.746716e+001
4.776146e+002, 4.778631e+001
4.780967e+002, 4.816515e+001
4.785788e+002, 4.828779e+001
4.790609e+002, 4.794935e+001
4.795430e+002, 4.749707e+001
4.800251e+002, 4.718864e+001
4.805073e+002, 4.706217e+001
4.809894e+002, 4.700436e+001
4.814715e+002, 4.692200e+001
4.819536e+002, 4.681647e+001
4.824357e+002, 4.669697e+001
4.829178e+002, 4.653016e+001
4.834000e+002, 4.640891e+001
4.838821e+002, 4.636719e+001
4.843642e+002, 4.639201e+001
4.848463e+002, 4.648640e+001
4.853284e+002, 4.667389e+001
4.858105e+002, 4.685230e+001
4.862927e+002, 4.692177e+001
4.867748e+002, 4.689300e+001
4.872569e+002, 4.682420e+001
4.877390e+002, 4.670956e+001
4.882211e+002, 4.659423e+001
4.887032e+002, 4.654560e+001
4.891854e+002, 4.654897e+001
4.896675e+002, 4.651624e+001
4.901496e+002, 4.638477e+001
4.906317e+002, 4.624864e+001
4.911138e+002, 4.619036e+001
4.915959e+002, 4.619639e+001
4.920781e+002, 4.620692e+001
4.925602e+002, 4.619371e+001
4.930423e+002, 4.617027e+001
4.935244e+002, 4.616836e+001
4.940065e+002, 4.622113e+001
4.944886e+002, 4.623012e+001
4.949708e+002, 4.610379e+001
4.954529e+002, 4.599892e+001
4.959350e+002, 4.606560e+001
4.964171e+002, 4.627835e+001
4.968992e+002, 4.648828e+001
4.973813e+002, 4.658206e+001
4.978635e+002, 4.657560e+001
4.983456e+002, 4.657250e+001
4.988277e+002, 4.657361e+001
4.993098e+002, 4.657564e+001
4.997919e+002, 4.654370e+001
5.002740e+002, 4.653304e+001
5.007562e+002, 4.665558e+001
5.012383e+002, 4.690205e+001
5.017204e+002, 4.705791e+001
5.022025e+002, 4.679893e+001
5.026846e+002, 4.618182e+001
5.031667e+002, 4.588774e+001
5.036489e+002, 4.605320e+001
5.041310e+002, 4.630567e+001
5.046131e+002, 4.650338e+001
5.050952e+002, 4.664476e+001
5.055773e+002, 4.671800e+001
5.060594e+002, 4.671313e+001
5.065416e+002, 4.665935e+001
5.070237e+002, 4.652617e+001
5.075058e+002, 4.635582e+001
5.079879e+002, 4.631455e+001
5.084700e+002, 4.646333e+001
5.089521e+002, 4.666390e+001
5.094343e+002, 4.677931e+001
5.099164e+002, 4.680694e+001
5.103985e+002, 4.681205e+001
5.108806e+002, 4.675074e+001
5.113627e+002, 4.671305e+001
5.118448e+002, 4.675623e+001
5.123270e+002, 4.686210e+001
5.128091e+002, 4.698695e+001
5.132912e+002, 4.711198e+001
5.137733e+002, 4.724805e+001
5.142554e+002, 4.742222e+001
5.147375e+002, 4.768559e+001
5.152197e+002, 4.786391e+001
5.157018e+002, 4.794009e+001
5.161839e+002, 4.796059e+001
5.166660e+002, 4.787193e+001
5.171481e+002, 4.774866e+001
5.176302e+002, 4.775848e+001
5.181124e+002, 4.801529e+001
5.185945e+002, 4.842443e+001
5.190766e+002, 4.874417e+001
5.195587e+002, 4.895606e+001
5.200408e+002, 4.913831e+001
5.205229e+002, 4.940010e+001
5.210051e+002, 4.955745e+001
5.214872e+002, 4.934469e+001
5.219693e+002, 4.883685e+001
5.224514e+002, 4.853736e+001
5.229335e+002, 4.885584e+001
5.234156e+002, 4.953799e+001
5.238978e+002, 5.014553e+001
5.243799e+002, 5.067548e+001
5.248620e+002, 5.112490e+001
5.253441e+002, 5.146741e+001
5.258262e+002, 5.174395e+001
5.263083e+002, 5.204514e+001
5.267905e+002, 5.239210e+001
5.272726e+002, 5.269738e+001
5.277547e+002, 5.284783e+001
5.282368e+002, 5.299489e+001
5.287189e+002, 5.334705e+001
5.292010e+002, 5.389703e+001
5.296832e+002, 5.442278e+001
5.301653e+002, 5.474281e+001
5.306474e+002, 5.490434e+001
5.311295e+002, 5.524445e+001
5.316116e+002, 5.583995e+001
5.320938e+002, 5.652993e+001
5.325759e+002, 5.741239e+001
5.330580e+002, 5.831579e+001
5.335401e+002, 5.911567e+001
5.340222e+002, 5.977845e+001
5.345043e+002, 6.031243e+001
5.349865e+002, 6.065664e+001
5.354686e+002, 6.084921e+001
5.359507e+002, 6.134344e+001
5.364328e+002, 6.227320e+001
5.369149e+002, 6.326326e+001
5.373970e+002, 6.422385e+001
5.378792e+002, 6.515115e+001
5.383613e+002, 6.604099e+001
5.388434e+002, 6.689835e+001
5.393255e+002, 6.766756e+001
5.398076e+002, 6.820179e+001
5.402897e+002, 6.862251e+001
5.407719e+002, 6.928378e+001
5.412540e+002, 7.024995e+001
5.417361e+002, 7.130233e+001
5.422182e+002, 7.232023e+001
5.427003e+002, 7.329150e+001
5.431824e+002, 7.419187e+001
5.436646e+002, 7.491045e+001
5.441467e+002, 7.570041e+001
5.446288e+002, 7.671517e+001
5.451109e+002, 7.782591e+001
5.455930e+002, 7.885537e+001
5.460751e+002, 7.977052e+001
5.465573e+002, 8.066203e+001
5.470394e+002, 8.164039e+001
5.475215e+002, 8.270824e+001
5.480036e+002, 8.365653e+001
5.484857e+002, 8.436236e+001
5.489678e+002, 8.509470e+001
5.494500e+002, 8.605503e+001
5.499321e+002, 8.698725e+001
5.504142e+002, 8.752870e+001
5.508963e+002, 8.761439e+001
5.513784e+002, 8.765907e+001
5.518605e+002, 8.821666e+001
5.523427e+002, 8.923460e+001
5.528248e+002, 8.991282e+001
5.533069e+002, 9.014741e+001
5.537890e+002, 9.020358e+001
5.542711e+002, 9.021401e+001
5.547532e+002, 9.014342e+001
5.552354e+002, 8.989980e+001
5.557175e+002, 8.940027e+001
5.561996e+002, 8.891157e+001
5.566817e+002, 8.859953e+001
5.571638e+002, 8.842074e+001
5.576459e+002, 8.840451e+001
5.581281e+002, 8.856501e+001
5.586102e+002, 8.842155e+001
5.590923e+002, 8.744930e+001
5.595744e+002, 8.570505e+001
5.600565e+002, 8.444785e+001
5.605386e+002, 8.395285e+001
5.610208e+002, 8.352157e+001
5.615029e+002, 8.307162e+001
5.619850e+002, 8.255408e+001
5.624671e+002, 8.195119e+001
5.629492e+002, 8.124281e+001
5.634313e+002, 8.034211e+001
5.639135e+002, 7.907288e+001
5.643956e+002, 7.744570e+001
5.648777e+002, 7.631493e+001
5.653598e+002, 7.606089e+001
5.658419e+002, 7.570570e+001
5.663240e+002, 7.486254e+001
5.668062e+002, 7.382043e+001
5.672883e+002, 7.287344e+001
5.677704e+002, 7.208757e+001
5.682525e+002, 7.136067e+001
5.687346e+002, 7.060291e+001
5.692167e+002, 6.984350e+001
5.696989e+002, 6.920803e+001
5.701810e+002, 6.872850e+001
5.706631e+002, 6.817310e+001
5.711452e+002, 6.735040e+001
5.716273e+002, 6.635027e+001
5.721094e+002, 6.550439e+001
5.725916e+002, 6.485889e+001
5.730737e+002, 6.427132e+001
5.735558e+002, 6.369368e+001
5.740379e+002, 6.315942e+001
5.745200e+002, 6.276175e+001
5.750021e+002, 6.247755e+001
5.754843e+002, 6.212065e+001
5.759664e+002, 6.151614e+001
5.764485e+002, 6.073697e+001
5.769306e+002, 6.025193e+001
5.774127e+002, 6.031361e+001
5.778948e+002, 6.027016e+001
5.783770e+002, 6.001464e+001
5.788591e+002, 5.964967e+001
5.793412e+002, 5.917388e+001
5.798233e+002, 5.863754e+001
5.803054e+002, 5.822023e+001
5.807875e+002, 5.812838e+001
5.812697e+002, 5.822164e+001
5.817518e+002, 5.814678e+001
5.822339e+002, 5.789031e+001
5.827161e+002, 5.757663e+001
5.831982e+002, 5.719113e+001
5.836803e+002, 5.683490e+001
5.841624e+002, 5.668487e+001
5.846445e+002, 5.676239e+001
5.851266e+002, 5.680027e+001
5.856088e+002, 5.673741e+001
5.860909e+002, 5.660043e+001
5.865730e+002, 5.640723e+001
5.870551e+002, 5.616145e+001
5.875372e+002, 5.585505e+001
5.880193e+002, 5.548270e+001
5.885015e+002, 5.507275e+001
5.889836e+002, 5.466436e+001
5.894657e+002, 5.409579e+001
5.899478e+002, 5.389844e+001
5.904299e+002, 5.447979e+001
5.909120e+002, 5.499460e+001
5.913942e+002, 5.495044e+001
5.918763e+002, 5.453082e+001
5.923584e+002, 5.416132e+001
5.928405e+002, 5.404088e+001
5.933226e+002, 5.406849e+001
5.938047e+002, 5.414839e+001
5.942869e+002, 5.427707e+001
5.947690e+002, 5.424279e+001
5.952511e+002, 5.393615e+001
5.957332e+002, 5.358452e+001
5.962153e+002, 5.341996e+001
5.966974e+002, 5.338031e+001
5.971796e+002, 5.325263e+001
5.976617e+002, 5.290914e+001
5.981438e+002, 5.257328e+001
5.986259e+002, 5.236020e+001
5.991080e+002, 5.223806e+001
5.995901e+002, 5.217650e+001
6.000723e+002, 5.216203e+001
6.005544e+002, 5.213364e+001
6.010365e+002, 5.202796e+001
6.015186e+002, 5.184429e+001
6.020007e+002, 5.161861e+001
6.024828e+002, 5.122171e+001
6.029650e+002, 5.094495e+001
6.034471e+002, 5.102080e+001
6.039292e+002, 5.113281e+001
6.044113e+002, 5.088689e+001
6.048934e+002, 5.025417e+001
6.053755e+002, 4.965454e+001
6.058577e+002, 4.954572e+001
6.063398e+002, 4.977179e+001
6.068219e+002, 4.972766e+001
6.073040e+002, 4.936470e+001
6.077861e+002, 4.899886e+001
6.082682e+002, 4.876059e+001
6.087504e+002, 4.860796e+001
6.092325e+002, 4.848539e+001
6.097146e+002, 4.841550e+001
6.101967e+002, 4.825613e+001
6.106788e+002, 4.786474e+001
6.111609e+002, 4.744616e+001
6.116431e+002, 4.714884e+001
6.121252e+002, 4.698719e+001
6.126073e+002, 4.700956e+001
6.130894e+002, 4.726038e+001
6.135715e+002, 4.754857e+001
6.140536e+002, 4.741399e+001
6.145358e+002, 4.658055e+001
6.150179e+002, 4.600995e+001
6.155000e+002, 4.592888e+001
6.159821e+002, 4.588827e+001
6.164642e+002, 4.566668e+001
6.169464e+002, 4.535530e+001
6.174285e+002, 4.517181e+001
6.179106e+002, 4.523513e+001
6.183927e+002, 4.531140e+001
6.188748e+002, 4.505267e+001
6.193569e+002, 4.454475e+001
6.198391e+002, 4.426894e+001
6.203212e+002, 4.434057e+001
6.208033e+002, 4.449200e+001
6.212854e+002, 4.454264e+001
6.217675e+002, 4.449178e+001
6.222496e+002, 4.436882e+001
6.227318e+002, 4.407942e+001
6.232139e+002, 4.384187e+001
6.236960e+002, 4.373409e+001
6.241781e+002, 4.369724e+001
6.246602e+002, 4.367871e+001
6.251423e+002, 4.366677e+001
6.256245e+002, 4.367542e+001
6.261066e+002, 4.372962e+001
6.265887e+002, 4.379631e+001
6.270708e+002, 4.371598e+001
6.275529e+002, 4.343324e+001
6.280350e+002, 4.313938e+001
6.285172e+002, 4.283935e+001
6.289993e+002, 4.256395e+001
6.294814e+002, 4.230035e+001
6.299635e+002, 4.206974e+001
6.304456e+002, 4.196778e+001
6.309277e+002, 4.220655e+001
6.314099e+002, 4.244900e+001
6.318920e+002, 4.219611e+001
6.323741e+002, 4.159221e+001
6.328562e+002, 4.126809e+001
6.333383e+002, 4.144897e+001
6.338204e+002, 4.177545e+001
6.343026e+002, 4.181919e+001
6.347847e+002, 4.154397e+001
6.352668e+002, 4.131907e+001
6.357489e+002, 4.108411e+001
6.362310e+002, 4.096103e+001
6.367131e+002, 4.110025e+001
6.371953e+002, 4.131243e+001
6.376774e+002, 4.140669e+001
6.381595e+002, 4.132989e+001
6.386416e+002, 4.109645e+001
6.391237e+002, 4.062185e+001
6.396058e+002, 3.999458e+001
6.400880e+002, 3.970343e+001
6.405701e+002, 3.983331e+001
6.410522e+002, 3.996538e+001
6.415343e+002, 3.994540e+001
6.420164e+002, 3.983973e+001
6.424985e+002, 3.973689e+001
6.429807e+002, 3.963726e+001
6.434628e+002, 3.953981e+001
6.439449e+002, 3.944433e+001
6.444270e+002, 3.935103e+001
6.449091e+002, 3.924927e+001
6.453912e+002, 3.914981e+001
6.458734e+002, 3.908815e+001
6.463555e+002, 3.907909e+001
6.468376e+002, 3.908152e+001
6.473197e+002, 3.903021e+001
6.478018e+002, 3.891379e+001
6.482839e+002, 3.880483e+001
6.487661e+002, 3.866881e+001
6.492482e+002, 3.858468e+001
6.497303e+002, 3.860904e+001
6.502124e+002, 3.868114e+001
6.506945e+002, 3.873705e+001
6.511766e+002, 3.876267e+001
6.516588e+002, 3.874430e+001
6.521409e+002, 3.864272e+001
6.526230e+002, 3.849800e+001
6.531051e+002, 3.841764e+001
6.535872e+002, 3.840385e+001
6.540693e+002, 3.829895e+001
6.545515e+002, 3.797871e+001
6.550336e+002, 3.758909e+001
6.555157e+002, 3.744831e+001
6.559978e+002, 3.772923e+001
6.564799e+002, 3.785652e+001
6.569620e+002, 3.768843e+001
6.574442e+002, 3.750415e+001
6.579263e+002, 3.746239e+001
6.584084e+002, 3.750949e+001
6.588905e+002, 3.753298e+001
6.593726e+002, 3.748760e+001
6.598547e+002, 3.740584e+001
6.603369e+002, 3.732357e+001
6.608190e+002, 3.724133e+001
6.613011e+002, 3.714772e+001
6.617832e+002, 3.700382e+001
6.622653e+002, 3.696449e+001
6.627474e+002, 3.723003e+001
6.632296e+002, 3.760799e+001
6.637117e+002, 3.770063e+001
6.641938e+002, 3.740760e+001
6.646759e+002, 3.714547e+001
6.651580e+002, 3.702128e+001
6.656401e+002, 3.699959e+001
6.661223e+002, 3.713562e+001
6.666044e+002, 3.735190e+001
6.670865e+002, 3.741611e+001
6.675686e+002, 3.720360e+001
6.680507e+002, 3.685473e+001
6.685328e+002, 3.663132e+001
6.690150e+002, 3.655622e+001
6.694971e+002, 3.650839e+001
6.699792e+002, 3.647746e+001
6.704613e+002, 3.648740e+001
6.709434e+002, 3.658126e+001
6.714255e+002, 3.670690e+001
6.719077e+002, 3.678375e+001
6.723898e+002, 3.678936e+001
6.728719e+002, 3.677702e+001
6.733540e+002, 3.681979e+001
6.738361e+002, 3.684837e+001
6.743182e+002, 3.671246e+001
6.748004e+002, 3.642645e+001
6.752825e+002, 3.617801e+001
6.757646e+002, 3.606775e+001
6.762467e+002, 3.608125e+001
6.767288e+002, 3.620008e+001
6.772109e+002, 3.653684e+001
6.776931e+002, 3.671362e+001
6.781752e+002, 3.658201e+001
6.786573e+002, 3.646040e+001
6.791394e+002, 3.651506e+001
6.796215e+002, 3.666173e+001
6.801036e+002, 3.676369e+001
6.805858e+002, 3.677653e+001
6.810679e+002, 3.671606e+001
6.815500e+002, 3.647458e+001
6.820321e+002, 3.618123e+001
6.825142e+002, 3.629598e+001
6.829963e+002, 3.687763e+001
6.834785e+002, 3.738999e+001
6.839606e+002, 3.756264e+001
6.844427e+002, 3.744814e+001
6.849248e+002, 3.713020e+001
6.854069e+002, 3.639111e+001
6.858890e+002, 3.597350e+001
6.863712e+002, 3.612674e+001
6.868533e+002, 3.637347e+001
6.873354e+002, 3.653971e+001
6.878175e+002, 3.659268e+001
6.882996e+002, 3.646693e+001
6.887817e+002, 3.614204e+001
6.892639e+002, 3.583958e+001
6.897460e+002, 3.591204e+001
6.902281e+002, 3.628188e+001
6.907102e+002, 3.636127e+001
6.911923e+002, 3.604858e+001
6.916744e+002, 3.581701e+001
6.921566e+002, 3.598792e+001
6.926387e+002, 3.632317e+001
6.931208e+002, 3.630493e+001
6.936029e+002, 3.581726e+001
6.940850e+002, 3.553730e+001
6.945671e+002, 3.577697e+001
6.950493e+002, 3.606324e+001
6.955314e+002, 3.602573e+001
6.960135e+002, 3.581950e+001
6.964956e+002, 3.581823e+001
6.969777e+002, 3.614594e+001
6.974598e+002, 3.652746e+001
6.979420e+002, 3.657898e+001
6.984241e+002, 3.631665e+001
6.989062e+002, 3.617405e+001
6.993883e+002, 3.619542e+001
6.998704e+002, 3.621447e+001
7.003525e+002, 3.618275e+001
7.008347e+002, 3.609657e+001
7.013168e+002, 3.590369e+001
7.017989e+002, 3.558259e+001
7.022810e+002, 3.544451e+001
7.027631e+002, 3.576332e+001
7.032452e+002, 3.611664e+001
7.037274e+002, 3.617356e+001
7.042095e+002, 3.604276e+001
7.046916e+002, 3.595741e+001
7.051737e+002, 3.599341e+001
7.056558e+002, 3.608004e+001
7.061379e+002, 3.614224e+001
7.066201e+002, 3.617980e+001
7.071022e+002, 3.616737e+001
7.075843e+002, 3.601668e+001
7.080664e+002, 3.602805e+001
7.085485e+002, 3.649622e+001
7.090306e+002, 3.701933e+001
7.095128e+002, 3.720500e+001
7.099949e+002, 3.706565e+001
7.104770e+002, 3.690791e+001
7.109591e+002, 3.682735e+001
7.114412e+002, 3.676400e+001
7.119233e+002, 3.668934e+001
7.124055e+002, 3.659715e+001
7.128876e+002, 3.643512e+001
7.133697e+002, 3.620864e+001
7.138518e+002, 3.608040e+001
7.143339e+002, 3.623650e+001
7.148160e+002, 3.662322e+001
7.152982e+002, 3.682891e+001
7.157803e+002, 3.676112e+001
7.162624e+002, 3.673035e+001
7.167445e+002, 3.687435e+001
7.172266e+002, 3.700958e+001
7.177087e+002, 3.696939e+001
7.181909e+002, 3.680022e+001
7.186730e+002, 3.670665e+001
7.191551e+002, 3.678754e+001
7.196372e+002, 3.691293e+001
7.201193e+002, 3.701544e+001
7.206014e+002, 3.709513e+001
7.210836e+002, 3.715708e+001
7.215657e+002, 3.719927e+001
7.220478e+002, 3.719957e+001
7.225299e+002, 3.713348e+001
7.230120e+002, 3.702977e+001
7.234941e+002, 3.699309e+001
7.239763e+002, 3.703400e+001
7.244584e+002, 3.711510e+001
7.249405e+002, 3.730420e+001
7.254226e+002, 3.745682e+001
7.259047e+002, 3.746496e+001
7.263868e+002, 3.738722e+001
7.268690e+002, 3.735102e+001
7.273511e+002, 3.739779e+001
7.278332e+002, 3.745647e+001
7.283153e+002, 3.744701e+001
7.287974e+002, 3.744533e+001
7.292795e+002, 3.760357e+001
7.297617e+002, 3.789082e+001
7.302438e+002, 3.810508e+001
7.307259e+002, 3.813607e+001
7.312080e+002, 3.803817e+001
7.316901e+002, 3.789005e+001
7.321722e+002, 3.763665e+001
7.326544e+002, 3.757557e+001
7.331365e+002, 3.785629e+001
7.336186e+002, 3.812479e+001
7.341007e+002, 3.827144e+001
7.345828e+002, 3.830807e+001
7.350649e+002, 3.819839e+001
7.355471e+002, 3.791932e+001
7.360292e+002, 3.774260e+001
7.365113e+002, 3.787697e+001
7.369934e+002, 3.810851e+001
7.374755e+002, 3.819736e+001
7.379576e+002, 3.820253e+001
7.384398e+002, 3.836623e+001
7.389219e+002, 3.876776e+001
7.394040e+002, 3.913440e+001
7.398861e+002, 3.908698e+001
7.403682e+002, 3.863575e+001
7.408503e+002, 3.845449e+001
7.413325e+002, 3.869001e+001
7.418146e+002, 3.888627e+001
7.422967e+002, 3.888143e+001
7.427788e+002, 3.881005e+001
7.432609e+002, 3.876907e+001
7.437430e+002, 3.876088e+001
7.442252e+002, 3.876985e+001
7.447073e+002, 3.874351e+001
7.451894e+002, 3.878304e+001
7.456715e+002, 3.905447e+001
7.461536e+002, 3.939449e+001
7.466357e+002, 3.950579e+001
7.471179e+002, 3.936682e+001
7.476000e+002, 3.921458e+001
7.480821e+002, 3.923270e+001
7.485642e+002, 3.937610e+001
7.490463e+002, 3.952716e+001
7.495284e+002, 3.972816e+001
7.500106e+002, 3.972428e+001
7.504927e+002, 3.927906e+001
7.509748e+002, 3.890279e+001
7.514569e+002, 3.900543e+001
7.519390e+002, 3.941944e+001
7.524211e+002, 3.979423e+001
7.529033e+002, 4.004639e+001
7.533854e+002, 4.036983e+001
7.538675e+002, 4.111206e+001
7.543496e+002, 4.174318e+001
7.548317e+002, 4.159478e+001
7.553138e+002, 4.089506e+001
7.557960e+002, 4.036831e+001
7.562781e+002, 4.034588e+001
7.567602e+002, 4.056147e+001
7.572423e+002, 4.062657e+001
7.577244e+002, 4.054802e+001
7.582065e+002, 4.059272e+001
7.586887e+002, 4.079580e+001
7.591708e+002, 4.101951e+001
7.596529e+002, 4.125423e+001
7.601350e+002, 4.143663e+001
7.606171e+002, 4.142346e+001
7.610992e+002, 4.119380e+001
7.615814e+002, 4.109669e+001
7.620635e+002, 4.123217e+001
7.625456e+002, 4.144415e+001
7.630277e+002, 4.178390e+001
7.635098e+002, 4.209582e+001
7.639919e+002, 4.211444e+001
7.644741e+002, 4.185119e+001
7.649562e+002, 4.164688e+001
7.654383e+002, 4.179899e+001
7.659204e+002, 4.214579e+001
7.664025e+002, 4.232290e+001
7.668846e+002, 4.233519e+001
7.673668e+002, 4.233249e+001
7.678489e+002, 4.232691e+001
7.683310e+002, 4.238070e+001
7.688131e+002, 4.255499e+001
7.692952e+002, 4.283301e+001
7.697773e+002, 4.312163e+001
7.702595e+002, 4.353133e+001
7.707416e+002, 4.379097e+001
7.712237e+002, 4.379377e+001
7.717058e+002, 4.372538e+001
7.721879e+002, 4.364594e+001
7.726700e+002, 4.359852e+001
7.731522e+002, 4.365565e+001
7.736343e+002, 4.385072e+001
7.741164e+002, 4.407245e+001
7.745985e+002, 4.420383e+001
7.750806e+002, 4.428724e+001
7.755627e+002, 4.444579e+001
7.760449e+002, 4.467369e+001
7.765270e+002, 4.481826e+001
7.770091e+002, 4.480607e+001
7.774912e+002, 4.471277e+001
7.779733e+002, 4.464572e+001
7.784554e+002, 4.460500e+001
7.789376e+002, 4.458630e+001
7.794197e+002, 4.449597e+001
7.799019e+002, 4.456208e+001
7.803840e+002, 4.498545e+001
7.808661e+002, 4.546553e+001
7.813482e+002, 4.572750e+001
7.818303e+002, 4.577967e+001
7.823124e+002, 4.581199e+001
7.827946e+002, 4.590251e+001
7.832767e+002, 4.600313e+001
7.837588e+002, 4.607610e+001
7.842409e+002, 4.613107e+001
7.847230e+002, 4.614875e+001
7.852051e+002, 4.614813e+001
7.856873e+002, 4.626544e+001
7.861694e+002, 4.661180e+001
7.866515e+002, 4.707341e+001
7.871336e+002, 4.736098e+001
7.876157e+002, 4.745438e+001
7.880978e+002, 4.746537e+001
7.885800e+002, 4.731587e+001
7.890621e+002, 4.723168e+001
7.895442e+002, 4.737509e+001
7.900263e+002, 4.764505e+001
7.905084e+002, 4.789829e+001
7.909905e+002, 4.813759e+001
7.914727e+002, 4.831192e+001
7.919548e+002, 4.830844e+001
7.924369e+002, 4.833592e+001
7.929190e+002, 4.861204e+001
7.934011e+002, 4.897897e+001
7.938832e+002, 4.912788e+001
7.943654e+002, 4.901216e+001
7.948475e+002, 4.892598e+001
7.953296e+002, 4.919381e+001
7.958117e+002, 4.963103e+001
7.962938e+002, 4.968160e+001
7.967759e+002, 4.935412e+001
7.972581e+002, 4.915007e+001
7.977402e+002, 4.918837e+001
7.982223e+002, 4.937313e+001
7.987044e+002, 4.967168e+001
7.991865e+002, 5.004487e+001
7.996686e+002, 5.025946e+001
8.001508e+002, 5.023018e+001
8.006329e+002, 5.015992e+001
8.011150e+002, 4.998352e+001
8.015971e+002, 4.983500e+001
8.020792e+002, 4.984870e+001
8.025613e+002, 4.992852e+001
8.030435e+002, 4.987429e+001
8.035256e+002, 4.961756e+001
8.040077e+002, 4.937060e+001
8.044898e+002, 4.930044e+001
8.049719e+002, 4.933026e+001
8.054540e+002, 4.937152e+001
8.059362e+002, 4.941312e+001
8.064183e+002, 4.943581e+001
8.069004e+002, 4.943301e+001
8.073825e+002, 4.941013e+001
8.078646e+002, 4.937270e+001
8.083467e+002, 4.932101e+001
8.088289e+002, 4.925902e+001
8.093110e+002, 4.919474e+001
8.097931e+002, 4.909257e+001
8.102752e+002, 4.886717e+001
8.107573e+002, 4.868720e+001
8.112394e+002, 4.874109e+001
8.117216e+002, 4.895172e+001
8.122037e+002, 4.906036e+001
8.126858e+002, 4.895883e+001
8.131679e+002, 4.889009e+001
8.136500e+002, 4.895723e+001
8.141321e+002, 4.907169e+001
8.146143e+002, 4.919097e+001
8.150964e+002, 4.928652e+001
8.155785e+002, 4.931092e+001
8.160606e+002, 4.924512e+001
8.165427e+002, 4.913655e+001
8.170248e+002, 4.901278e+001
8.175070e+002, 4.889162e+001
8.179891e+002, 4.888879e+001
8.184712e+002, 4.900410e+001
8.189533e+002, 4.890857e+001
8.194354e+002, 4.842126e+001
8.199175e+002, 4.794085e+001
8.203997e+002, 4.797819e+001
8.208818e+002, 4.852029e+001
8.213639e+002, 4.877692e+001
8.218460e+002, 4.840464e+001
8.223281e+002, 4.825923e+001
8.228102e+002, 4.865127e+001
8.232924e+002, 4.908640e+001
8.237745e+002, 4.919973e+001
8.242566e+002, 4.909868e+001
8.247387e+002, 4.912248e+001
8.252208e+002, 4.943749e+001
8.257029e+002, 4.965703e+001
8.261851e+002, 4.945667e+001
8.266672e+002, 4.909784e+001
8.271493e+002, 4.883016e+001
8.276314e+002, 4.868258e+001
8.281135e+002, 4.868958e+001
8.285956e+002, 4.885623e+001
8.290778e+002, 4.903858e+001
8.295599e+002, 4.905571e+001
8.300420e+002, 4.893111e+001
8.305241e+002, 4.878675e+001
8.310062e+002, 4.859403e+001
8.314883e+002, 4.861118e+001
8.319705e+002, 4.902368e+001
8.324526e+002, 4.943172e+001
8.329347e+002, 4.939550e+001
8.334168e+002, 4.897918e+001
8.338989e+002, 4.880686e+001
8.343810e+002, 4.907431e+001
8.348632e+002, 4.927668e+001
8.353453e+002, 4.927779e+001
8.358274e+002, 4.928956e+001
8.363095e+002, 4.950519e+001
8.367916e+002, 4.981394e+001
8.372737e+002, 4.999852e+001
8.377559e+002, 4.999387e+001
8.382380e+002, 4.988804e+001
8.387201e+002, 4.966335e+001
8.392022e+002, 4.942933e+001
8.396843e+002, 4.935703e+001
8.401664e+002, 4.940773e+001
8.406486e+002, 4.942906e+001
8.411307e+002, 4.937877e+001
8.416128e+002, 4.936154e+001
8.420949e+002, 4.949236e+001
8.425770e+002, 4.973156e+001
8.430591e+002, 4.987059e+001
8.435413e+002, 4.986246e+001
8.440234e+002, 5.002396e+001
8.445055e+002, 5.053991e+001
8.449876e+002, 5.097721e+001
8.454697e+002, 5.097406e+001
8.459518e+002, 5.068582e+001
8.464340e+002, 5.057561e+001
8.469161e+002, 5.073988e+001
8.473982e+002, 5.081672e+001
8.478803e+002, 5.069852e+001
8.483624e+002, 5.056057e+001
8.488445e+002, 5.054860e+001
8.493267e+002, 5.054217e+001
8.498088e+002, 5.029176e+001
8.502909e+002, 4.980213e+001
8.507730e+002, 4.948072e+001
8.512551e+002, 4.970420e+001
8.517372e+002, 5.011548e+001
8.522194e+002, 5.037551e+001
8.527015e+002, 5.046838e+001
8.531836e+002, 5.027311e+001
8.536657e+002, 4.980810e+001
8.541478e+002, 4.940502e+001
8.546299e+002, 4.929307e+001
8.551121e+002, 4.934886e+001
8.555942e+002, 4.928760e+001
8.560763e+002, 4.908980e+001
8.565584e+002, 4.893410e+001
8.570405e+002, 4.882556e+001
8.575226e+002, 4.876431e+001
8.580048e+002, 4.879340e+001
8.584869e+002, 4.883158e+001
8.589690e+002, 4.874415e+001
8.594511e+002, 4.852161e+001
8.599332e+002, 4.834587e+001
8.604153e+002, 4.815407e+001
8.608975e+002, 4.809972e+001
8.613796e+002, 4.851005e+001
8.618617e+002, 4.884774e+001
8.623438e+002, 4.849918e+001
8.628259e+002, 4.765747e+001
8.633080e+002, 4.701954e+001
8.637902e+002, 4.688976e+001
8.642723e+002, 4.694080e+001
8.647544e+002, 4.697442e+001
8.652365e+002, 4.697209e+001
8.657186e+002, 4.689832e+001
8.662007e+002, 4.676037e+001
8.666829e+002, 4.657230e+001
8.671650e+002, 4.634367e+001
8.676471e+002, 4.615198e+001
8.681292e+002, 4.610839e+001
8.686113e+002, 4.617971e+001
8.690934e+002, 4.615493e+001
8.695756e+002, 4.601524e+001
8.700577e+002, 4.592697e+001
8.705398e+002, 4.595886e+001
8.710219e+002, 4.596773e+001
8.715040e+002, 4.581542e+001
8.719861e+002, 4.555748e+001
8.724683e+002, 4.539798e+001
8.729504e+002, 4.538820e+001
8.734325e+002, 4.538475e+001
8.739146e+002, 4.543571e+001
8.743967e+002, 4.543851e+001
8.748788e+002, 4.530848e+001
8.753610e+002, 4.512748e+001
8.758431e+002, 4.499345e+001
8.763252e+002, 4.492101e+001
8.768073e+002, 4.488358e+001
8.772894e+002, 4.491950e+001
8.777715e+002, 4.493243e+001
8.782537e+002, 4.482729e+001
8.787358e+002, 4.466121e+001
8.792179e+002, 4.450210e+001
8.797000e+002, 4.436894e+001
8.801821e+002, 4.427733e+001
8.806642e+002, 4.423594e+001
8.811464e+002, 4.423979e+001
8.816285e+002, 4.434685e+001
8.821106e+002, 4.450772e+001
8.825927e+002, 4.438496e+001
8.830748e+002, 4.395488e+001
8.835569e+002, 4.359484e+001
8.840391e+002, 4.344664e+001
8.845212e+002, 4.342867e+001
8.850033e+002, 4.346572e+001
8.854854e+002, 4.355091e+001
8.859675e+002, 4.354442e+001
8.864496e+002, 4.337788e+001
8.869318e+002, 4.325651e+001
8.874139e+002, 4.327000e+001
8.878960e+002, 4.326710e+001
8.883781e+002, 4.319309e+001
8.888602e+002, 4.303584e+001
8.893423e+002, 4.271358e+001
8.898245e+002, 4.211480e+001
8.903066e+002, 4.180909e+001
8.907887e+002, 4.237206e+001
8.912708e+002, 4.282154e+001
8.917529e+002, 4.236383e+001
8.922350e+002, 4.154987e+001
8.927172e+002, 4.117742e+001
8.931993e+002, 4.131596e+001
8.936814e+002, 4.145144e+001
8.941635e+002, 4.124611e+001
8.946456e+002, 4.095827e+001
8.951277e+002, 4.095783e+001
8.956099e+002, 4.109515e+001
8.960920e+002, 4.099873e+001
8.965741e+002, 4.066695e+001
8.970562e+002, 4.037902e+001
8.975383e+002, 4.027094e+001
8.980204e+002, 4.018132e+001
8.985026e+002, 3.984235e+001
8.989847e+002, 3.928571e+001
8.994668e+002, 3.895131e+001
8.999489e+002, 3.887910e+001
9.004310e+002, 3.878957e+001
9.009131e+002, 3.860160e+001
9.013953e+002, 3.839802e+001
9.018774e+002, 3.822625e+001
9.023595e+002, 3.810119e+001
9.028416e+002, 3.810142e+001
9.033237e+002, 3.844018e+001
9.038058e+002, 3.851499e+001
9.042880e+002, 3.804499e+001
9.047701e+002, 3.764700e+001
9.052522e+002, 3.763848e+001
9.057343e+002, 3.779766e+001
9.062164e+002, 3.786713e+001
9.066985e+002, 3.781727e+001
9.071807e+002, 3.770009e+001
9.076628e+002, 3.744746e+001
9.081449e+002, 3.723345e+001
9.086270e+002, 3.718169e+001
9.091091e+002, 3.719948e+001
9.095912e+002, 3.722801e+001
9.100734e+002, 3.722540e+001
9.105555e+002, 3.710201e+001
9.110376e+002, 3.681414e+001
9.115197e+002, 3.649830e+001
9.120018e+002, 3.630025e+001
9.124839e+002, 3.617871e+001
9.129661e+002, 3.603529e+001
9.134482e+002, 3.588432e+001
9.139303e+002, 3.585523e+001
9.144124e+002, 3.597555e+001
9.148945e+002, 3.598104e+001
9.153766e+002, 3.559752e+001
9.158588e+002, 3.500972e+001
9.163409e+002, 3.482652e+001
9.168230e+002, 3.509347e+001
9.173051e+002, 3.534776e+001
9.177872e+002, 3.557760e+001
9.182693e+002, 3.569490e+001
9.187515e+002, 3.560536e+001
9.192336e+002, 3.544710e+001
9.197157e+002, 3.546261e+001
9.201978e+002, 3.569008e+001
9.206799e+002, 3.570917e+001
9.211620e+002, 3.530062e+001
9.216442e+002, 3.498633e+001
9.221263e+002, 3.493790e+001
9.226084e+002, 3.490944e+001
9.230905e+002, 3.464092e+001
9.235726e+002, 3.428130e+001
9.240547e+002, 3.423628e+001
9.245369e+002, 3.469408e+001
9.250190e+002, 3.498859e+001
9.255011e+002, 3.463576e+001
9.259832e+002, 3.430209e+001
9.264653e+002, 3.458503e+001
9.269474e+002, 3.508694e+001
9.274296e+002, 3.515446e+001
9.279117e+002, 3.476826e+001
9.283938e+002, 3.447395e+001
9.288759e+002, 3.464039e+001
9.293580e+002, 3.490163e+001
9.298401e+002, 3.485188e+001
9.303223e+002, 3.460943e+001
9.308044e+002, 3.432780e+001
9.312865e+002, 3.406443e+001
9.317686e+002, 3.399487e+001
9.322507e+002, 3.418324e+001
9.327328e+002, 3.439556e+001
9.332150e+002, 3.436175e+001
9.336971e+002, 3.413408e+001
9.341792e+002, 3.387056e+001
9.346613e+002, 3.357214e+001
9.351434e+002, 3.343519e+001
9.356255e+002, 3.351567e+001
9.361077e+002, 3.362760e+001
9.365898e+002, 3.365263e+001
9.370719e+002, 3.362442e+001
9.375540e+002, 3.362078e+001
9.380361e+002, 3.365291e+001
9.385182e+002, 3.364639e+001
9.390004e+002, 3.358093e+001
9.394825e+002, 3.351500e+001
9.399646e+002, 3.344589e+001
9.404467e+002, 3.340095e+001
9.409288e+002, 3.343052e+001
9.414109e+002, 3.351078e+001
9.418931e+002, 3.353521e+001
9.423752e+002, 3.348527e+001
9.428573e+002, 3.340718e+001
9.433394e+002, 3.324294e+001
9.438215e+002, 3.312173e+001
9.443036e+002, 3.317061e+001
9.447858e+002, 3.326820e+001
9.452679e+002, 3.322770e+001
9.457500e+002, 3.304370e+001
9.462321e+002, 3.291925e+001
9.467142e+002, 3.301497e+001
9.471964e+002, 3.309693e+001
9.476785e+002, 3.299171e+001
9.481606e+002, 3.282202e+001
9.486427e+002, 3.268641e+001
9.491248e+002, 3.261486e+001
9.496069e+002, 3.268213e+001
9.500891e+002, 3.290556e+001
9.505712e+002, 3.305114e+001
9.510533e+002, 3.280916e+001
9.515354e+002, 3.241309e+001
9.520175e+002, 3.223309e+001
9.524996e+002, 3.222334e+001
9.529818e+002, 3.228853e+001
9.534639e+002, 3.239195e+001
9.539460e+002, 3.241510e+001
9.544281e+002, 3.227311e+001
9.549102e+002, 3.210251e+001
9.553923e+002, 3.218766e+001
9.558745e+002, 3.248821e+001
9.563566e+002, 3.259036e+001
9.568387e+002, 3.247852e+001
9.573208e+002, 3.240144e+001
9.578029e+002, 3.243674e+001
9.582850e+002, 3.251638e+001
9.587672e+002, 3.258994e+001
9.592493e+002, 3.264455e+001
9.597314e+002, 3.262699e+001
9.602135e+002, 3.252589e+001
9.606956e+002, 3.238271e+001
9.611777e+002, 3.214457e+001
9.616599e+002, 3.197583e+001
9.621420e+002, 3.193751e+001
9.626241e+002, 3.201199e+001
9.631062e+002, 3.224557e+001
9.635883e+002, 3.263620e+001
9.640704e+002, 3.277427e+001
9.645526e+002, 3.247257e+001
9.650347e+002, 3.220664e+001
9.655168e+002, 3.191316e+001
9.659989e+002, 3.177450e+001
9.664810e+002, 3.208356e+001
9.669631e+002, 3.252331e+001
9.674453e+002, 3.254094e+001
9.679274e+002, 3.205613e+001
9.684095e+002, 3.171905e+001
9.688916e+002, 3.175967e+001
9.693737e+002, 3.192801e+001
9.698558e+002, 3.231325e+001
9.703380e+002, 3.261546e+001
9.708201e+002, 3.244632e+001
9.713022e+002, 3.196862e+001
9.717843e+002, 3.164413e+001
9.722664e+002, 3.163422e+001
9.727485e+002, 3.163300e+001
9.732307e+002, 3.136102e+001
9.737128e+002, 3.107153e+001
9.741949e+002, 3.105682e+001
9.746770e+002, 3.118323e+001
9.751591e+002, 3.120962e+001
9.756412e+002, 3.111779e+001
9.761234e+002, 3.105088e+001
9.766055e+002, 3.109381e+001
9.770876e+002, 3.113647e+001
9.775698e+002, 3.101978e+001
9.780519e+002, 3.081567e+001
9.785340e+002, 3.066059e+001
9.790161e+002, 3.056321e+001
9.794982e+002, 3.056283e+001
9.799803e+002, 3.065597e+001
9.804625e+002, 3.068493e+001
9.809446e+002, 3.050763e+001
9.814267e+002, 3.024105e+001
9.819088e+002, 3.015206e+001
9.823909e+002, 3.022148e+001
9.828730e+002, 3.027073e+001
9.833552e+002, 3.028956e+001
9.838373e+002, 3.026935e+001
9.843194e+002, 3.020455e+001
9.848015e+002, 3.012049e+001
9.852836e+002, 3.005217e+001
9.857657e+002, 2.998018e+001
9.862479e+002, 2.979295e+001
9.867300e+002, 2.946332e+001
9.872121e+002, 2.913944e+001
9.876942e+002, 2.876922e+001
9.881763e+002, 2.860654e+001
9.886584e+002, 2.885779e+001
9.891406e+002, 2.924410e+001
9.896227e+002, 2.941101e+001
9.901048e+002, 2.935970e+001
9.905869e+002, 2.913520e+001
9.910690e+002, 2.854132e+001
9.915511e+002, 2.816186e+001
9.920333e+002, 2.820402e+001
9.925154e+002, 2.828260e+001
9.929975e+002, 2.819339e+001
9.934796e+002, 2.801517e+001
9.939617e+002, 2.784244e+001
9.944438e+002, 2.766400e+001
9.949260e+002, 2.761995e+001
9.954081e+002, 2.780306e+001
9.958902e+002, 2.800424e+001
9.963723e+002, 2.824531e+001
9.968544e+002, 2.842757e+001
9.973365e+002, 2.850547e+001
9.978187e+002, 2.846966e+001
9.983008e+002, 2.827588e+001
9.987829e+002, 2.789828e+001
9.992650e+002, 2.758458e+001
9.997471e+002, 2.744300e+001
1.000229e+003, 2.733966e+001
1.000711e+003, 2.718737e+001
1.001193e+003, 2.706357e+001
1.001676e+003, 2.705202e+001
1.002158e+003, 2.713297e+001
1.002640e+003, 2.727030e+001
1.003122e+003, 2.746874e+001
1.003604e+003, 2.754464e+001
1.004086e+003, 2.729446e+001
1.004568e+003, 2.698427e+001
1.005050e+003, 2.681312e+001
1.005533e+003, 2.672503e+001
1.006015e+003, 2.661204e+001
1.006497e+003, 2.649360e+001
1.006979e+003, 2.651380e+001
1.007461e+003, 2.675382e+001
1.007943e+003, 2.696038e+001
1.008425e+003, 2.687462e+001
1.008907e+003, 2.665592e+001
1.009389e+003, 2.646739e+001
1.009872e+003, 2.632295e+001
1.010354e+003, 2.626557e+001
1.010836e+003, 2.627635e+001
1.011318e+003, 2.621176e+001
1.011800e+003, 2.596816e+001
1.012282e+003, 2.579744e+001
1.012764e+003, 2.618546e+001
1.013246e+003, 2.680118e+001
1.013729e+003, 2.686021e+001
1.014211e+003, 2.648175e+001
1.014693e+003, 2.616909e+001
1.015175e+003, 2.604516e+001
1.015657e+003, 2.602720e+001
1.016139e+003, 2.607196e+001
1.016621e+003, 2.610438e+001
1.017103e+003, 2.592266e+001
1.017585e+003, 2.561241e+001
1.018068e+003, 2.560901e+001
1.018550e+003, 2.589107e+001
1.019032e+003, 2.613511e+001
1.019514e+003, 2.624816e+001
1.019996e+003, 2.618367e+001
1.020478e+003, 2.587320e+001
1.020960e+003, 2.546874e+001
1.021442e+003, 2.536763e+001
1.021924e+003, 2.555383e+001
1.022407e+003, 2.556220e+001
1.022889e+003, 2.536368e+001
1.023371e+003, 2.523645e+001
1.023853e+003, 2.526663e+001
1.024335e+003, 2.541466e+001
1.024817e+003, 2.568586e+001
1.025299e+003, 2.597582e+001
1.025781e+003, 2.588595e+001
1.026264e+003, 2.532918e+001
1.026746e+003, 2.516501e+001
1.027228e+003, 2.551412e+001
1.027710e+003, 2.581427e+001
1.028192e+003, 2.588298e+001
1.028674e+003, 2.581915e+001
1.029156e+003, 2.569250e+001
1.029638e+003, 2.552897e+001
1.030120e+003, 2.542945e+001
1.030603e+003, 2.539571e+001
1.031085e+003, 2.542690e+001
1.031567e+003, 2.554982e+001
1.032049e+003, 2.567593e+001
1.032531e+003, 2.579972e+001
1.033013e+003, 2.587346e+001
1.033495e+003, 2.582413e+001
1.033977e+003, 2.568625e+001
1.034459e+003, 2.564587e+001
1.034942e+003, 2.582354e+001
1.035424e+003, 2.579993e+001
1.035906e+003, 2.539952e+001
1.036388e+003, 2.509560e+001
1.036870e+003, 2.509727e+001
1.037352e+003, 2.521335e+001
1.037834e+003, 2.527347e+001
1.038316e+003, 2.528405e+001
1.038799e+003, 2.528171e+001
1.039281e+003, 2.522354e+001
1.039763e+003, 2.523668e+001
1.040245e+003, 2.544225e+001
1.040727e+003, 2.556375e+001
1.041209e+003, 2.546888e+001
1.041691e+003, 2.528594e+001
1.042173e+003, 2.508695e+001
1.042656e+003, 2.489460e+001
1.043138e+003, 2.483640e+001
1.043620e+003, 2.503053e+001
1.044102e+003, 2.513008e+001
1.044584e+003, 2.505346e+001
1.045066e+003, 2.495546e+001
1.045548e+003, 2.485199e+001
1.046030e+003, 2.478398e+001
1.046512e+003, 2.483845e+001
1.046995e+003, 2.497076e+001
1.047477e+003, 2.496929e+001
1.047959e+003, 2.471168e+001
1.048441e+003, 2.455098e+001
1.048923e+003, 2.466229e+001
1.049405e+003, 2.473091e+001
1.049887e+003, 2.453465e+001
1.050369e+003, 2.430587e+001
1.050851e+003, 2.427660e+001
1.051334e+003, 2.442959e+001
1.051816e+003, 2.465600e+001
1.052298e+003, 2.503715e+001
1.052780e+003, 2.521522e+001
1.053262e+003, 2.493682e+001
1.053744e+003, 2.464666e+001
1.054226e+003, 2.457662e+001
1.054708e+003, 2.457335e+001
1.055191e+003, 2.443521e+001
1.055673e+003, 2.421583e+001
1.056155e+003, 2.416665e+001
1.056637e+003, 2.442011e+001
1.057119e+003, 2.456811e+001
1.057601e+003, 2.432556e+001
1.058083e+003, 2.414358e+001
1.058565e+003, 2.435566e+001
1.059047e+003, 2.465301e+001
1.059530e+003, 2.473904e+001
1.060012e+003, 2.462353e+001
1.060494e+003, 2.441587e+001
1.060976e+003, 2.410538e+001
1.061458e+003, 2.388304e+001
1.061940e+003, 2.385766e+001
1.062422e+003, 2.388521e+001
1.062904e+003, 2.392702e+001
1.063386e+003, 2.395447e+001
1.063869e+003, 2.393294e+001
1.064351e+003, 2.387707e+001
1.064833e+003, 2.382611e+001
1.065315e+003, 2.378710e+001
1.065797e+003, 2.377571e+001
1.066279e+003, 2.386076e+001
1.066761e+003, 2.389962e+001
1.067243e+003, 2.376080e+001
1.067726e+003, 2.358496e+001
1.068208e+003, 2.350282e+001
1.068690e+003, 2.350330e+001
1.069172e+003, 2.353292e+001
1.069654e+003, 2.358073e+001
1.070136e+003, 2.361894e+001
1.070618e+003, 2.366901e+001
1.071100e+003, 2.366477e+001
1.071583e+003, 2.349084e+001
1.072065e+003, 2.331488e+001
1.072547e+003, 2.330117e+001
1.073029e+003, 2.340930e+001
1.073511e+003, 2.355593e+001
1.073993e+003, 2.371905e+001
1.074475e+003, 2.379082e+001
1.074957e+003, 2.362862e+001
1.075439e+003, 2.348488e+001
1.075922e+003, 2.351919e+001
1.076404e+003, 2.359846e+001
1.076886e+003, 2.359666e+001
1.077368e+003, 2.355231e+001
1.077850e+003, 2.355788e+001
1.078332e+003, 2.362793e+001
1.078814e+003, 2.369816e+001
1.079296e+003, 2.377163e+001
1.079779e+003, 2.379606e+001
1.080261e+003, 2.378762e+001
1.080743e+003, 2.368039e+001
1.081225e+003, 2.326340e+001
1.081707e+003, 2.278953e+001
1.082189e+003, 2.272785e+001
1.082671e+003, 2.308179e+001
1.083153e+003, 2.327991e+001
1.083635e+003, 2.296212e+001
1.084118e+003, 2.271735e+001
1.084600e+003, 2.294753e+001
1.085082e+003, 2.320658e+001
1.085564e+003, 2.312844e+001
1.086046e+003, 2.289930e+001
1.086528e+003, 2.277972e+001
1.087010e+003, 2.279470e+001
1.087492e+003, 2.285707e+001
1.087974e+003, 2.297411e+001
1.088457e+003, 2.304186e+001
1.088939e+003, 2.300263e+001
1.089421e+003, 2.291761e+001
1.089903e+003, 2.279951e+001
1.090385e+003, 2.267518e+001
1.090867e+003, 2.257439e+001
1.091349e+003, 2.249382e+001
1.091831e+003, 2.239840e+001
1.092314e+003, 2.225712e+001
1.092796e+003, 2.219270e+001
1.093278e+003, 2.226821e+001
1.093760e+003, 2.241004e+001
1.094242e+003, 2.269265e+001
1.094724e+003, 2.293003e+001
1.095206e+003, 2.289897e+001
1.095688e+003, 2.268296e+001
1.096171e+003, 2.251425e+001
1.096653e+003, 2.243668e+001
1.097135e+003, 2.242501e+001
1.097617e+003, 2.242899e+001
1.098099e+003, 2.255375e+001
1.098581e+003, 2.306540e+001
1.099063e+003, 2.350227e+001
1.099545e+003, 2.349085e+001
1.100027e+003, 2.313705e+001
1.100510e+003, 2.255671e+001
1.100992e+003, 2.175576e+001
1.101474e+003, 2.137344e+001
1.101956e+003, 2.197855e+001
1.102438e+003, 2.241228e+001
1.102920e+003, 2.216840e+001
1.103402e+003, 2.188221e+001
1.103884e+003, 2.198022e+001
1.104366e+003, 2.226298e+001
1.104849e+003, 2.244844e+001
1.105331e+003, 2.251597e+001
1.105813e+003, 2.253811e+001
1.106295e+003, 2.252598e+001
1.106777e+003, 2.246795e+001
1.107259e+003, 2.228466e+001
1.107741e+003, 2.214766e+001
1.108223e+003, 2.222214e+001
1.108706e+003, 2.231570e+001
1.109188e+003, 2.216284e+001
1.109670e+003, 2.182638e+001
1.110152e+003, 2.167257e+001
1.110634e+003, 2.180636e+001
1.111116e+003, 2.193257e+001
1.111598e+003, 2.206244e+001
1.112080e+003, 2.214936e+001
1.112563e+003, 2.217797e+001
1.113045e+003, 2.215902e+001
1.113527e+003, 2.206667e+001
1.114009e+003, 2.194061e+001
1.114491e+003, 2.189199e+001
1.114973e+003, 2.194211e+001
1.115455e+003, 2.197893e+001
1.115937e+003, 2.198790e+001
1.116419e+003, 2.201055e+001
1.116901e+003, 2.207628e+001
1.117384e+003, 2.212613e+001
1.117866e+003, 2.212589e+001
1.118348e+003, 2.208744e+001
1.118830e+003, 2.203335e+001
1.119312e+003, 2.196419e+001
1.119794e+003, 2.182854e+001
1.120276e+003, 2.151712e+001
1.120758e+003, 2.145106e+001
1.121241e+003, 2.183046e+001
1.121723e+003, 2.209359e+001
1.122205e+003, 2.193179e+001
1.122687e+003, 2.163459e+001
1.123169e+003, 2.154209e+001
1.123651e+003, 2.161963e+001
1.124133e+003, 2.167275e+001
1.124615e+003, 2.169991e+001
1.125098e+003, 2.172097e+001
1.125580e+003, 2.175530e+001
1.126062e+003, 2.167618e+001
1.126544e+003, 2.138272e+001
1.127026e+003, 2.120480e+001
1.127508e+003, 2.147055e+001
1.127990e+003, 2.194681e+001
1.128472e+003, 2.202204e+001
1.128954e+003, 2.168245e+001
1.129437e+003, 2.146402e+001
1.129919e+003, 2.136734e+001
1.130401e+003, 2.139858e+001
1.130883e+003, 2.157179e+001
1.131365e+003, 2.171905e+001
1.131847e+003, 2.174311e+001
1.132329e+003, 2.166022e+001
1.132811e+003, 2.144262e+001
1.133293e+003, 2.116372e+001
1.133776e+003, 2.122977e+001
1.134258e+003, 2.159582e+001
1.134740e+003, 2.185596e+001
1.135222e+003, 2.196395e+001
1.135704e+003, 2.200901e+001
1.136186e+003, 2.202769e+001
1.136668e+003, 2.204448e+001
1.137150e+003, 2.210888e+001
1.137633e+003, 2.212356e+001
1.138115e+003, 2.179761e+001
1.138597e+003, 2.127857e+001
1.139079e+003, 2.101348e+001
1.139561e+003, 2.099144e+001
1.140043e+003, 2.106910e+001
1.140525e+003, 2.119308e+001
1.141007e+003, 2.129885e+001
1.141490e+003, 2.134269e+001
1.141972e+003, 2.137003e+001
1.142454e+003, 2.148748e+001
1.142936e+003, 2.158758e+001
1.143418e+003, 2.139897e+001
1.143900e+003, 2.109565e+001
1.144382e+003, 2.106927e+001
1.144864e+003, 2.130230e+001
1.145346e+003, 2.152678e+001
1.145828e+003, 2.163570e+001
1.146311e+003, 2.168892e+001
1.146793e+003, 2.171238e+001
1.147275e+003, 2.172316e+001
1.147757e+003, 2.172992e+001
1.148239e+003, 2.173809e+001
1.148721e+003, 2.178465e+001
1.149203e+003, 2.182555e+001
1.149685e+003, 2.175499e+001
1.150168e+003, 2.157114e+001
1.150650e+003, 2.140668e+001
1.151132e+003, 2.127423e+001
1.151614e+003, 2.127773e+001
1.152096e+003, 2.165413e+001
1.152578e+003, 2.198061e+001
1.153060e+003, 2.187188e+001
1.153542e+003, 2.162116e+001
1.154025e+003, 2.160007e+001
1.154507e+003, 2.176287e+001
1.154989e+003, 2.183581e+001
1.155471e+003, 2.175169e+001
1.155953e+003, 2.163998e+001
1.156435e+003, 2.150982e+001
1.156917e+003, 2.138541e+001
1.157399e+003, 2.121398e+001
1.157881e+003, 2.111303e+001
1.158364e+003, 2.122874e+001
1.158846e+003, 2.143624e+001
1.159328e+003, 2.152228e+001
1.159810e+003, 2.147676e+001
1.160292e+003, 2.144456e+001
1.160774e+003, 2.148779e+001
1.161256e+003, 2.142914e+001
1.161738e+003, 2.114843e+001
1.162220e+003, 2.095059e+001
1.162703e+003, 2.096076e+001
1.163185e+003, 2.108575e+001
1.163667e+003, 2.129672e+001
1.164149e+003, 2.151884e+001
1.164631e+003, 2.147685e+001
1.165113e+003, 2.110400e+001
1.165595e+003, 2.087317e+001
1.166077e+003, 2.078985e+001
1.166560e+003, 2.084941e+001
1.167042e+003, 2.109340e+001
1.167524e+003, 2.126990e+001
1.168006e+003, 2.121067e+001
1.168488e+003, 2.107766e+001
1.168970e+003, 2.111684e+001
1.169452e+003, 2.129025e+001
1.169934e+003, 2.143563e+001
1.170417e+003, 2.154534e+001
1.170899e+003, 2.144087e+001
1.171381e+003, 2.112885e+001
1.171863e+003, 2.099508e+001
1.172345e+003, 2.116427e+001
1.172827e+003, 2.138146e+001
1.173309e+003, 2.144372e+001
1.173791e+003, 2.141760e+001
1.174273e+003, 2.139172e+001
1.174755e+003, 2.137302e+001
1.175238e+003, 2.138387e+001
1.175720e+003, 2.141482e+001
1.176202e+003, 2.144617e+001
1.176684e+003, 2.146882e+001
1.177166e+003, 2.144904e+001
1.177648e+003, 2.137389e+001
1.178130e+003, 2.134538e+001
1.178612e+003, 2.150463e+001
1.179095e+003, 2.168701e+001
1.179577e+003, 2.176637e+001
1.180059e+003, 2.174321e+001
1.180541e+003, 2.150085e+001
1.181023e+003, 2.120527e+001
1.181505e+003, 2.123769e+001
1.181987e+003, 2.158676e+001
1.182469e+003, 2.175046e+001
1.182952e+003, 2.141707e+001
1.183434e+003, 2.119534e+001
1.183916e+003, 2.153785e+001
1.184398e+003, 2.184515e+001
1.184880e+003, 2.167459e+001
1.185362e+003, 2.140490e+001
1.185844e+003, 2.147419e+001
1.186326e+003, 2.173189e+001
1.186808e+003, 2.172475e+001
1.187291e+003, 2.136207e+001
1.187773e+003, 2.115541e+001
1.188255e+003, 2.126196e+001
1.188737e+003, 2.135808e+001
1.189219e+003, 2.141718e+001
1.189701e+003, 2.144912e+001
1.190183e+003, 2.146164e+001
1.190665e+003, 2.144292e+001
1.191147e+003, 2.136279e+001
1.191630e+003, 2.124634e+001
1.192112e+003, 2.120628e+001
1.192594e+003, 2.126282e+001
1.193076e+003, 2.128779e+001
1.193558e+003, 2.126618e+001
1.194040e+003, 2.130317e+001
1.194522e+003, 2.143816e+001
1.195004e+003, 2.153017e+001
1.195487e+003, 2.148530e+001
1.195969e+003, 2.140790e+001
1.196451e+003, 2.146511e+001
1.196933e+003, 2.159239e+001
1.197415e+003, 2.148821e+001
1.197897e+003, 2.121695e+001
1.198379e+003, 2.119407e+001
1.198861e+003, 2.140146e+001
1.199344e+003, 2.149862e+001
1.199826e+003, 2.139164e+001
1.200308e+003, 2.121603e+001
1.200790e+003, 2.105446e+001
1.201272e+003, 2.092233e+001
1.201754e+003, 2.082131e+001
1.202236e+003, 2.077448e+001
1.202718e+003, 2.081168e+001
1.203200e+003, 2.092843e+001
1.203682e+003, 2.118048e+001
1.204165e+003, 2.149232e+001
1.204647e+003, 2.167690e+001
1.205129e+003, 2.168152e+001
1.205611e+003, 2.157744e+001
1.206093e+003, 2.131718e+001
1.206575e+003, 2.109796e+001
1.207057e+003, 2.106316e+001
1.207539e+003, 2.105786e+001
1.208022e+003, 2.090934e+001
1.208504e+003, 2.077835e+001
1.208986e+003, 2.093983e+001
1.209468e+003, 2.129255e+001
1.209950e+003, 2.140750e+001
1.210432e+003, 2.114003e+001
1.210914e+003, 2.104633e+001
1.211396e+003, 2.132994e+001
1.211879e+003, 2.153525e+001
1.212361e+003, 2.157500e+001
1.212843e+003, 2.156418e+001
1.213325e+003, 2.155220e+001
1.213807e+003, 2.152484e+001
1.214289e+003, 2.144683e+001
1.214771e+003, 2.134675e+001
1.215253e+003, 2.138730e+001
1.215735e+003, 2.159671e+001
1.216218e+003, 2.167283e+001
1.216700e+003, 2.159941e+001
1.217182e+003, 2.151393e+001
1.217664e+003, 2.144627e+001
1.218146e+003, 2.143782e+001
1.218628e+003, 2.152120e+001
1.219110e+003, 2.156970e+001
1.219592e+003, 2.138655e+001
1.220074e+003, 2.108552e+001
1.220557e+003, 2.092116e+001
1.221039e+003, 2.086518e+001
1.221521e+003, 2.085511e+001
1.222003e+003, 2.087991e+001
1.222485e+003, 2.092435e+001
1.222967e+003, 2.098984e+001
1.223449e+003, 2.113703e+001
1.223931e+003, 2.143402e+001
1.224414e+003, 2.159093e+001
1.224896e+003, 2.119169e+001
1.225378e+003, 2.077340e+001
1.225860e+003, 2.077936e+001
1.226342e+003, 2.098991e+001
1.226824e+003, 2.124937e+001
1.227306e+003, 2.148520e+001
1.227788e+003, 2.163777e+001
1.228271e+003, 2.169106e+001
1.228753e+003, 2.156278e+001
1.229235e+003, 2.102844e+001
1.229717e+003, 2.068709e+001
1.230199e+003, 2.075587e+001
1.230681e+003, 2.084316e+001
1.231163e+003, 2.079798e+001
1.231645e+003, 2.076518e+001
1.232127e+003, 2.085366e+001
1.232609e+003, 2.102324e+001
1.233092e+003, 2.120267e+001
1.233574e+003, 2.139189e+001
1.234056e+003, 2.159258e+001
1.234538e+003, 2.183720e+001
1.235020e+003, 2.174401e+001
1.235502e+003, 2.124313e+001
1.235984e+003, 2.097114e+001
1.236466e+003, 2.115239e+001
1.236949e+003, 2.146561e+001
1.237431e+003, 2.167602e+001
1.237913e+003, 2.177542e+001
1.238395e+003, 2.169375e+001
1.238877e+003, 2.151934e+001
1.239359e+003, 2.149002e+001
1.239841e+003, 2.153068e+001
1.240323e+003, 2.143824e+001
1.240806e+003, 2.123870e+001
1.241288e+003, 2.106933e+001
1.241770e+003, 2.098064e+001
1.242252e+003, 2.101180e+001
1.242734e+003, 2.125433e+001
1.243216e+003, 2.143438e+001
1.243698e+003, 2.133361e+001
1.244180e+003, 2.115625e+001
1.244662e+003, 2.096819e+001
1.245145e+003, 2.083996e+001
1.245627e+003, 2.089160e+001
1.246109e+003, 2.103570e+001
1.246591e+003, 2.106709e+001
1.247073e+003, 2.095963e+001
1.247555e+003, 2.086537e+001
1.248037e+003, 2.075142e+001
1.248519e+003, 2.073521e+001
1.249001e+003, 2.088194e+001
1.249484e+003, 2.100740e+001
1.249966e+003, 2.107017e+001
1.250448e+003, 2.104227e+001
1.250930e+003, 2.087161e+001
1.251412e+003, 2.066479e+001
1.251894e+003, 2.063765e+001
1.252376e+003, 2.076464e+001
1.252858e+003, 2.086204e+001
1.253341e+003, 2.093204e+001
1.253823e+003, 2.101301e+001
1.254305e+003, 2.109710e+001
1.254787e+003, 2.108861e+001
1.255269e+003, 2.096812e+001
1.255751e+003, 2.084291e+001
1.256233e+003, 2.078108e+001
1.256715e+003, 2.076042e+001
1.257198e+003, 2.076247e+001
1.257680e+003, 2.078811e+001
1.258162e+003, 2.084278e+001
1.258644e+003, 2.091804e+001
1.259126e+003, 2.101145e+001
1.259608e+003, 2.111431e+001
1.260090e+003, 2.125092e+001
1.260572e+003, 2.140211e+001
1.261054e+003, 2.138338e+001
1.261536e+003, 2.099766e+001
1.262019e+003, 2.076996e+001
1.262501e+003, 2.098920e+001
1.262983e+003, 2.111435e+001
1.263465e+003, 2.084110e+001
1.263947e+003, 2.060705e+001
1.264429e+003, 2.071780e+001
1.264911e+003, 2.098960e+001
1.265393e+003, 2.117293e+001
1.265876e+003, 2.125901e+001
1.266358e+003, 2.113753e+001
1.266840e+003, 2.078515e+001
1.267322e+003, 2.073327e+001
1.267804e+003, 2.100036e+001
1.268286e+003, 2.112691e+001
1.268768e+003, 2.101136e+001
1.269250e+003, 2.086352e+001
1.269733e+003, 2.079865e+001
1.270215e+003, 2.081364e+001
1.270697e+003, 2.093963e+001
1.271179e+003, 2.109393e+001
1.271661e+003, 2.114225e+001
1.272143e+003, 2.115509e+001
1.272625e+003, 2.124165e+001
1.273107e+003, 2.136593e+001
1.273589e+003, 2.147215e+001
1.274072e+003, 2.153665e+001
1.274554e+003, 2.152424e+001
1.275036e+003, 2.141987e+001
1.275518e+003, 2.128030e+001
1.276000e+003, 2.102715e+001
1.276482e+003, 2.088250e+001
1.276964e+003, 2.099546e+001
1.277446e+003, 2.112295e+001
1.277929e+003, 2.112080e+001
1.278411e+003, 2.111093e+001
1.278893e+003, 2.124701e+001
1.279375e+003, 2.143294e+001
1.279857e+003, 2.137980e+001
1.280339e+003, 2.108221e+001
1.280821e+003, 2.090316e+001
1.281303e+003, 2.084367e+001
1.281786e+003, 2.100143e+001
1.282268e+003, 2.139068e+001
##END=



