##NAMES=Perovskite
##RRUFFID=R160074
##IDEAL CHEMISTRY=CaTi^4+^O_3_
##LOCALITY=Zlatoust, Southern Ural Mountains, Chelyabinsk, Russia
##OWNER=RRUFF
##SOURCE=UAMM
##DESCRIPTION=
##STATUS=The identification of this mineral has been determined only by Raman spectroscopy
##URL=rruff.info/R160074
8.758203e+001, 2.890294e+003
8.806415e+001, 2.893985e+003
8.854626e+001, 2.894823e+003
8.902838e+001, 2.881122e+003
8.951050e+001, 2.875690e+003
8.999261e+001, 2.892054e+003
9.047473e+001, 2.928304e+003
9.095685e+001, 2.969377e+003
9.143896e+001, 3.001667e+003
9.192108e+001, 3.025114e+003
9.240320e+001, 3.052268e+003
9.288531e+001, 3.048935e+003
9.336743e+001, 2.994591e+003
9.384955e+001, 2.902771e+003
9.433167e+001, 2.817673e+003
9.481378e+001, 2.733634e+003
9.529590e+001, 2.669115e+003
9.577802e+001, 2.620454e+003
9.626013e+001, 2.574265e+003
9.674225e+001, 2.520875e+003
9.722437e+001, 2.460623e+003
9.770648e+001, 2.406219e+003
9.818860e+001, 2.355769e+003
9.867072e+001, 2.312966e+003
9.915283e+001, 2.281431e+003
9.963495e+001, 2.260337e+003
1.001171e+002, 2.243783e+003
1.005992e+002, 2.224598e+003
1.010813e+002, 2.201199e+003
1.015634e+002, 2.177699e+003
1.020455e+002, 2.148844e+003
1.025277e+002, 2.121585e+003
1.030098e+002, 2.101675e+003
1.034919e+002, 2.091198e+003
1.039740e+002, 2.087737e+003
1.044561e+002, 2.084264e+003
1.049382e+002, 2.081005e+003
1.054204e+002, 2.077031e+003
1.059025e+002, 2.071455e+003
1.063846e+002, 2.064976e+003
1.068667e+002, 2.059220e+003
1.073488e+002, 2.055572e+003
1.078309e+002, 2.053205e+003
1.083131e+002, 2.046447e+003
1.087952e+002, 2.031043e+003
1.092773e+002, 2.015513e+003
1.097594e+002, 2.004768e+003
1.102415e+002, 1.998762e+003
1.107236e+002, 1.994707e+003
1.112058e+002, 1.991290e+003
1.116879e+002, 1.988220e+003
1.121700e+002, 1.984582e+003
1.126521e+002, 1.979563e+003
1.131342e+002, 1.974046e+003
1.136163e+002, 1.969889e+003
1.140985e+002, 1.968244e+003
1.145806e+002, 1.965706e+003
1.150627e+002, 1.957740e+003
1.155448e+002, 1.946876e+003
1.160269e+002, 1.939294e+003
1.165090e+002, 1.941786e+003
1.169912e+002, 1.954050e+003
1.174733e+002, 1.960575e+003
1.179554e+002, 1.954400e+003
1.184375e+002, 1.947511e+003
1.189196e+002, 1.946380e+003
1.194017e+002, 1.950020e+003
1.198839e+002, 1.952332e+003
1.203660e+002, 1.943948e+003
1.208481e+002, 1.914481e+003
1.213302e+002, 1.900974e+003
1.218123e+002, 1.914481e+003
1.222944e+002, 1.932709e+003
1.227766e+002, 1.941269e+003
1.232587e+002, 1.936203e+003
1.237408e+002, 1.923436e+003
1.242229e+002, 1.914148e+003
1.247050e+002, 1.911268e+003
1.251871e+002, 1.908338e+003
1.256693e+002, 1.906729e+003
1.261514e+002, 1.904637e+003
1.266335e+002, 1.899483e+003
1.271156e+002, 1.889885e+003
1.275977e+002, 1.877218e+003
1.280798e+002, 1.865095e+003
1.285620e+002, 1.850709e+003
1.290441e+002, 1.840460e+003
1.295262e+002, 1.840499e+003
1.300083e+002, 1.848226e+003
1.304904e+002, 1.852488e+003
1.309725e+002, 1.846608e+003
1.314547e+002, 1.833733e+003
1.319368e+002, 1.821524e+003
1.324189e+002, 1.809506e+003
1.329010e+002, 1.799255e+003
1.333831e+002, 1.793373e+003
1.338652e+002, 1.792813e+003
1.343474e+002, 1.791570e+003
1.348295e+002, 1.784671e+003
1.353116e+002, 1.775926e+003
1.357937e+002, 1.769530e+003
1.362758e+002, 1.767712e+003
1.367579e+002, 1.768796e+003
1.372401e+002, 1.768691e+003
1.377222e+002, 1.768219e+003
1.382043e+002, 1.764801e+003
1.386864e+002, 1.756182e+003
1.391685e+002, 1.744734e+003
1.396507e+002, 1.733454e+003
1.401328e+002, 1.723692e+003
1.406149e+002, 1.715554e+003
1.410970e+002, 1.713831e+003
1.415791e+002, 1.731218e+003
1.420612e+002, 1.743325e+003
1.425434e+002, 1.740940e+003
1.430255e+002, 1.727005e+003
1.435076e+002, 1.710290e+003
1.439897e+002, 1.698654e+003
1.444718e+002, 1.693006e+003
1.449539e+002, 1.687903e+003
1.454361e+002, 1.681331e+003
1.459182e+002, 1.676671e+003
1.464003e+002, 1.676626e+003
1.468824e+002, 1.681098e+003
1.473645e+002, 1.687383e+003
1.478466e+002, 1.693044e+003
1.483288e+002, 1.698845e+003
1.488109e+002, 1.699251e+003
1.492930e+002, 1.688907e+003
1.497751e+002, 1.675463e+003
1.502572e+002, 1.667231e+003
1.507393e+002, 1.666322e+003
1.512215e+002, 1.668697e+003
1.517036e+002, 1.669232e+003
1.521857e+002, 1.668077e+003
1.526678e+002, 1.666581e+003
1.531499e+002, 1.664177e+003
1.536320e+002, 1.661704e+003
1.541142e+002, 1.662051e+003
1.545963e+002, 1.668389e+003
1.550784e+002, 1.674020e+003
1.555605e+002, 1.671438e+003
1.560426e+002, 1.660748e+003
1.565247e+002, 1.649040e+003
1.570069e+002, 1.640246e+003
1.574890e+002, 1.634377e+003
1.579711e+002, 1.632137e+003
1.584532e+002, 1.637733e+003
1.589353e+002, 1.644204e+003
1.594174e+002, 1.646735e+003
1.598996e+002, 1.644749e+003
1.603817e+002, 1.641347e+003
1.608638e+002, 1.640937e+003
1.613459e+002, 1.645505e+003
1.618280e+002, 1.646162e+003
1.623102e+002, 1.640437e+003
1.627923e+002, 1.631542e+003
1.632744e+002, 1.619632e+003
1.637565e+002, 1.605123e+003
1.642386e+002, 1.591439e+003
1.647207e+002, 1.585226e+003
1.652029e+002, 1.591802e+003
1.656850e+002, 1.598002e+003
1.661671e+002, 1.604084e+003
1.666492e+002, 1.608850e+003
1.671313e+002, 1.610952e+003
1.676134e+002, 1.609797e+003
1.680956e+002, 1.606372e+003
1.685777e+002, 1.603535e+003
1.690598e+002, 1.603410e+003
1.695419e+002, 1.601405e+003
1.700240e+002, 1.594975e+003
1.705061e+002, 1.586907e+003
1.709883e+002, 1.580603e+003
1.714704e+002, 1.577580e+003
1.719525e+002, 1.578004e+003
1.724346e+002, 1.583244e+003
1.729167e+002, 1.598877e+003
1.733988e+002, 1.612136e+003
1.738810e+002, 1.618003e+003
1.743631e+002, 1.618377e+003
1.748452e+002, 1.617648e+003
1.753273e+002, 1.617188e+003
1.758094e+002, 1.618197e+003
1.762915e+002, 1.623862e+003
1.767737e+002, 1.637774e+003
1.772558e+002, 1.651985e+003
1.777379e+002, 1.663038e+003
1.782200e+002, 1.670792e+003
1.787021e+002, 1.673915e+003
1.791842e+002, 1.669525e+003
1.796664e+002, 1.660326e+003
1.801485e+002, 1.651826e+003
1.806306e+002, 1.644317e+003
1.811127e+002, 1.637957e+003
1.815948e+002, 1.633785e+003
1.820769e+002, 1.632374e+003
1.825591e+002, 1.629844e+003
1.830412e+002, 1.620126e+003
1.835233e+002, 1.609331e+003
1.840054e+002, 1.604878e+003
1.844875e+002, 1.611378e+003
1.849696e+002, 1.622948e+003
1.854518e+002, 1.629313e+003
1.859339e+002, 1.630171e+003
1.864160e+002, 1.625845e+003
1.868981e+002, 1.612006e+003
1.873802e+002, 1.595189e+003
1.878623e+002, 1.583139e+003
1.883445e+002, 1.580244e+003
1.888266e+002, 1.583986e+003
1.893087e+002, 1.585962e+003
1.897908e+002, 1.584795e+003
1.902729e+002, 1.583723e+003
1.907550e+002, 1.583903e+003
1.912372e+002, 1.584601e+003
1.917193e+002, 1.584863e+003
1.922014e+002, 1.584138e+003
1.926835e+002, 1.582502e+003
1.931656e+002, 1.580403e+003
1.936477e+002, 1.578099e+003
1.941299e+002, 1.574983e+003
1.946120e+002, 1.569703e+003
1.950941e+002, 1.563643e+003
1.955762e+002, 1.558885e+003
1.960583e+002, 1.556770e+003
1.965404e+002, 1.557253e+003
1.970226e+002, 1.559766e+003
1.975047e+002, 1.567733e+003
1.979868e+002, 1.574002e+003
1.984689e+002, 1.574274e+003
1.989510e+002, 1.571031e+003
1.994331e+002, 1.570087e+003
1.999153e+002, 1.575756e+003
2.003974e+002, 1.587870e+003
2.008795e+002, 1.598969e+003
2.013616e+002, 1.611229e+003
2.018437e+002, 1.620704e+003
2.023258e+002, 1.624781e+003
2.028080e+002, 1.624275e+003
2.032901e+002, 1.622203e+003
2.037722e+002, 1.620181e+003
2.042543e+002, 1.618457e+003
2.047364e+002, 1.618625e+003
2.052185e+002, 1.621814e+003
2.057007e+002, 1.625775e+003
2.061828e+002, 1.628990e+003
2.066649e+002, 1.631535e+003
2.071470e+002, 1.634574e+003
2.076291e+002, 1.639000e+003
2.081112e+002, 1.644705e+003
2.085934e+002, 1.650627e+003
2.090755e+002, 1.657621e+003
2.095576e+002, 1.664235e+003
2.100397e+002, 1.668293e+003
2.105218e+002, 1.669652e+003
2.110039e+002, 1.672337e+003
2.114861e+002, 1.681592e+003
2.119682e+002, 1.693691e+003
2.124503e+002, 1.700740e+003
2.129324e+002, 1.696062e+003
2.134145e+002, 1.689277e+003
2.138967e+002, 1.693122e+003
2.143788e+002, 1.709480e+003
2.148609e+002, 1.727633e+003
2.153430e+002, 1.743362e+003
2.158251e+002, 1.756732e+003
2.163072e+002, 1.767009e+003
2.167894e+002, 1.772698e+003
2.172715e+002, 1.776441e+003
2.177536e+002, 1.782831e+003
2.182357e+002, 1.792420e+003
2.187178e+002, 1.803187e+003
2.191999e+002, 1.817507e+003
2.196821e+002, 1.831526e+003
2.201642e+002, 1.839661e+003
2.206463e+002, 1.837827e+003
2.211284e+002, 1.831411e+003
2.216105e+002, 1.833468e+003
2.220926e+002, 1.849436e+003
2.225748e+002, 1.863084e+003
2.230569e+002, 1.869085e+003
2.235390e+002, 1.870625e+003
2.240211e+002, 1.870579e+003
2.245032e+002, 1.869835e+003
2.249853e+002, 1.869397e+003
2.254675e+002, 1.872560e+003
2.259496e+002, 1.883130e+003
2.264317e+002, 1.891168e+003
2.269138e+002, 1.894639e+003
2.273959e+002, 1.894852e+003
2.278780e+002, 1.892518e+003
2.283602e+002, 1.887757e+003
2.288423e+002, 1.881902e+003
2.293244e+002, 1.879167e+003
2.298065e+002, 1.879760e+003
2.302886e+002, 1.883779e+003
2.307707e+002, 1.893562e+003
2.312529e+002, 1.905637e+003
2.317350e+002, 1.915753e+003
2.322171e+002, 1.921812e+003
2.326992e+002, 1.925652e+003
2.331813e+002, 1.933259e+003
2.336634e+002, 1.950116e+003
2.341456e+002, 1.964396e+003
2.346277e+002, 1.972565e+003
2.351098e+002, 1.978672e+003
2.355919e+002, 1.986399e+003
2.360740e+002, 1.997390e+003
2.365561e+002, 2.012531e+003
2.370383e+002, 2.034577e+003
2.375204e+002, 2.077277e+003
2.380025e+002, 2.110754e+003
2.384846e+002, 2.126317e+003
2.389667e+002, 2.134114e+003
2.394488e+002, 2.146213e+003
2.399310e+002, 2.167793e+003
2.404131e+002, 2.195746e+003
2.408952e+002, 2.222299e+003
2.413773e+002, 2.244151e+003
2.418594e+002, 2.269428e+003
2.423415e+002, 2.301455e+003
2.428237e+002, 2.336479e+003
2.433058e+002, 2.370756e+003
2.437879e+002, 2.403273e+003
2.442700e+002, 2.432370e+003
2.447521e+002, 2.454094e+003
2.452342e+002, 2.465861e+003
2.457164e+002, 2.475997e+003
2.461985e+002, 2.488626e+003
2.466806e+002, 2.499476e+003
2.471627e+002, 2.500711e+003
2.476448e+002, 2.488785e+003
2.481269e+002, 2.472078e+003
2.486091e+002, 2.466125e+003
2.490912e+002, 2.473998e+003
2.495733e+002, 2.479624e+003
2.500554e+002, 2.477028e+003
2.505375e+002, 2.471095e+003
2.510196e+002, 2.469761e+003
2.515018e+002, 2.475685e+003
2.519839e+002, 2.483943e+003
2.524660e+002, 2.486256e+003
2.529481e+002, 2.482048e+003
2.534302e+002, 2.481416e+003
2.539123e+002, 2.488966e+003
2.543945e+002, 2.501042e+003
2.548766e+002, 2.511733e+003
2.553587e+002, 2.519371e+003
2.558408e+002, 2.527466e+003
2.563229e+002, 2.541276e+003
2.568051e+002, 2.559980e+003
2.572872e+002, 2.578465e+003
2.577693e+002, 2.597843e+003
2.582514e+002, 2.615474e+003
2.587335e+002, 2.626804e+003
2.592156e+002, 2.630595e+003
2.596978e+002, 2.630087e+003
2.601799e+002, 2.624552e+003
2.606620e+002, 2.615987e+003
2.611441e+002, 2.612561e+003
2.616262e+002, 2.622554e+003
2.621083e+002, 2.637364e+003
2.625905e+002, 2.641090e+003
2.630726e+002, 2.629521e+003
2.635547e+002, 2.618563e+003
2.640368e+002, 2.624292e+003
2.645189e+002, 2.639908e+003
2.650010e+002, 2.652285e+003
2.654832e+002, 2.655251e+003
2.659653e+002, 2.653380e+003
2.664474e+002, 2.653123e+003
2.669295e+002, 2.654270e+003
2.674116e+002, 2.657970e+003
2.678937e+002, 2.666930e+003
2.683759e+002, 2.678572e+003
2.688580e+002, 2.689793e+003
2.693401e+002, 2.700654e+003
2.698222e+002, 2.709726e+003
2.703043e+002, 2.712110e+003
2.707864e+002, 2.704673e+003
2.712686e+002, 2.704161e+003
2.717507e+002, 2.727242e+003
2.722328e+002, 2.758955e+003
2.727149e+002, 2.783939e+003
2.731970e+002, 2.797277e+003
2.736791e+002, 2.804449e+003
2.741613e+002, 2.811811e+003
2.746434e+002, 2.819308e+003
2.751255e+002, 2.827523e+003
2.756076e+002, 2.835330e+003
2.760897e+002, 2.844749e+003
2.765718e+002, 2.858787e+003
2.770540e+002, 2.878776e+003
2.775361e+002, 2.899406e+003
2.780182e+002, 2.916351e+003
2.785003e+002, 2.930278e+003
2.789824e+002, 2.935478e+003
2.794645e+002, 2.924206e+003
2.799467e+002, 2.907153e+003
2.804288e+002, 2.889473e+003
2.809109e+002, 2.872120e+003
2.813930e+002, 2.857029e+003
2.818751e+002, 2.849410e+003
2.823572e+002, 2.850684e+003
2.828394e+002, 2.842128e+003
2.833215e+002, 2.812090e+003
2.838036e+002, 2.777943e+003
2.842857e+002, 2.749268e+003
2.847678e+002, 2.726436e+003
2.852499e+002, 2.704267e+003
2.857321e+002, 2.677528e+003
2.862142e+002, 2.646140e+003
2.866963e+002, 2.617337e+003
2.871784e+002, 2.591674e+003
2.876605e+002, 2.568979e+003
2.881426e+002, 2.551762e+003
2.886248e+002, 2.537892e+003
2.891069e+002, 2.521234e+003
2.895890e+002, 2.494909e+003
2.900711e+002, 2.460019e+003
2.905532e+002, 2.432463e+003
2.910353e+002, 2.415719e+003
2.915175e+002, 2.402631e+003
2.919996e+002, 2.392426e+003
2.924817e+002, 2.383347e+003
2.929638e+002, 2.372116e+003
2.934459e+002, 2.355504e+003
2.939280e+002, 2.335582e+003
2.944102e+002, 2.322462e+003
2.948923e+002, 2.320068e+003
2.953744e+002, 2.318753e+003
2.958565e+002, 2.316575e+003
2.963386e+002, 2.313279e+003
2.968207e+002, 2.308797e+003
2.973029e+002, 2.303301e+003
2.977850e+002, 2.296192e+003
2.982671e+002, 2.285672e+003
2.987492e+002, 2.270272e+003
2.992313e+002, 2.254277e+003
2.997134e+002, 2.232304e+003
3.001956e+002, 2.213376e+003
3.006777e+002, 2.208131e+003
3.011598e+002, 2.220297e+003
3.016419e+002, 2.240244e+003
3.021240e+002, 2.250560e+003
3.026061e+002, 2.245745e+003
3.030883e+002, 2.246887e+003
3.035704e+002, 2.261376e+003
3.040525e+002, 2.279527e+003
3.045346e+002, 2.295450e+003
3.050167e+002, 2.307878e+003
3.054988e+002, 2.318683e+003
3.059810e+002, 2.330332e+003
3.064631e+002, 2.343354e+003
3.069452e+002, 2.354560e+003
3.074273e+002, 2.358078e+003
3.079094e+002, 2.364278e+003
3.083915e+002, 2.379155e+003
3.088737e+002, 2.401966e+003
3.093558e+002, 2.427673e+003
3.098379e+002, 2.451859e+003
3.103200e+002, 2.474556e+003
3.108021e+002, 2.496697e+003
3.112842e+002, 2.516552e+003
3.117664e+002, 2.537742e+003
3.122485e+002, 2.566132e+003
3.127306e+002, 2.596883e+003
3.132127e+002, 2.619652e+003
3.136948e+002, 2.625292e+003
3.141769e+002, 2.617133e+003
3.146591e+002, 2.615828e+003
3.151412e+002, 2.626131e+003
3.156233e+002, 2.637241e+003
3.161054e+002, 2.649939e+003
3.165875e+002, 2.660432e+003
3.170696e+002, 2.662733e+003
3.175518e+002, 2.653045e+003
3.180339e+002, 2.636609e+003
3.185160e+002, 2.628301e+003
3.189981e+002, 2.637119e+003
3.194802e+002, 2.635170e+003
3.199623e+002, 2.609158e+003
3.204445e+002, 2.575413e+003
3.209266e+002, 2.548833e+003
3.214087e+002, 2.533870e+003
3.218908e+002, 2.523408e+003
3.223729e+002, 2.506677e+003
3.228550e+002, 2.481688e+003
3.233372e+002, 2.457295e+003
3.238193e+002, 2.431621e+003
3.243014e+002, 2.409063e+003
3.247835e+002, 2.392985e+003
3.252656e+002, 2.383392e+003
3.257477e+002, 2.376781e+003
3.262299e+002, 2.370105e+003
3.267120e+002, 2.363356e+003
3.271941e+002, 2.356521e+003
3.276762e+002, 2.350689e+003
3.281583e+002, 2.343497e+003
3.286404e+002, 2.331965e+003
3.291226e+002, 2.317897e+003
3.296047e+002, 2.305944e+003
3.300868e+002, 2.298728e+003
3.305689e+002, 2.296336e+003
3.310510e+002, 2.300121e+003
3.315331e+002, 2.315174e+003
3.320153e+002, 2.328985e+003
3.324974e+002, 2.334327e+003
3.329795e+002, 2.336321e+003
3.334616e+002, 2.343777e+003
3.339437e+002, 2.363137e+003
3.344258e+002, 2.386191e+003
3.349080e+002, 2.392214e+003
3.353901e+002, 2.373334e+003
3.358722e+002, 2.358049e+003
3.363543e+002, 2.356345e+003
3.368365e+002, 2.360870e+003
3.373186e+002, 2.366086e+003
3.378007e+002, 2.370521e+003
3.382828e+002, 2.375021e+003
3.387649e+002, 2.380214e+003
3.392470e+002, 2.385862e+003
3.397292e+002, 2.393881e+003
3.402113e+002, 2.406439e+003
3.406934e+002, 2.420172e+003
3.411755e+002, 2.434255e+003
3.416576e+002, 2.448112e+003
3.421397e+002, 2.459209e+003
3.426219e+002, 2.463088e+003
3.431040e+002, 2.460745e+003
3.435861e+002, 2.463129e+003
3.440682e+002, 2.471647e+003
3.445503e+002, 2.484419e+003
3.450324e+002, 2.500556e+003
3.455146e+002, 2.519390e+003
3.459967e+002, 2.539361e+003
3.464788e+002, 2.559893e+003
3.469609e+002, 2.580838e+003
3.474430e+002, 2.602177e+003
3.479251e+002, 2.624724e+003
3.484073e+002, 2.645429e+003
3.488894e+002, 2.658760e+003
3.493715e+002, 2.670784e+003
3.498536e+002, 2.690066e+003
3.503357e+002, 2.721418e+003
3.508178e+002, 2.755784e+003
3.513000e+002, 2.781214e+003
3.517821e+002, 2.797162e+003
3.522642e+002, 2.815794e+003
3.527463e+002, 2.843355e+003
3.532284e+002, 2.874082e+003
3.537105e+002, 2.900024e+003
3.541927e+002, 2.919811e+003
3.546748e+002, 2.944697e+003
3.551569e+002, 2.986628e+003
3.556390e+002, 3.041463e+003
3.561211e+002, 3.091035e+003
3.566032e+002, 3.131660e+003
3.570854e+002, 3.167013e+003
3.575675e+002, 3.197894e+003
3.580496e+002, 3.225844e+003
3.585317e+002, 3.258355e+003
3.590138e+002, 3.302629e+003
3.594959e+002, 3.351807e+003
3.599781e+002, 3.395972e+003
3.604602e+002, 3.434305e+003
3.609423e+002, 3.467726e+003
3.614244e+002, 3.490859e+003
3.619065e+002, 3.509679e+003
3.623886e+002, 3.539872e+003
3.628708e+002, 3.594157e+003
3.633529e+002, 3.649369e+003
3.638350e+002, 3.685740e+003
3.643171e+002, 3.705177e+003
3.647992e+002, 3.721016e+003
3.652813e+002, 3.738698e+003
3.657635e+002, 3.755969e+003
3.662456e+002, 3.768737e+003
3.667277e+002, 3.776317e+003
3.672098e+002, 3.781863e+003
3.676919e+002, 3.788356e+003
3.681740e+002, 3.793371e+003
3.686562e+002, 3.791972e+003
3.691383e+002, 3.782625e+003
3.696204e+002, 3.768267e+003
3.701025e+002, 3.751902e+003
3.705846e+002, 3.733624e+003
3.710667e+002, 3.713104e+003
3.715489e+002, 3.686927e+003
3.720310e+002, 3.660667e+003
3.725131e+002, 3.641221e+003
3.729952e+002, 3.628173e+003
3.734773e+002, 3.614056e+003
3.739594e+002, 3.594269e+003
3.744416e+002, 3.568246e+003
3.749237e+002, 3.535558e+003
3.754058e+002, 3.488904e+003
3.758879e+002, 3.444186e+003
3.763700e+002, 3.410426e+003
3.768521e+002, 3.383032e+003
3.773343e+002, 3.351202e+003
3.778164e+002, 3.309266e+003
3.782985e+002, 3.263980e+003
3.787806e+002, 3.231773e+003
3.792627e+002, 3.224748e+003
3.797448e+002, 3.210406e+003
3.802270e+002, 3.180125e+003
3.807091e+002, 3.145282e+003
3.811912e+002, 3.115052e+003
3.816733e+002, 3.091691e+003
3.821554e+002, 3.074788e+003
3.826375e+002, 3.064656e+003
3.831197e+002, 3.063756e+003
3.836018e+002, 3.056934e+003
3.840839e+002, 3.041715e+003
3.845660e+002, 3.024186e+003
3.850481e+002, 3.007367e+003
3.855302e+002, 2.990517e+003
3.860124e+002, 2.970197e+003
3.864945e+002, 2.943331e+003
3.869766e+002, 2.912693e+003
3.874587e+002, 2.892964e+003
3.879408e+002, 2.896306e+003
3.884229e+002, 2.896588e+003
3.889051e+002, 2.887808e+003
3.893872e+002, 2.876367e+003
3.898693e+002, 2.870461e+003
3.903514e+002, 2.872351e+003
3.908335e+002, 2.875391e+003
3.913156e+002, 2.867354e+003
3.917978e+002, 2.840582e+003
3.922799e+002, 2.823811e+003
3.927620e+002, 2.825703e+003
3.932441e+002, 2.829702e+003
3.937262e+002, 2.827617e+003
3.942083e+002, 2.819729e+003
3.946905e+002, 2.810735e+003
3.951726e+002, 2.804366e+003
3.956547e+002, 2.800300e+003
3.961368e+002, 2.795027e+003
3.966189e+002, 2.786634e+003
3.971010e+002, 2.779917e+003
3.975832e+002, 2.777602e+003
3.980653e+002, 2.777178e+003
3.985474e+002, 2.775223e+003
3.990295e+002, 2.770174e+003
3.995116e+002, 2.764050e+003
3.999937e+002, 2.760277e+003
4.004759e+002, 2.759347e+003
4.009580e+002, 2.758365e+003
4.014401e+002, 2.760769e+003
4.019222e+002, 2.759613e+003
4.024043e+002, 2.747318e+003
4.028864e+002, 2.724311e+003
4.033686e+002, 2.702143e+003
4.038507e+002, 2.689305e+003
4.043328e+002, 2.684384e+003
4.048149e+002, 2.681387e+003
4.052970e+002, 2.680128e+003
4.057791e+002, 2.680370e+003
4.062613e+002, 2.682530e+003
4.067434e+002, 2.685971e+003
4.072255e+002, 2.689501e+003
4.077076e+002, 2.692054e+003
4.081897e+002, 2.695179e+003
4.086718e+002, 2.701712e+003
4.091540e+002, 2.711465e+003
4.096361e+002, 2.718634e+003
4.101182e+002, 2.718265e+003
4.106003e+002, 2.716061e+003
4.110824e+002, 2.722952e+003
4.115645e+002, 2.741968e+003
4.120467e+002, 2.757828e+003
4.125288e+002, 2.759039e+003
4.130109e+002, 2.753877e+003
4.134930e+002, 2.756745e+003
4.139751e+002, 2.770566e+003
4.144572e+002, 2.791651e+003
4.149394e+002, 2.818478e+003
4.154215e+002, 2.851328e+003
4.159036e+002, 2.878790e+003
4.163857e+002, 2.892112e+003
4.168678e+002, 2.906947e+003
4.173499e+002, 2.934481e+003
4.178321e+002, 2.972560e+003
4.183142e+002, 3.013481e+003
4.187963e+002, 3.053551e+003
4.192784e+002, 3.091965e+003
4.197605e+002, 3.125391e+003
4.202426e+002, 3.151834e+003
4.207248e+002, 3.176491e+003
4.212069e+002, 3.194746e+003
4.216890e+002, 3.214131e+003
4.221711e+002, 3.245510e+003
4.226532e+002, 3.289977e+003
4.231353e+002, 3.335517e+003
4.236175e+002, 3.366970e+003
4.240996e+002, 3.380208e+003
4.245817e+002, 3.400331e+003
4.250638e+002, 3.435493e+003
4.255459e+002, 3.468336e+003
4.260280e+002, 3.494620e+003
4.265102e+002, 3.513089e+003
4.269923e+002, 3.522003e+003
4.274744e+002, 3.519860e+003
4.279565e+002, 3.509349e+003
4.284386e+002, 3.499371e+003
4.289207e+002, 3.490229e+003
4.294029e+002, 3.480987e+003
4.298850e+002, 3.477491e+003
4.303671e+002, 3.470047e+003
4.308492e+002, 3.448980e+003
4.313313e+002, 3.413566e+003
4.318134e+002, 3.373574e+003
4.322956e+002, 3.339592e+003
4.327777e+002, 3.311774e+003
4.332598e+002, 3.280593e+003
4.337419e+002, 3.246460e+003
4.342241e+002, 3.207911e+003
4.347062e+002, 3.158543e+003
4.351883e+002, 3.105290e+003
4.356704e+002, 3.062910e+003
4.361525e+002, 3.043005e+003
4.366346e+002, 3.029780e+003
4.371168e+002, 2.995595e+003
4.375989e+002, 2.938183e+003
4.380810e+002, 2.884642e+003
4.385631e+002, 2.846991e+003
4.390452e+002, 2.815984e+003
4.395273e+002, 2.780264e+003
4.400095e+002, 2.739024e+003
4.404916e+002, 2.698752e+003
4.409737e+002, 2.661621e+003
4.414558e+002, 2.628044e+003
4.419379e+002, 2.599610e+003
4.424200e+002, 2.576718e+003
4.429022e+002, 2.556992e+003
4.433843e+002, 2.539123e+003
4.438664e+002, 2.522909e+003
4.443485e+002, 2.506479e+003
4.448306e+002, 2.490648e+003
4.453127e+002, 2.473644e+003
4.457949e+002, 2.453271e+003
4.462770e+002, 2.430806e+003
4.467591e+002, 2.409490e+003
4.472412e+002, 2.390548e+003
4.477233e+002, 2.373338e+003
4.482054e+002, 2.356456e+003
4.486876e+002, 2.338448e+003
4.491697e+002, 2.324216e+003
4.496518e+002, 2.315275e+003
4.501339e+002, 2.309305e+003
4.506160e+002, 2.306152e+003
4.510981e+002, 2.304768e+003
4.515803e+002, 2.301851e+003
4.520624e+002, 2.294365e+003
4.525445e+002, 2.282858e+003
4.530266e+002, 2.274764e+003
4.535087e+002, 2.272124e+003
4.539908e+002, 2.270862e+003
4.544730e+002, 2.271389e+003
4.549551e+002, 2.272611e+003
4.554372e+002, 2.272758e+003
4.559193e+002, 2.271464e+003
4.564014e+002, 2.270959e+003
4.568835e+002, 2.275894e+003
4.573657e+002, 2.288883e+003
4.578478e+002, 2.295160e+003
4.583299e+002, 2.287994e+003
4.588120e+002, 2.279753e+003
4.592941e+002, 2.273027e+003
4.597762e+002, 2.269242e+003
4.602584e+002, 2.270910e+003
4.607405e+002, 2.280545e+003
4.612226e+002, 2.295171e+003
4.617047e+002, 2.308625e+003
4.621868e+002, 2.320550e+003
4.626689e+002, 2.333317e+003
4.631511e+002, 2.348258e+003
4.636332e+002, 2.364150e+003
4.641153e+002, 2.379402e+003
4.645974e+002, 2.393878e+003
4.650795e+002, 2.409958e+003
4.655616e+002, 2.431117e+003
4.660438e+002, 2.454675e+003
4.665259e+002, 2.474576e+003
4.670080e+002, 2.489720e+003
4.674901e+002, 2.503071e+003
4.679722e+002, 2.515567e+003
4.684543e+002, 2.528048e+003
4.689365e+002, 2.544014e+003
4.694186e+002, 2.566959e+003
4.699007e+002, 2.590022e+003
4.703828e+002, 2.609481e+003
4.708649e+002, 2.626305e+003
4.713470e+002, 2.642701e+003
4.718292e+002, 2.659481e+003
4.723113e+002, 2.675645e+003
4.727934e+002, 2.689747e+003
4.732755e+002, 2.701029e+003
4.737576e+002, 2.711734e+003
4.742397e+002, 2.718195e+003
4.747219e+002, 2.727261e+003
4.752040e+002, 2.743702e+003
4.756861e+002, 2.766400e+003
4.761682e+002, 2.791909e+003
4.766503e+002, 2.818214e+003
4.771324e+002, 2.844731e+003
4.776146e+002, 2.868594e+003
4.780967e+002, 2.888367e+003
4.785788e+002, 2.907978e+003
4.790609e+002, 2.927786e+003
4.795430e+002, 2.947700e+003
4.800251e+002, 2.967918e+003
4.805073e+002, 2.988314e+003
4.809894e+002, 3.008660e+003
4.814715e+002, 3.029274e+003
4.819536e+002, 3.049941e+003
4.824357e+002, 3.067449e+003
4.829178e+002, 3.081408e+003
4.834000e+002, 3.092865e+003
4.838821e+002, 3.100231e+003
4.843642e+002, 3.106335e+003
4.848463e+002, 3.115267e+003
4.853284e+002, 3.128820e+003
4.858105e+002, 3.143114e+003
4.862927e+002, 3.156381e+003
4.867748e+002, 3.167891e+003
4.872569e+002, 3.172137e+003
4.877390e+002, 3.165787e+003
4.882211e+002, 3.156357e+003
4.887032e+002, 3.152226e+003
4.891854e+002, 3.152345e+003
4.896675e+002, 3.151036e+003
4.901496e+002, 3.146308e+003
4.906317e+002, 3.140514e+003
4.911138e+002, 3.134406e+003
4.915959e+002, 3.128674e+003
4.920781e+002, 3.126042e+003
4.925602e+002, 3.128374e+003
4.930423e+002, 3.133006e+003
4.935244e+002, 3.133990e+003
4.940065e+002, 3.128982e+003
4.944886e+002, 3.124680e+003
4.949708e+002, 3.116251e+003
4.954529e+002, 3.112382e+003
4.959350e+002, 3.123640e+003
4.964171e+002, 3.146968e+003
4.968992e+002, 3.167820e+003
4.973813e+002, 3.174218e+003
4.978635e+002, 3.169479e+003
4.983456e+002, 3.175375e+003
4.988277e+002, 3.203419e+003
4.993098e+002, 3.224931e+003
4.997919e+002, 3.227095e+003
5.002740e+002, 3.226871e+003
5.007562e+002, 3.242382e+003
5.012383e+002, 3.275294e+003
5.017204e+002, 3.308482e+003
5.022025e+002, 3.320130e+003
5.026846e+002, 3.313130e+003
5.031667e+002, 3.322153e+003
5.036489e+002, 3.351677e+003
5.041310e+002, 3.389946e+003
5.046131e+002, 3.436690e+003
5.050952e+002, 3.486180e+003
5.055773e+002, 3.529797e+003
5.060594e+002, 3.564677e+003
5.065416e+002, 3.595708e+003
5.070237e+002, 3.626133e+003
5.075058e+002, 3.655764e+003
5.079879e+002, 3.682980e+003
5.084700e+002, 3.706396e+003
5.089521e+002, 3.731201e+003
5.094343e+002, 3.765971e+003
5.099164e+002, 3.810356e+003
5.103985e+002, 3.844032e+003
5.108806e+002, 3.859457e+003
5.113627e+002, 3.869885e+003
5.118448e+002, 3.884831e+003
5.123270e+002, 3.900431e+003
5.128091e+002, 3.906537e+003
5.132912e+002, 3.898538e+003
5.137733e+002, 3.882946e+003
5.142554e+002, 3.872115e+003
5.147375e+002, 3.872005e+003
5.152197e+002, 3.862164e+003
5.157018e+002, 3.837031e+003
5.161839e+002, 3.808899e+003
5.166660e+002, 3.788499e+003
5.171481e+002, 3.770218e+003
5.176302e+002, 3.737945e+003
5.181124e+002, 3.679704e+003
5.185945e+002, 3.608310e+003
5.190766e+002, 3.559678e+003
5.195587e+002, 3.542460e+003
5.200408e+002, 3.519149e+003
5.205229e+002, 3.476554e+003
5.210051e+002, 3.428930e+003
5.214872e+002, 3.384222e+003
5.219693e+002, 3.342981e+003
5.224514e+002, 3.303752e+003
5.229335e+002, 3.267749e+003
5.234156e+002, 3.232832e+003
5.238978e+002, 3.195135e+003
5.243799e+002, 3.154463e+003
5.248620e+002, 3.113058e+003
5.253441e+002, 3.070573e+003
5.258262e+002, 3.029472e+003
5.263083e+002, 2.996358e+003
5.267905e+002, 2.975388e+003
5.272726e+002, 2.948627e+003
5.277547e+002, 2.905262e+003
5.282368e+002, 2.856880e+003
5.287189e+002, 2.814366e+003
5.292010e+002, 2.779569e+003
5.296832e+002, 2.753104e+003
5.301653e+002, 2.736313e+003
5.306474e+002, 2.727665e+003
5.311295e+002, 2.716125e+003
5.316116e+002, 2.701221e+003
5.320938e+002, 2.683622e+003
5.325759e+002, 2.658985e+003
5.330580e+002, 2.634259e+003
5.335401e+002, 2.616548e+003
5.340222e+002, 2.606181e+003
5.345043e+002, 2.596939e+003
5.349865e+002, 2.582824e+003
5.354686e+002, 2.564283e+003
5.359507e+002, 2.547688e+003
5.364328e+002, 2.536450e+003
5.369149e+002, 2.520470e+003
5.373970e+002, 2.490777e+003
5.378792e+002, 2.457368e+003
5.383613e+002, 2.431237e+003
5.388434e+002, 2.414841e+003
5.393255e+002, 2.401775e+003
5.398076e+002, 2.389068e+003
5.402897e+002, 2.375963e+003
5.407719e+002, 2.358803e+003
5.412540e+002, 2.336237e+003
5.417361e+002, 2.316494e+003
5.422182e+002, 2.307192e+003
5.427003e+002, 2.305888e+003
5.431824e+002, 2.299382e+003
5.436646e+002, 2.277726e+003
5.441467e+002, 2.263948e+003
5.446288e+002, 2.273705e+003
5.451109e+002, 2.292538e+003
5.455930e+002, 2.298760e+003
5.460751e+002, 2.288819e+003
5.465573e+002, 2.278908e+003
5.470394e+002, 2.286956e+003
5.475215e+002, 2.313674e+003
5.480036e+002, 2.329216e+003
5.484857e+002, 2.324082e+003
5.489678e+002, 2.318071e+003
5.494500e+002, 2.308309e+003
5.499321e+002, 2.302569e+003
5.504142e+002, 2.311817e+003
5.508963e+002, 2.337970e+003
5.513784e+002, 2.367716e+003
5.518605e+002, 2.385644e+003
5.523427e+002, 2.392708e+003
5.528248e+002, 2.403491e+003
5.533069e+002, 2.419650e+003
5.537890e+002, 2.437028e+003
5.542711e+002, 2.450890e+003
5.547532e+002, 2.465064e+003
5.552354e+002, 2.485826e+003
5.557175e+002, 2.515557e+003
5.561996e+002, 2.548286e+003
5.566817e+002, 2.578948e+003
5.571638e+002, 2.610122e+003
5.576459e+002, 2.648770e+003
5.581281e+002, 2.696108e+003
5.586102e+002, 2.744910e+003
5.590923e+002, 2.788806e+003
5.595744e+002, 2.828151e+003
5.600565e+002, 2.869189e+003
5.605386e+002, 2.906588e+003
5.610208e+002, 2.951678e+003
5.615029e+002, 3.017115e+003
5.619850e+002, 3.086938e+003
5.624671e+002, 3.138813e+003
5.629492e+002, 3.170605e+003
5.634313e+002, 3.203919e+003
5.639135e+002, 3.263576e+003
5.643956e+002, 3.349104e+003
5.648777e+002, 3.422645e+003
5.653598e+002, 3.477107e+003
5.658419e+002, 3.530540e+003
5.663240e+002, 3.592282e+003
5.668062e+002, 3.654356e+003
5.672883e+002, 3.707615e+003
5.677704e+002, 3.749872e+003
5.682525e+002, 3.787572e+003
5.687346e+002, 3.829103e+003
5.692167e+002, 3.869733e+003
5.696989e+002, 3.894324e+003
5.701810e+002, 3.900398e+003
5.706631e+002, 3.901146e+003
5.711452e+002, 3.906274e+003
5.716273e+002, 3.911717e+003
5.721094e+002, 3.904372e+003
5.725916e+002, 3.879903e+003
5.730737e+002, 3.851602e+003
5.735558e+002, 3.823303e+003
5.740379e+002, 3.792736e+003
5.745200e+002, 3.756469e+003
5.750021e+002, 3.714987e+003
5.754843e+002, 3.673665e+003
5.759664e+002, 3.637816e+003
5.764485e+002, 3.605304e+003
5.769306e+002, 3.561919e+003
5.774127e+002, 3.496432e+003
5.778948e+002, 3.438178e+003
5.783770e+002, 3.399497e+003
5.788591e+002, 3.362778e+003
5.793412e+002, 3.312679e+003
5.798233e+002, 3.249728e+003
5.803054e+002, 3.186144e+003
5.807875e+002, 3.129218e+003
5.812697e+002, 3.078717e+003
5.817518e+002, 3.036129e+003
5.822339e+002, 3.002102e+003
5.827161e+002, 2.969457e+003
5.831982e+002, 2.937088e+003
5.836803e+002, 2.903242e+003
5.841624e+002, 2.865392e+003
5.846445e+002, 2.823195e+003
5.851266e+002, 2.779207e+003
5.856088e+002, 2.727663e+003
5.860909e+002, 2.679552e+003
5.865730e+002, 2.648461e+003
5.870551e+002, 2.630290e+003
5.875372e+002, 2.608442e+003
5.880193e+002, 2.574189e+003
5.885015e+002, 2.533758e+003
5.889836e+002, 2.500993e+003
5.894657e+002, 2.478732e+003
5.899478e+002, 2.458286e+003
5.904299e+002, 2.441739e+003
5.909120e+002, 2.424723e+003
5.913942e+002, 2.404068e+003
5.918763e+002, 2.381462e+003
5.923584e+002, 2.360658e+003
5.928405e+002, 2.343466e+003
5.933226e+002, 2.328556e+003
5.938047e+002, 2.314973e+003
5.942869e+002, 2.302575e+003
5.947690e+002, 2.286771e+003
5.952511e+002, 2.264622e+003
5.957332e+002, 2.242447e+003
5.962153e+002, 2.224493e+003
5.966974e+002, 2.210739e+003
5.971796e+002, 2.202554e+003
5.976617e+002, 2.208417e+003
5.981438e+002, 2.210901e+003
5.986259e+002, 2.196771e+003
5.991080e+002, 2.173908e+003
5.995901e+002, 2.155714e+003
6.000723e+002, 2.145573e+003
6.005544e+002, 2.139390e+003
6.010365e+002, 2.133287e+003
6.015186e+002, 2.127308e+003
6.020007e+002, 2.119521e+003
6.024828e+002, 2.108530e+003
6.029650e+002, 2.097366e+003
6.034471e+002, 2.088198e+003
6.039292e+002, 2.078174e+003
6.044113e+002, 2.061255e+003
6.048934e+002, 2.037938e+003
6.053755e+002, 2.019772e+003
6.058577e+002, 2.021523e+003
6.063398e+002, 2.036862e+003
6.068219e+002, 2.041865e+003
6.073040e+002, 2.035099e+003
6.077861e+002, 2.025676e+003
6.082682e+002, 2.016667e+003
6.087504e+002, 2.007941e+003
6.092325e+002, 1.999107e+003
6.097146e+002, 1.990002e+003
6.101967e+002, 1.981549e+003
6.106788e+002, 1.972622e+003
6.111609e+002, 1.965409e+003
6.116431e+002, 1.961831e+003
6.121252e+002, 1.961742e+003
6.126073e+002, 1.965811e+003
6.130894e+002, 1.974933e+003
6.135715e+002, 1.983833e+003
6.140536e+002, 1.980024e+003
6.145358e+002, 1.956957e+003
6.150179e+002, 1.937419e+003
6.155000e+002, 1.919523e+003
6.159821e+002, 1.907197e+003
6.164642e+002, 1.903393e+003
6.169464e+002, 1.906197e+003
6.174285e+002, 1.913329e+003
6.179106e+002, 1.925550e+003
6.183927e+002, 1.935343e+003
6.188748e+002, 1.932667e+003
6.193569e+002, 1.919519e+003
6.198391e+002, 1.905947e+003
6.203212e+002, 1.893064e+003
6.208033e+002, 1.881763e+003
6.212854e+002, 1.872179e+003
6.217675e+002, 1.864936e+003
6.222496e+002, 1.862565e+003
6.227318e+002, 1.873626e+003
6.232139e+002, 1.878268e+003
6.236960e+002, 1.865753e+003
6.241781e+002, 1.847244e+003
6.246602e+002, 1.833809e+003
6.251423e+002, 1.827087e+003
6.256245e+002, 1.824140e+003
6.261066e+002, 1.823127e+003
6.265887e+002, 1.823341e+003
6.270708e+002, 1.821082e+003
6.275529e+002, 1.814218e+003
6.280350e+002, 1.810091e+003
6.285172e+002, 1.815675e+003
6.289993e+002, 1.820193e+003
6.294814e+002, 1.815795e+003
6.299635e+002, 1.803451e+003
6.304456e+002, 1.789905e+003
6.309277e+002, 1.773286e+003
6.314099e+002, 1.761024e+003
6.318920e+002, 1.767492e+003
6.323741e+002, 1.786887e+003
6.328562e+002, 1.792838e+003
6.333383e+002, 1.775428e+003
6.338204e+002, 1.753871e+003
6.343026e+002, 1.753119e+003
6.347847e+002, 1.777191e+003
6.352668e+002, 1.783615e+003
6.357489e+002, 1.754853e+003
6.362310e+002, 1.732014e+003
6.367131e+002, 1.732543e+003
6.371953e+002, 1.742567e+003
6.376774e+002, 1.746313e+003
6.381595e+002, 1.740133e+003
6.386416e+002, 1.729560e+003
6.391237e+002, 1.719577e+003
6.396058e+002, 1.709729e+003
6.400880e+002, 1.695389e+003
6.405701e+002, 1.673334e+003
6.410522e+002, 1.660591e+003
6.415343e+002, 1.671611e+003
6.420164e+002, 1.689276e+003
6.424985e+002, 1.689509e+003
6.429807e+002, 1.671108e+003
6.434628e+002, 1.653892e+003
6.439449e+002, 1.641646e+003
6.444270e+002, 1.634144e+003
6.449091e+002, 1.634851e+003
6.453912e+002, 1.639988e+003
6.458734e+002, 1.638747e+003
6.463555e+002, 1.626754e+003
6.468376e+002, 1.612327e+003
6.473197e+002, 1.609574e+003
6.478018e+002, 1.621994e+003
6.482839e+002, 1.625936e+003
6.487661e+002, 1.612518e+003
6.492482e+002, 1.601343e+003
6.497303e+002, 1.599615e+003
6.502124e+002, 1.602747e+003
6.506945e+002, 1.607138e+003
6.511766e+002, 1.612092e+003
6.516588e+002, 1.610273e+003
6.521409e+002, 1.588263e+003
6.526230e+002, 1.557880e+003
6.531051e+002, 1.545196e+003
6.535872e+002, 1.551286e+003
6.540693e+002, 1.560374e+003
6.545515e+002, 1.565982e+003
6.550336e+002, 1.566918e+003
6.555157e+002, 1.559595e+003
6.559978e+002, 1.535899e+003
6.564799e+002, 1.523566e+003
6.569620e+002, 1.531247e+003
6.574442e+002, 1.541953e+003
6.579263e+002, 1.548642e+003
6.584084e+002, 1.551305e+003
6.588905e+002, 1.550825e+003
6.593726e+002, 1.547552e+003
6.598547e+002, 1.543670e+003
6.603369e+002, 1.542773e+003
6.608190e+002, 1.544509e+003
6.613011e+002, 1.543354e+003
6.617832e+002, 1.538207e+003
6.622653e+002, 1.532365e+003
6.627474e+002, 1.526771e+003
6.632296e+002, 1.522047e+003
6.637117e+002, 1.519673e+003
6.641938e+002, 1.520688e+003
6.646759e+002, 1.520610e+003
6.651580e+002, 1.514675e+003
6.656401e+002, 1.509599e+003
6.661223e+002, 1.513882e+003
6.666044e+002, 1.524882e+003
6.670865e+002, 1.533234e+003
6.675686e+002, 1.534134e+003
6.680507e+002, 1.529932e+003
6.685328e+002, 1.524709e+003
6.690150e+002, 1.518215e+003
6.694971e+002, 1.511712e+003
6.699792e+002, 1.504195e+003
6.704613e+002, 1.498048e+003
6.709434e+002, 1.492947e+003
6.714255e+002, 1.490177e+003
6.719077e+002, 1.492658e+003
6.723898e+002, 1.502157e+003
6.728719e+002, 1.510848e+003
6.733540e+002, 1.513659e+003
6.738361e+002, 1.512598e+003
6.743182e+002, 1.509738e+003
6.748004e+002, 1.505672e+003
6.752825e+002, 1.502467e+003
6.757646e+002, 1.501166e+003
6.762467e+002, 1.501909e+003
6.767288e+002, 1.505292e+003
6.772109e+002, 1.513544e+003
6.776931e+002, 1.519227e+003
6.781752e+002, 1.524373e+003
6.786573e+002, 1.525068e+003
6.791394e+002, 1.514553e+003
6.796215e+002, 1.499971e+003
6.801036e+002, 1.493677e+003
6.805858e+002, 1.500222e+003
6.810679e+002, 1.509373e+003
6.815500e+002, 1.511617e+003
6.820321e+002, 1.508676e+003
6.825142e+002, 1.505130e+003
6.829963e+002, 1.501323e+003
6.834785e+002, 1.497289e+003
6.839606e+002, 1.492557e+003
6.844427e+002, 1.488147e+003
6.849248e+002, 1.486441e+003
6.854069e+002, 1.488126e+003
6.858890e+002, 1.491104e+003
6.863712e+002, 1.497923e+003
6.868533e+002, 1.503467e+003
6.873354e+002, 1.504279e+003
6.878175e+002, 1.502054e+003
6.882996e+002, 1.499575e+003
6.887817e+002, 1.497928e+003
6.892639e+002, 1.497781e+003
6.897460e+002, 1.499669e+003
6.902281e+002, 1.503690e+003
6.907102e+002, 1.511744e+003
6.911923e+002, 1.525501e+003
6.916744e+002, 1.535794e+003
6.921566e+002, 1.537149e+003
6.926387e+002, 1.532816e+003
6.931208e+002, 1.528434e+003
6.936029e+002, 1.523282e+003
6.940850e+002, 1.520943e+003
6.945671e+002, 1.524460e+003
6.950493e+002, 1.528585e+003
6.955314e+002, 1.528640e+003
6.960135e+002, 1.527031e+003
6.964956e+002, 1.529298e+003
6.969777e+002, 1.537274e+003
6.974598e+002, 1.546967e+003
6.979420e+002, 1.554217e+003
6.984241e+002, 1.558937e+003
6.989062e+002, 1.558046e+003
6.993883e+002, 1.549030e+003
6.998704e+002, 1.541326e+003
7.003525e+002, 1.537679e+003
7.008347e+002, 1.538474e+003
7.013168e+002, 1.545746e+003
7.017989e+002, 1.560334e+003
7.022810e+002, 1.570287e+003
7.027631e+002, 1.569922e+003
7.032452e+002, 1.566109e+003
7.037274e+002, 1.561976e+003
7.042095e+002, 1.558479e+003
7.046916e+002, 1.557181e+003
7.051737e+002, 1.558484e+003
7.056558e+002, 1.560918e+003
7.061379e+002, 1.562896e+003
7.066201e+002, 1.564420e+003
7.071022e+002, 1.565587e+003
7.075843e+002, 1.566053e+003
7.080664e+002, 1.566923e+003
7.085485e+002, 1.567644e+003
7.090306e+002, 1.569630e+003
7.095128e+002, 1.574714e+003
7.099949e+002, 1.582717e+003
7.104770e+002, 1.590497e+003
7.109591e+002, 1.599991e+003
7.114412e+002, 1.606102e+003
7.119233e+002, 1.600932e+003
7.124055e+002, 1.590764e+003
7.128876e+002, 1.588400e+003
7.133697e+002, 1.596611e+003
7.138518e+002, 1.608062e+003
7.143339e+002, 1.616159e+003
7.148160e+002, 1.620927e+003
7.152982e+002, 1.621690e+003
7.157803e+002, 1.615873e+003
7.162624e+002, 1.612090e+003
7.167445e+002, 1.612467e+003
7.172266e+002, 1.615200e+003
7.177087e+002, 1.621575e+003
7.181909e+002, 1.629743e+003
7.186730e+002, 1.632357e+003
7.191551e+002, 1.623216e+003
7.196372e+002, 1.613122e+003
7.201193e+002, 1.609829e+003
7.206014e+002, 1.610331e+003
7.210836e+002, 1.609699e+003
7.215657e+002, 1.607112e+003
7.220478e+002, 1.604017e+003
7.225299e+002, 1.601437e+003
7.230120e+002, 1.599331e+003
7.234941e+002, 1.597722e+003
7.239763e+002, 1.596936e+003
7.244584e+002, 1.595737e+003
7.249405e+002, 1.594202e+003
7.254226e+002, 1.592004e+003
7.259047e+002, 1.590125e+003
7.263868e+002, 1.587320e+003
7.268690e+002, 1.580292e+003
7.273511e+002, 1.566467e+003
7.278332e+002, 1.553718e+003
7.283153e+002, 1.546857e+003
7.287974e+002, 1.543837e+003
7.292795e+002, 1.543416e+003
7.297617e+002, 1.544499e+003
7.302438e+002, 1.542983e+003
7.307259e+002, 1.536345e+003
7.312080e+002, 1.527926e+003
7.316901e+002, 1.525149e+003
7.321722e+002, 1.530258e+003
7.326544e+002, 1.531424e+003
7.331365e+002, 1.525468e+003
7.336186e+002, 1.519906e+003
7.341007e+002, 1.519266e+003
7.345828e+002, 1.520040e+003
7.350649e+002, 1.517056e+003
7.355471e+002, 1.509226e+003
7.360292e+002, 1.503094e+003
7.365113e+002, 1.503152e+003
7.369934e+002, 1.505215e+003
7.374755e+002, 1.506855e+003
7.379576e+002, 1.506902e+003
7.384398e+002, 1.500965e+003
7.389219e+002, 1.487742e+003
7.394040e+002, 1.475779e+003
7.398861e+002, 1.477045e+003
7.403682e+002, 1.491194e+003
7.408503e+002, 1.496469e+003
7.413325e+002, 1.489225e+003
7.418146e+002, 1.480704e+003
7.422967e+002, 1.473143e+003
7.427788e+002, 1.466215e+003
7.432609e+002, 1.458976e+003
7.437430e+002, 1.451779e+003
7.442252e+002, 1.447489e+003
7.447073e+002, 1.449105e+003
7.451894e+002, 1.451598e+003
7.456715e+002, 1.451519e+003
7.461536e+002, 1.450301e+003
7.466357e+002, 1.450462e+003
7.471179e+002, 1.452250e+003
7.476000e+002, 1.454143e+003
7.480821e+002, 1.455267e+003
7.485642e+002, 1.454975e+003
7.490463e+002, 1.450766e+003
7.495284e+002, 1.441811e+003
7.500106e+002, 1.432225e+003
7.504927e+002, 1.418931e+003
7.509748e+002, 1.410081e+003
7.514569e+002, 1.414578e+003
7.519390e+002, 1.427011e+003
7.524211e+002, 1.436192e+003
7.529033e+002, 1.440850e+003
7.533854e+002, 1.442423e+003
7.538675e+002, 1.439805e+003
7.543496e+002, 1.435566e+003
7.548317e+002, 1.433585e+003
7.553138e+002, 1.432081e+003
7.557960e+002, 1.423967e+003
7.562781e+002, 1.405972e+003
7.567602e+002, 1.387462e+003
7.572423e+002, 1.383679e+003
7.577244e+002, 1.394091e+003
7.582065e+002, 1.399846e+003
7.586887e+002, 1.399035e+003
7.591708e+002, 1.399371e+003
7.596529e+002, 1.405617e+003
7.601350e+002, 1.413455e+003
7.606171e+002, 1.415496e+003
7.610992e+002, 1.411214e+003
7.615814e+002, 1.409900e+003
7.620635e+002, 1.417965e+003
7.625456e+002, 1.423295e+003
7.630277e+002, 1.418151e+003
7.635098e+002, 1.408155e+003
7.639919e+002, 1.398593e+003
7.644741e+002, 1.391711e+003
7.649562e+002, 1.391338e+003
7.654383e+002, 1.403462e+003
7.659204e+002, 1.420167e+003
7.664025e+002, 1.419940e+003
7.668846e+002, 1.403632e+003
7.673668e+002, 1.398951e+003
7.678489e+002, 1.415315e+003
7.683310e+002, 1.431233e+003
7.688131e+002, 1.428063e+003
7.692952e+002, 1.409181e+003
7.697773e+002, 1.393956e+003
7.702595e+002, 1.380880e+003
7.707416e+002, 1.373361e+003
7.712237e+002, 1.376046e+003
7.717058e+002, 1.380241e+003
7.721879e+002, 1.380563e+003
7.726700e+002, 1.378088e+003
7.731522e+002, 1.376011e+003
7.736343e+002, 1.375554e+003
7.741164e+002, 1.375166e+003
7.745985e+002, 1.373258e+003
7.750806e+002, 1.370370e+003
7.755627e+002, 1.368571e+003
7.760449e+002, 1.367623e+003
7.765270e+002, 1.362867e+003
7.770091e+002, 1.351625e+003
7.774912e+002, 1.338730e+003
7.779733e+002, 1.331587e+003
7.784554e+002, 1.330871e+003
7.789376e+002, 1.330038e+003
7.794197e+002, 1.328374e+003
7.799019e+002, 1.327605e+003
7.803840e+002, 1.330707e+003
7.808661e+002, 1.332895e+003
7.813482e+002, 1.327646e+003
7.818303e+002, 1.316445e+003
7.823124e+002, 1.309869e+003
7.827946e+002, 1.316658e+003
7.832767e+002, 1.324269e+003
7.837588e+002, 1.320739e+003
7.842409e+002, 1.311538e+003
7.847230e+002, 1.306365e+003
7.852051e+002, 1.306507e+003
7.856873e+002, 1.308018e+003
7.861694e+002, 1.308139e+003
7.866515e+002, 1.307929e+003
7.871336e+002, 1.311044e+003
7.876157e+002, 1.318970e+003
7.880978e+002, 1.321609e+003
7.885800e+002, 1.315549e+003
7.890621e+002, 1.308881e+003
7.895442e+002, 1.306064e+003
7.900263e+002, 1.305340e+003
7.905084e+002, 1.304371e+003
7.909905e+002, 1.303540e+003
7.914727e+002, 1.300082e+003
7.919548e+002, 1.289349e+003
7.924369e+002, 1.279811e+003
7.929190e+002, 1.277681e+003
7.934011e+002, 1.280070e+003
7.938832e+002, 1.281867e+003
7.943654e+002, 1.281832e+003
7.948475e+002, 1.282324e+003
7.953296e+002, 1.286462e+003
7.958117e+002, 1.291823e+003
7.962938e+002, 1.290880e+003
7.967759e+002, 1.283758e+003
7.972581e+002, 1.278218e+003
7.977402e+002, 1.276087e+003
7.982223e+002, 1.276073e+003
7.987044e+002, 1.278342e+003
7.991865e+002, 1.281755e+003
7.996686e+002, 1.279637e+003
8.001508e+002, 1.264864e+003
8.006329e+002, 1.254767e+003
8.011150e+002, 1.250569e+003
8.015971e+002, 1.250182e+003
8.020792e+002, 1.254139e+003
8.025613e+002, 1.260532e+003
8.030435e+002, 1.267355e+003
8.035256e+002, 1.274341e+003
8.040077e+002, 1.277162e+003
8.044898e+002, 1.269226e+003
8.049719e+002, 1.257235e+003
8.054540e+002, 1.250956e+003
8.059362e+002, 1.249651e+003
8.064183e+002, 1.248357e+003
8.069004e+002, 1.245321e+003
8.073825e+002, 1.242304e+003
8.078646e+002, 1.241997e+003
8.083467e+002, 1.243797e+003
8.088289e+002, 1.238996e+003
8.093110e+002, 1.223763e+003
8.097931e+002, 1.212279e+003
8.102752e+002, 1.208034e+003
8.107573e+002, 1.208001e+003
8.112394e+002, 1.212945e+003
8.117216e+002, 1.220262e+003
8.122037e+002, 1.220678e+003
8.126858e+002, 1.207474e+003
8.131679e+002, 1.197389e+003
8.136500e+002, 1.200338e+003
8.141321e+002, 1.205148e+003
8.146143e+002, 1.200998e+003
8.150964e+002, 1.190605e+003
8.155785e+002, 1.183150e+003
8.160606e+002, 1.182289e+003
8.165427e+002, 1.181151e+003
8.170248e+002, 1.165228e+003
8.175070e+002, 1.142855e+003
8.179891e+002, 1.150628e+003
8.184712e+002, 1.188912e+003
8.189533e+002, 1.211158e+003
8.194354e+002, 1.198255e+003
8.199175e+002, 1.173913e+003
8.203997e+002, 1.165528e+003
8.208818e+002, 1.172763e+003
8.213639e+002, 1.175327e+003
8.218460e+002, 1.169273e+003
8.223281e+002, 1.164362e+003
8.228102e+002, 1.160403e+003
8.232924e+002, 1.158964e+003
8.237745e+002, 1.164293e+003
8.242566e+002, 1.172673e+003
8.247387e+002, 1.173954e+003
8.252208e+002, 1.162551e+003
8.257029e+002, 1.152835e+003
8.261851e+002, 1.158768e+003
8.266672e+002, 1.167458e+003
8.271493e+002, 1.161173e+003
8.276314e+002, 1.143794e+003
8.281135e+002, 1.130655e+003
8.285956e+002, 1.127673e+003
8.290778e+002, 1.129725e+003
8.295599e+002, 1.131470e+003
8.300420e+002, 1.132732e+003
8.305241e+002, 1.131938e+003
8.310062e+002, 1.128687e+003
8.314883e+002, 1.126177e+003
8.319705e+002, 1.125855e+003
8.324526e+002, 1.125230e+003
8.329347e+002, 1.120444e+003
8.334168e+002, 1.112538e+003
8.338989e+002, 1.111687e+003
8.343810e+002, 1.126792e+003
8.348632e+002, 1.135334e+003
8.353453e+002, 1.127356e+003
8.358274e+002, 1.119945e+003
8.363095e+002, 1.126459e+003
8.367916e+002, 1.140764e+003
8.372737e+002, 1.149431e+003
8.377559e+002, 1.148240e+003
8.382380e+002, 1.146510e+003
8.387201e+002, 1.154271e+003
8.392022e+002, 1.163331e+003
8.396843e+002, 1.159674e+003
8.401664e+002, 1.147431e+003
8.406486e+002, 1.140759e+003
8.411307e+002, 1.143875e+003
8.416128e+002, 1.151733e+003
8.420949e+002, 1.160382e+003
8.425770e+002, 1.168486e+003
8.430591e+002, 1.168161e+003
8.435413e+002, 1.156671e+003
8.440234e+002, 1.151244e+003
8.445055e+002, 1.157305e+003
8.449876e+002, 1.164640e+003
8.454697e+002, 1.165068e+003
8.459518e+002, 1.161865e+003
8.464340e+002, 1.165168e+003
8.469161e+002, 1.179314e+003
8.473982e+002, 1.188091e+003
8.478803e+002, 1.185202e+003
8.483624e+002, 1.181602e+003
8.488445e+002, 1.182997e+003
8.493267e+002, 1.186973e+003
8.498088e+002, 1.190438e+003
8.502909e+002, 1.192591e+003
8.507730e+002, 1.193186e+003
8.512551e+002, 1.191371e+003
8.517372e+002, 1.188635e+003
8.522194e+002, 1.185690e+003
8.527015e+002, 1.183417e+003
8.531836e+002, 1.184875e+003
8.536657e+002, 1.190129e+003
8.541478e+002, 1.194809e+003
8.546299e+002, 1.195867e+003
8.551121e+002, 1.195024e+003
8.555942e+002, 1.196047e+003
8.560763e+002, 1.199024e+003
8.565584e+002, 1.204111e+003
8.570405e+002, 1.214346e+003
8.575226e+002, 1.218024e+003
8.580048e+002, 1.203869e+003
8.584869e+002, 1.185934e+003
8.589690e+002, 1.187620e+003
8.594511e+002, 1.210640e+003
8.599332e+002, 1.222418e+003
8.604153e+002, 1.209312e+003
8.608975e+002, 1.200921e+003
8.613796e+002, 1.212719e+003
8.618617e+002, 1.226714e+003
8.623438e+002, 1.223943e+003
8.628259e+002, 1.209079e+003
8.633080e+002, 1.200803e+003
8.637902e+002, 1.207477e+003
8.642723e+002, 1.219350e+003
8.647544e+002, 1.233326e+003
8.652365e+002, 1.244577e+003
8.657186e+002, 1.242114e+003
8.662007e+002, 1.229328e+003
8.666829e+002, 1.221139e+003
8.671650e+002, 1.223107e+003
8.676471e+002, 1.228516e+003
8.681292e+002, 1.229498e+003
8.686113e+002, 1.226969e+003
8.690934e+002, 1.227535e+003
8.695756e+002, 1.232410e+003
8.700577e+002, 1.230345e+003
8.705398e+002, 1.215201e+003
8.710219e+002, 1.201766e+003
8.715040e+002, 1.203955e+003
8.719861e+002, 1.216496e+003
8.724683e+002, 1.219484e+003
8.729504e+002, 1.204258e+003
8.734325e+002, 1.195629e+003
8.739146e+002, 1.199321e+003
8.743967e+002, 1.203321e+003
8.748788e+002, 1.201350e+003
8.753610e+002, 1.197406e+003
8.758431e+002, 1.197658e+003
8.763252e+002, 1.202557e+003
8.768073e+002, 1.205653e+003
8.772894e+002, 1.203969e+003
8.777715e+002, 1.199276e+003
8.782537e+002, 1.189944e+003
8.787358e+002, 1.179982e+003
8.792179e+002, 1.176357e+003
8.797000e+002, 1.178700e+003
8.801821e+002, 1.180803e+003
8.806642e+002, 1.178978e+003
8.811464e+002, 1.176915e+003
8.816285e+002, 1.182329e+003
8.821106e+002, 1.193032e+003
8.825927e+002, 1.195963e+003
8.830748e+002, 1.190374e+003
8.835569e+002, 1.182903e+003
8.840391e+002, 1.175514e+003
8.845212e+002, 1.169293e+003
8.850033e+002, 1.165921e+003
8.854854e+002, 1.165153e+003
8.859675e+002, 1.161373e+003
8.864496e+002, 1.150641e+003
8.869318e+002, 1.144810e+003
8.874139e+002, 1.150166e+003
8.878960e+002, 1.155750e+003
8.883781e+002, 1.154950e+003
8.888602e+002, 1.150207e+003
8.893423e+002, 1.146753e+003
8.898245e+002, 1.145956e+003
8.903066e+002, 1.142752e+003
8.907887e+002, 1.134568e+003
8.912708e+002, 1.124876e+003
8.917529e+002, 1.115911e+003
8.922350e+002, 1.106609e+003
8.927172e+002, 1.093757e+003
8.931993e+002, 1.078307e+003
8.936814e+002, 1.066760e+003
8.941635e+002, 1.063807e+003
8.946456e+002, 1.064937e+003
8.951277e+002, 1.069018e+003
8.956099e+002, 1.071875e+003
8.960920e+002, 1.059752e+003
8.965741e+002, 1.034501e+003
8.970562e+002, 1.016887e+003
8.975383e+002, 1.017028e+003
8.980204e+002, 1.023460e+003
8.985026e+002, 1.019222e+003
8.989847e+002, 1.005371e+003
8.994668e+002, 9.956787e+002
8.999489e+002, 9.904027e+002
9.004310e+002, 9.878036e+002
9.009131e+002, 9.884176e+002
9.013953e+002, 9.894249e+002
9.018774e+002, 9.886114e+002
9.023595e+002, 9.861689e+002
9.028416e+002, 9.829907e+002
9.033237e+002, 9.789974e+002
9.038058e+002, 9.744193e+002
9.042880e+002, 9.682673e+002
9.047701e+002, 9.627297e+002
9.052522e+002, 9.589341e+002
9.057343e+002, 9.560997e+002
9.062164e+002, 9.535574e+002
9.066985e+002, 9.511456e+002
9.071807e+002, 9.480616e+002
9.076628e+002, 9.436232e+002
9.081449e+002, 9.388896e+002
9.086270e+002, 9.340165e+002
9.091091e+002, 9.294413e+002
9.095912e+002, 9.256691e+002
9.100734e+002, 9.226603e+002
9.105555e+002, 9.196827e+002
9.110376e+002, 9.163342e+002
9.115197e+002, 9.147831e+002
9.120018e+002, 9.201968e+002
9.124839e+002, 9.278587e+002
9.129661e+002, 9.263641e+002
9.134482e+002, 9.174763e+002
9.139303e+002, 9.106652e+002
9.144124e+002, 9.085466e+002
9.148945e+002, 9.091232e+002
9.153766e+002, 9.107043e+002
9.158588e+002, 9.134769e+002
9.163409e+002, 9.199937e+002
9.168230e+002, 9.317208e+002
9.173051e+002, 9.314025e+002
9.177872e+002, 9.133749e+002
9.182693e+002, 8.970672e+002
9.187515e+002, 8.913511e+002
9.192336e+002, 8.933996e+002
9.197157e+002, 9.001014e+002
9.201978e+002, 9.123078e+002
9.206799e+002, 9.209267e+002
9.211620e+002, 9.273433e+002
9.216442e+002, 9.280761e+002
9.221263e+002, 9.216683e+002
9.226084e+002, 9.103413e+002
9.230905e+002, 8.879553e+002
9.235726e+002, 8.631926e+002
9.240547e+002, 8.577742e+002
9.245369e+002, 8.814697e+002
9.250190e+002, 9.003461e+002
9.255011e+002, 9.012930e+002
9.259832e+002, 8.946476e+002
9.264653e+002, 8.829056e+002
9.269474e+002, 8.702416e+002
9.274296e+002, 8.619004e+002
9.279117e+002, 8.583660e+002
9.283938e+002, 8.569022e+002
9.288759e+002, 8.570579e+002
9.293580e+002, 8.559131e+002
9.298401e+002, 8.480714e+002
9.303223e+002, 8.375658e+002
9.308044e+002, 8.326144e+002
9.312865e+002, 8.327389e+002
9.317686e+002, 8.324329e+002
9.322507e+002, 8.295139e+002
9.327328e+002, 8.265729e+002
9.332150e+002, 8.269037e+002
9.336971e+002, 8.294323e+002
9.341792e+002, 8.297461e+002
9.346613e+002, 8.278471e+002
9.351434e+002, 8.271774e+002
9.356255e+002, 8.287788e+002
9.361077e+002, 8.286880e+002
9.365898e+002, 8.239338e+002
9.370719e+002, 8.164407e+002
9.375540e+002, 8.104284e+002
9.380361e+002, 8.062587e+002
9.385182e+002, 8.016682e+002
9.390004e+002, 7.961360e+002
9.394825e+002, 7.910938e+002
9.399646e+002, 7.852582e+002
9.404467e+002, 7.817064e+002
9.409288e+002, 7.861063e+002
9.414109e+002, 7.957869e+002
9.418931e+002, 7.984094e+002
9.423752e+002, 7.873123e+002
9.428573e+002, 7.807104e+002
9.433394e+002, 7.865673e+002
9.438215e+002, 7.909656e+002
9.443036e+002, 7.823017e+002
9.447858e+002, 7.704918e+002
9.452679e+002, 7.701467e+002
9.457500e+002, 7.820512e+002
9.462321e+002, 7.929730e+002
9.467142e+002, 7.982923e+002
9.471964e+002, 7.998436e+002
9.476785e+002, 7.969463e+002
9.481606e+002, 7.922203e+002
9.486427e+002, 7.880668e+002
9.491248e+002, 7.847911e+002
9.496069e+002, 7.815137e+002
9.500891e+002, 7.780499e+002
9.505712e+002, 7.772477e+002
9.510533e+002, 7.843035e+002
9.515354e+002, 7.940479e+002
9.520175e+002, 7.976192e+002
9.524996e+002, 7.967745e+002
9.529818e+002, 7.968333e+002
9.534639e+002, 7.985105e+002
9.539460e+002, 7.986667e+002
9.544281e+002, 7.951935e+002
9.549102e+002, 7.903420e+002
9.553923e+002, 7.875918e+002
9.558745e+002, 7.869255e+002
9.563566e+002, 7.886387e+002
9.568387e+002, 7.928121e+002
9.573208e+002, 7.984124e+002
9.578029e+002, 8.057787e+002
9.582850e+002, 8.106940e+002
9.587672e+002, 8.082612e+002
9.592493e+002, 8.011881e+002
9.597314e+002, 8.009742e+002
9.602135e+002, 8.101954e+002
9.606956e+002, 8.168760e+002
9.611777e+002, 8.199741e+002
9.616599e+002, 8.218891e+002
9.621420e+002, 8.254626e+002
9.626241e+002, 8.263747e+002
9.631062e+002, 8.163937e+002
9.635883e+002, 7.956070e+002
9.640704e+002, 7.853713e+002
9.645526e+002, 7.903225e+002
9.650347e+002, 7.984745e+002
9.655168e+002, 8.137079e+002
9.659989e+002, 8.267212e+002
9.664810e+002, 8.321581e+002
9.669631e+002, 8.323010e+002
9.674453e+002, 8.298198e+002
9.679274e+002, 8.249094e+002
9.684095e+002, 8.226326e+002
9.688916e+002, 8.263064e+002
9.693737e+002, 8.305493e+002
9.698558e+002, 8.360249e+002
9.703380e+002, 8.385620e+002
9.708201e+002, 8.290626e+002
9.713022e+002, 8.141539e+002
9.717843e+002, 8.118286e+002
9.722664e+002, 8.287963e+002
9.727485e+002, 8.451381e+002
9.732307e+002, 8.459058e+002
9.737128e+002, 8.412177e+002
9.741949e+002, 8.393442e+002
9.746770e+002, 8.398820e+002
9.751591e+002, 8.412554e+002
9.756412e+002, 8.435939e+002
9.761234e+002, 8.497832e+002
9.766055e+002, 8.621964e+002
9.770876e+002, 8.727178e+002
9.775698e+002, 8.685272e+002
9.780519e+002, 8.564843e+002
9.785340e+002, 8.505337e+002
9.790161e+002, 8.506824e+002
9.794982e+002, 8.558367e+002
9.799803e+002, 8.650417e+002
9.804625e+002, 8.718787e+002
9.809446e+002, 8.709724e+002
9.814267e+002, 8.652371e+002
9.819088e+002, 8.587429e+002
9.823909e+002, 8.523683e+002
9.828730e+002, 8.565645e+002
9.833552e+002, 8.722144e+002
9.838373e+002, 8.874915e+002
9.843194e+002, 8.985818e+002
9.848015e+002, 9.039081e+002
9.852836e+002, 9.004034e+002
9.857657e+002, 8.909225e+002
9.862479e+002, 8.902478e+002
9.867300e+002, 9.001445e+002
9.872121e+002, 9.099863e+002
9.876942e+002, 9.199586e+002
9.881763e+002, 9.267291e+002
9.886584e+002, 9.272292e+002
9.891406e+002, 9.261245e+002
9.896227e+002, 9.301627e+002
9.901048e+002, 9.392991e+002
9.905869e+002, 9.449361e+002
9.910690e+002, 9.435826e+002
9.915511e+002, 9.456082e+002
9.920333e+002, 9.550176e+002
9.925154e+002, 9.643528e+002
9.929975e+002, 9.702412e+002
9.934796e+002, 9.733568e+002
9.939617e+002, 9.734666e+002
9.944438e+002, 9.698889e+002
9.949260e+002, 9.711271e+002
9.954081e+002, 9.800862e+002
9.958902e+002, 9.905980e+002
9.963723e+002, 1.004281e+003
9.968544e+002, 1.016305e+003
9.973365e+002, 1.022286e+003
9.978187e+002, 1.024624e+003
9.983008e+002, 1.028104e+003
9.987829e+002, 1.033587e+003
9.992650e+002, 1.038807e+003
9.997471e+002, 1.042317e+003
1.000229e+003, 1.046360e+003
1.000711e+003, 1.052819e+003
1.001193e+003, 1.059638e+003
1.001676e+003, 1.066261e+003
1.002158e+003, 1.071322e+003
1.002640e+003, 1.071546e+003
1.003122e+003, 1.065564e+003
1.003604e+003, 1.059115e+003
1.004086e+003, 1.051623e+003
1.004568e+003, 1.048858e+003
1.005050e+003, 1.060229e+003
1.005533e+003, 1.076372e+003
1.006015e+003, 1.084034e+003
1.006497e+003, 1.083456e+003
1.006979e+003, 1.082550e+003
1.007461e+003, 1.084752e+003
1.007943e+003, 1.087986e+003
1.008425e+003, 1.092126e+003
1.008907e+003, 1.094934e+003
1.009389e+003, 1.091843e+003
1.009872e+003, 1.085620e+003
1.010354e+003, 1.083239e+003
1.010836e+003, 1.084733e+003
1.011318e+003, 1.082621e+003
1.011800e+003, 1.071898e+003
1.012282e+003, 1.061812e+003
1.012764e+003, 1.067754e+003
1.013246e+003, 1.081057e+003
1.013729e+003, 1.081029e+003
1.014211e+003, 1.070920e+003
1.014693e+003, 1.065813e+003
1.015175e+003, 1.068617e+003
1.015657e+003, 1.070867e+003
1.016139e+003, 1.066717e+003
1.016621e+003, 1.058529e+003
1.017103e+003, 1.048547e+003
1.017585e+003, 1.037988e+003
1.018068e+003, 1.032073e+003
1.018550e+003, 1.030948e+003
1.019032e+003, 1.036168e+003
1.019514e+003, 1.048111e+003
1.019996e+003, 1.055801e+003
1.020478e+003, 1.049916e+003
1.020960e+003, 1.035330e+003
1.021442e+003, 1.022001e+003
1.021924e+003, 1.010064e+003
1.022407e+003, 1.002583e+003
1.022889e+003, 9.999130e+002
1.023371e+003, 9.972317e+002
1.023853e+003, 9.928280e+002
1.024335e+003, 9.893412e+002
1.024817e+003, 9.892717e+002
1.025299e+003, 9.916416e+002
1.025781e+003, 9.946495e+002
1.026264e+003, 9.993691e+002
1.026746e+003, 9.934730e+002
1.027228e+003, 9.726349e+002
1.027710e+003, 9.605426e+002
1.028192e+003, 9.676718e+002
1.028674e+003, 9.792667e+002
1.029156e+003, 9.818422e+002
1.029638e+003, 9.767886e+002
1.030120e+003, 9.686094e+002
1.030603e+003, 9.542925e+002
1.031085e+003, 9.494173e+002
1.031567e+003, 9.601877e+002
1.032049e+003, 9.650593e+002
1.032531e+003, 9.529466e+002
1.033013e+003, 9.382574e+002
1.033495e+003, 9.364523e+002
1.033977e+003, 9.443216e+002
1.034459e+003, 9.451897e+002
1.034942e+003, 9.331226e+002
1.035424e+003, 9.286188e+002
1.035906e+003, 9.387789e+002
1.036388e+003, 9.442721e+002
1.036870e+003, 9.336044e+002
1.037352e+003, 9.206581e+002
1.037834e+003, 9.197971e+002
1.038316e+003, 9.289892e+002
1.038799e+003, 9.361023e+002
1.039281e+003, 9.417529e+002
1.039763e+003, 9.441505e+002
1.040245e+003, 9.397358e+002
1.040727e+003, 9.366573e+002
1.041209e+003, 9.390348e+002
1.041691e+003, 9.427050e+002
1.042173e+003, 9.432203e+002
1.042656e+003, 9.414042e+002
1.043138e+003, 9.416700e+002
1.043620e+003, 9.453544e+002
1.044102e+003, 9.487493e+002
1.044584e+003, 9.550191e+002
1.045066e+003, 9.567800e+002
1.045548e+003, 9.449639e+002
1.046030e+003, 9.323130e+002
1.046512e+003, 9.323342e+002
1.046995e+003, 9.429137e+002
1.047477e+003, 9.529122e+002
1.047959e+003, 9.642175e+002
1.048441e+003, 9.677703e+002
1.048923e+003, 9.533524e+002
1.049405e+003, 9.417840e+002
1.049887e+003, 9.445713e+002
1.050369e+003, 9.520163e+002
1.050851e+003, 9.530854e+002
1.051334e+003, 9.496328e+002
1.051816e+003, 9.520896e+002
1.052298e+003, 9.653770e+002
1.052780e+003, 9.757578e+002
1.053262e+003, 9.775511e+002
1.053744e+003, 9.789211e+002
1.054226e+003, 9.862395e+002
1.054708e+003, 9.929503e+002
1.055191e+003, 9.912797e+002
1.055673e+003, 9.828515e+002
1.056155e+003, 9.746194e+002
1.056637e+003, 9.670793e+002
1.057119e+003, 9.631646e+002
1.057601e+003, 9.653734e+002
1.058083e+003, 9.694656e+002
1.058565e+003, 9.745858e+002
1.059047e+003, 9.795647e+002
1.059530e+003, 9.845399e+002
1.060012e+003, 9.883766e+002
1.060494e+003, 9.871071e+002
1.060976e+003, 9.776962e+002
1.061458e+003, 9.732201e+002
1.061940e+003, 9.817614e+002
1.062422e+003, 9.922075e+002
1.062904e+003, 9.985800e+002
1.063386e+003, 1.004082e+003
1.063869e+003, 1.015298e+003
1.064351e+003, 1.028212e+003
1.064833e+003, 1.029493e+003
1.065315e+003, 1.013615e+003
1.065797e+003, 1.003389e+003
1.066279e+003, 1.012829e+003
1.066761e+003, 1.024489e+003
1.067243e+003, 1.033547e+003
1.067726e+003, 1.036699e+003
1.068208e+003, 1.024954e+003
1.068690e+003, 1.006334e+003
1.069172e+003, 1.000913e+003
1.069654e+003, 1.014547e+003
1.070136e+003, 1.025093e+003
1.070618e+003, 1.019031e+003
1.071100e+003, 1.012378e+003
1.071583e+003, 1.011959e+003
1.072065e+003, 1.016263e+003
1.072547e+003, 1.026555e+003
1.073029e+003, 1.039332e+003
1.073511e+003, 1.048415e+003
1.073993e+003, 1.052357e+003
1.074475e+003, 1.053723e+003
1.074957e+003, 1.052414e+003
1.075439e+003, 1.050342e+003
1.075922e+003, 1.047884e+003
1.076404e+003, 1.045597e+003
1.076886e+003, 1.043754e+003
1.077368e+003, 1.042524e+003
1.077850e+003, 1.040978e+003
1.078332e+003, 1.039397e+003
1.078814e+003, 1.043104e+003
1.079296e+003, 1.061161e+003
1.079779e+003, 1.075497e+003
1.080261e+003, 1.073023e+003
1.080743e+003, 1.067598e+003
1.081225e+003, 1.072176e+003
1.081707e+003, 1.080799e+003
1.082189e+003, 1.081527e+003
1.082671e+003, 1.073852e+003
1.083153e+003, 1.069648e+003
1.083635e+003, 1.075039e+003
1.084118e+003, 1.081716e+003
1.084600e+003, 1.089521e+003
1.085082e+003, 1.093519e+003
1.085564e+003, 1.086182e+003
1.086046e+003, 1.075101e+003
1.086528e+003, 1.072360e+003
1.087010e+003, 1.077085e+003
1.087492e+003, 1.075668e+003
1.087974e+003, 1.057337e+003
1.088457e+003, 1.049302e+003
1.088939e+003, 1.075561e+003
1.089421e+003, 1.101372e+003
1.089903e+003, 1.102703e+003
1.090385e+003, 1.093162e+003
1.090867e+003, 1.088064e+003
1.091349e+003, 1.088151e+003
1.091831e+003, 1.088508e+003
1.092314e+003, 1.088195e+003
1.092796e+003, 1.086589e+003
1.093278e+003, 1.080207e+003
1.093760e+003, 1.076402e+003
1.094242e+003, 1.080999e+003
1.094724e+003, 1.088240e+003
1.095206e+003, 1.092510e+003
1.095688e+003, 1.094626e+003
1.096171e+003, 1.098522e+003
1.096653e+003, 1.105488e+003
1.097135e+003, 1.109953e+003
1.097617e+003, 1.108305e+003
1.098099e+003, 1.106446e+003
1.098581e+003, 1.105887e+003
1.099063e+003, 1.106798e+003
1.099545e+003, 1.109127e+003
1.100027e+003, 1.113048e+003
1.100510e+003, 1.120934e+003
1.100992e+003, 1.133321e+003
1.101474e+003, 1.137295e+003
1.101956e+003, 1.119122e+003
1.102438e+003, 1.107703e+003
1.102920e+003, 1.117553e+003
1.103402e+003, 1.128969e+003
1.103884e+003, 1.127446e+003
1.104366e+003, 1.121207e+003
1.104849e+003, 1.122944e+003
1.105331e+003, 1.133018e+003
1.105813e+003, 1.142084e+003
1.106295e+003, 1.152710e+003
1.106777e+003, 1.156005e+003
1.107259e+003, 1.142672e+003
1.107741e+003, 1.131426e+003
1.108223e+003, 1.132822e+003
1.108706e+003, 1.138891e+003
1.109188e+003, 1.140942e+003
1.109670e+003, 1.139675e+003
1.110152e+003, 1.140458e+003
1.110634e+003, 1.145402e+003
1.111116e+003, 1.148333e+003
1.111598e+003, 1.143553e+003
1.112080e+003, 1.143869e+003
1.112563e+003, 1.159474e+003
1.113045e+003, 1.175547e+003
1.113527e+003, 1.181106e+003
1.114009e+003, 1.178081e+003
1.114491e+003, 1.169794e+003
1.114973e+003, 1.152242e+003
1.115455e+003, 1.147154e+003
1.115937e+003, 1.165784e+003
1.116419e+003, 1.176949e+003
1.116901e+003, 1.168993e+003
1.117384e+003, 1.161142e+003
1.117866e+003, 1.166012e+003
1.118348e+003, 1.177106e+003
1.118830e+003, 1.183687e+003
1.119312e+003, 1.185624e+003
1.119794e+003, 1.187450e+003
1.120276e+003, 1.190489e+003
1.120758e+003, 1.189120e+003
1.121241e+003, 1.178595e+003
1.121723e+003, 1.173093e+003
1.122205e+003, 1.180149e+003
1.122687e+003, 1.193495e+003
1.123169e+003, 1.207581e+003
1.123651e+003, 1.220830e+003
1.124133e+003, 1.222319e+003
1.124615e+003, 1.208178e+003
1.125098e+003, 1.201285e+003
1.125580e+003, 1.203611e+003
1.126062e+003, 1.208931e+003
1.126544e+003, 1.216188e+003
1.127026e+003, 1.222404e+003
1.127508e+003, 1.224557e+003
1.127990e+003, 1.225024e+003
1.128472e+003, 1.230341e+003
1.128954e+003, 1.240739e+003
1.129437e+003, 1.247707e+003
1.129919e+003, 1.251132e+003
1.130401e+003, 1.252998e+003
1.130883e+003, 1.253638e+003
1.131365e+003, 1.253091e+003
1.131847e+003, 1.250850e+003
1.132329e+003, 1.251014e+003
1.132811e+003, 1.261477e+003
1.133293e+003, 1.278797e+003
1.133776e+003, 1.284616e+003
1.134258e+003, 1.280685e+003
1.134740e+003, 1.283927e+003
1.135222e+003, 1.295861e+003
1.135704e+003, 1.308973e+003
1.136186e+003, 1.320119e+003
1.136668e+003, 1.328096e+003
1.137150e+003, 1.331166e+003
1.137633e+003, 1.331614e+003
1.138115e+003, 1.333010e+003
1.138597e+003, 1.335839e+003
1.139079e+003, 1.343954e+003
1.139561e+003, 1.355098e+003
1.140043e+003, 1.357901e+003
1.140525e+003, 1.351172e+003
1.141007e+003, 1.347845e+003
1.141490e+003, 1.356458e+003
1.141972e+003, 1.369633e+003
1.142454e+003, 1.379729e+003
1.142936e+003, 1.387812e+003
1.143418e+003, 1.395547e+003
1.143900e+003, 1.402602e+003
1.144382e+003, 1.407810e+003
1.144864e+003, 1.411527e+003
1.145346e+003, 1.414968e+003
1.145828e+003, 1.418661e+003
1.146311e+003, 1.423998e+003
1.146793e+003, 1.432193e+003
1.147275e+003, 1.442362e+003
1.147757e+003, 1.456250e+003
1.148239e+003, 1.469505e+003
1.148721e+003, 1.476121e+003
1.149203e+003, 1.478238e+003
1.149685e+003, 1.479282e+003
1.150168e+003, 1.480938e+003
1.150650e+003, 1.487854e+003
1.151132e+003, 1.504719e+003
1.151614e+003, 1.521030e+003
1.152096e+003, 1.530894e+003
1.152578e+003, 1.538926e+003
1.153060e+003, 1.548692e+003
1.153542e+003, 1.558161e+003
1.154025e+003, 1.564359e+003
1.154507e+003, 1.567981e+003
1.154989e+003, 1.572005e+003
1.155471e+003, 1.576940e+003
1.155953e+003, 1.582764e+003
1.156435e+003, 1.586991e+003
1.156917e+003, 1.595585e+003
1.157399e+003, 1.616079e+003
1.157881e+003, 1.635832e+003
1.158364e+003, 1.646423e+003
1.158846e+003, 1.650470e+003
1.159328e+003, 1.650959e+003
1.159810e+003, 1.647883e+003
1.160292e+003, 1.650393e+003
1.160774e+003, 1.664999e+003
1.161256e+003, 1.673252e+003
1.161738e+003, 1.669283e+003
1.162220e+003, 1.667238e+003
1.162703e+003, 1.672132e+003
1.163185e+003, 1.681149e+003
1.163667e+003, 1.691753e+003
1.164149e+003, 1.704395e+003
1.164631e+003, 1.721587e+003
1.165113e+003, 1.745350e+003
1.165595e+003, 1.760773e+003
1.166077e+003, 1.766432e+003
1.166560e+003, 1.769651e+003
1.167042e+003, 1.771152e+003
1.167524e+003, 1.774089e+003
1.168006e+003, 1.780231e+003
1.168488e+003, 1.789225e+003
1.168970e+003, 1.801292e+003
1.169452e+003, 1.815137e+003
1.169934e+003, 1.821844e+003
1.170417e+003, 1.822407e+003
1.170899e+003, 1.834414e+003
1.171381e+003, 1.858269e+003
1.171863e+003, 1.873121e+003
1.172345e+003, 1.872146e+003
1.172827e+003, 1.867176e+003
1.173309e+003, 1.867334e+003
1.173791e+003, 1.871195e+003
1.174273e+003, 1.876978e+003
1.174755e+003, 1.884368e+003
1.175238e+003, 1.892631e+003
1.175720e+003, 1.901910e+003
1.176202e+003, 1.913090e+003
1.176684e+003, 1.925805e+003
1.177166e+003, 1.937330e+003
1.177648e+003, 1.946649e+003
1.178130e+003, 1.957852e+003
1.178612e+003, 1.980208e+003
1.179095e+003, 1.999406e+003
1.179577e+003, 1.993880e+003
1.180059e+003, 1.982762e+003
1.180541e+003, 1.992860e+003
1.181023e+003, 2.014602e+003
1.181505e+003, 2.024763e+003
1.181987e+003, 2.021127e+003
1.182469e+003, 2.020024e+003
1.182952e+003, 2.028561e+003
1.183434e+003, 2.038432e+003
1.183916e+003, 2.046391e+003
1.184398e+003, 2.054061e+003
1.184880e+003, 2.064528e+003
1.185362e+003, 2.073263e+003
1.185844e+003, 2.072894e+003
1.186326e+003, 2.068058e+003
1.186808e+003, 2.069638e+003
1.187291e+003, 2.078794e+003
1.187773e+003, 2.094051e+003
1.188255e+003, 2.123440e+003
1.188737e+003, 2.146267e+003
1.189219e+003, 2.159425e+003
1.189701e+003, 2.166941e+003
1.190183e+003, 2.165879e+003
1.190665e+003, 2.165573e+003
1.191147e+003, 2.178105e+003
1.191630e+003, 2.199245e+003
1.192112e+003, 2.209560e+003
1.192594e+003, 2.204938e+003
1.193076e+003, 2.212101e+003
1.193558e+003, 2.234825e+003
1.194040e+003, 2.248531e+003
1.194522e+003, 2.245908e+003
1.195004e+003, 2.244413e+003
1.195487e+003, 2.254683e+003
1.195969e+003, 2.270630e+003
1.196451e+003, 2.284601e+003
1.196933e+003, 2.296481e+003
1.197415e+003, 2.304512e+003
1.197897e+003, 2.309858e+003
1.198379e+003, 2.320615e+003
1.198861e+003, 2.335965e+003
1.199344e+003, 2.344563e+003
1.199826e+003, 2.344173e+003
1.200308e+003, 2.346529e+003
1.200790e+003, 2.359908e+003
1.201272e+003, 2.377712e+003
1.201754e+003, 2.394798e+003
1.202236e+003, 2.409108e+003
1.202718e+003, 2.415088e+003
1.203200e+003, 2.417680e+003
1.203682e+003, 2.424819e+003
1.204165e+003, 2.436503e+003
1.204647e+003, 2.449468e+003
1.205129e+003, 2.462737e+003
1.205611e+003, 2.477387e+003
1.206093e+003, 2.494491e+003
1.206575e+003, 2.512028e+003
1.207057e+003, 2.533924e+003
1.207539e+003, 2.550352e+003
1.208022e+003, 2.547099e+003
1.208504e+003, 2.540279e+003
1.208986e+003, 2.549716e+003
1.209468e+003, 2.572969e+003
1.209950e+003, 2.597326e+003
1.210432e+003, 2.624137e+003
1.210914e+003, 2.640747e+003
1.211396e+003, 2.636236e+003
1.211879e+003, 2.637148e+003
1.212361e+003, 2.649071e+003
1.212843e+003, 2.664290e+003
1.213325e+003, 2.681360e+003
1.213807e+003, 2.695982e+003
1.214289e+003, 2.700675e+003
1.214771e+003, 2.699560e+003
1.215253e+003, 2.714766e+003
1.215735e+003, 2.748895e+003
1.216218e+003, 2.775624e+003
1.216700e+003, 2.794557e+003
1.217182e+003, 2.800875e+003
1.217664e+003, 2.792842e+003
1.218146e+003, 2.790646e+003
1.218628e+003, 2.806516e+003
1.219110e+003, 2.830739e+003
1.219592e+003, 2.852858e+003
1.220074e+003, 2.871371e+003
1.220557e+003, 2.880392e+003
1.221039e+003, 2.883528e+003
1.221521e+003, 2.890381e+003
1.222003e+003, 2.900414e+003
1.222485e+003, 2.909402e+003
1.222967e+003, 2.916114e+003
1.223449e+003, 2.920581e+003
1.223931e+003, 2.922448e+003
1.224414e+003, 2.924195e+003
1.224896e+003, 2.925575e+003
1.225378e+003, 2.930068e+003
1.225860e+003, 2.943213e+003
1.226342e+003, 2.958602e+003
1.226824e+003, 2.970700e+003
1.227306e+003, 2.979210e+003
1.227788e+003, 2.984255e+003
1.228271e+003, 2.986171e+003
1.228753e+003, 2.987701e+003
1.229235e+003, 2.984564e+003
1.229717e+003, 2.989947e+003
1.230199e+003, 3.018111e+003
1.230681e+003, 3.037662e+003
1.231163e+003, 3.027500e+003
1.231645e+003, 3.020475e+003
1.232127e+003, 3.046547e+003
1.232609e+003, 3.085945e+003
1.233092e+003, 3.097166e+003
1.233574e+003, 3.081400e+003
1.234056e+003, 3.095809e+003
1.234538e+003, 3.146790e+003
1.235020e+003, 3.170079e+003
1.235502e+003, 3.157527e+003
1.235984e+003, 3.151392e+003
1.236466e+003, 3.166280e+003
1.236949e+003, 3.183780e+003
1.237431e+003, 3.189038e+003
1.237913e+003, 3.191795e+003
1.238395e+003, 3.208862e+003
1.238877e+003, 3.234778e+003
1.239359e+003, 3.258407e+003
1.239841e+003, 3.279645e+003
1.240323e+003, 3.297499e+003
1.240806e+003, 3.313339e+003
1.241288e+003, 3.330710e+003
1.241770e+003, 3.350903e+003
1.242252e+003, 3.374639e+003
1.242734e+003, 3.403967e+003
1.243216e+003, 3.432907e+003
1.243698e+003, 3.457174e+003
1.244180e+003, 3.480046e+003
1.244662e+003, 3.502689e+003
1.245145e+003, 3.525974e+003
1.245627e+003, 3.549315e+003
1.246109e+003, 3.574298e+003
1.246591e+003, 3.606827e+003
1.247073e+003, 3.648109e+003
1.247555e+003, 3.679123e+003
1.248037e+003, 3.689377e+003
1.248519e+003, 3.706532e+003
1.249001e+003, 3.729683e+003
1.249484e+003, 3.765667e+003
1.249966e+003, 3.822959e+003
1.250448e+003, 3.879456e+003
1.250930e+003, 3.917517e+003
1.251412e+003, 3.944240e+003
1.251894e+003, 3.971862e+003
1.252376e+003, 4.001048e+003
1.252858e+003, 4.037506e+003
1.253341e+003, 4.080116e+003
1.253823e+003, 4.119490e+003
1.254305e+003, 4.155379e+003
1.254787e+003, 4.192040e+003
1.255269e+003, 4.231594e+003
1.255751e+003, 4.280326e+003
1.256233e+003, 4.344407e+003
1.256715e+003, 4.407121e+003
1.257198e+003, 4.448241e+003
1.257680e+003, 4.480864e+003
1.258162e+003, 4.512260e+003
1.258644e+003, 4.550086e+003
1.259126e+003, 4.609580e+003
1.259608e+003, 4.681097e+003
1.260090e+003, 4.744035e+003
1.260572e+003, 4.795577e+003
1.261054e+003, 4.846247e+003
1.261536e+003, 4.894692e+003
1.262019e+003, 4.952295e+003
1.262501e+003, 5.028884e+003
1.262983e+003, 5.104476e+003
1.263465e+003, 5.172717e+003
1.263947e+003, 5.237720e+003
1.264429e+003, 5.297587e+003
1.264911e+003, 5.360859e+003
1.265393e+003, 5.442703e+003
1.265876e+003, 5.539522e+003
1.266358e+003, 5.631725e+003
1.266840e+003, 5.719257e+003
1.267322e+003, 5.789786e+003
1.267804e+003, 5.843563e+003
1.268286e+003, 5.924845e+003
1.268768e+003, 6.042906e+003
1.269250e+003, 6.159813e+003
1.269733e+003, 6.254611e+003
1.270215e+003, 6.347462e+003
1.270697e+003, 6.464785e+003
1.271179e+003, 6.587068e+003
1.271661e+003, 6.680191e+003
1.272143e+003, 6.765380e+003
1.272625e+003, 6.869456e+003
1.273107e+003, 6.990805e+003
1.273589e+003, 7.129204e+003
1.274072e+003, 7.277044e+003
1.274554e+003, 7.410808e+003
1.275036e+003, 7.520291e+003
1.275518e+003, 7.645952e+003
1.276000e+003, 7.822294e+003
1.276482e+003, 7.982505e+003
1.276964e+003, 8.084855e+003
1.277446e+003, 8.198173e+003
1.277929e+003, 8.354826e+003
1.278411e+003, 8.531416e+003
1.278893e+003, 8.705928e+003
1.279375e+003, 8.883359e+003
1.279857e+003, 9.080137e+003
1.280339e+003, 9.296447e+003
1.280821e+003, 9.502410e+003
1.281303e+003, 9.698706e+003
1.281786e+003, 9.925876e+003
1.282268e+003, 1.019051e+004
##END=



