##NAMES=Perovskite
##RRUFFID=R160074
##IDEAL CHEMISTRY=CaTi^4+^O_3_
##LOCALITY=Zlatoust, Southern Ural Mountains, Chelyabinsk, Russia
##OWNER=RRUFF
##SOURCE=UAMM
##DESCRIPTION=
##STATUS=The identification of this mineral has been determined only by Raman spectroscopy
##URL=rruff.info/R160074
8.813672e+001, 8.129076e+002
8.861884e+001, 8.196088e+002
8.910095e+001, 8.292620e+002
8.958307e+001, 8.436278e+002
9.006519e+001, 8.611191e+002
9.054730e+001, 8.817161e+002
9.102942e+001, 9.063329e+002
9.151154e+001, 9.273549e+002
9.199365e+001, 9.357222e+002
9.247577e+001, 9.349520e+002
9.295789e+001, 9.345944e+002
9.344000e+001, 9.396105e+002
9.392212e+001, 9.476165e+002
9.440424e+001, 9.543440e+002
9.488635e+001, 9.604889e+002
9.536847e+001, 9.664476e+002
9.585059e+001, 9.717870e+002
9.633270e+001, 9.765248e+002
9.681482e+001, 9.823344e+002
9.729694e+001, 9.890519e+002
9.777905e+001, 9.968541e+002
9.826117e+001, 1.009674e+003
9.874329e+001, 1.029019e+003
9.922540e+001, 1.051866e+003
9.970752e+001, 1.070891e+003
1.001896e+002, 1.084946e+003
1.006718e+002, 1.098816e+003
1.011539e+002, 1.115077e+003
1.016360e+002, 1.133719e+003
1.021181e+002, 1.154935e+003
1.026002e+002, 1.178786e+003
1.030823e+002, 1.205111e+003
1.035645e+002, 1.232521e+003
1.040466e+002, 1.259916e+003
1.045287e+002, 1.290058e+003
1.050108e+002, 1.325911e+003
1.054929e+002, 1.368702e+003
1.059750e+002, 1.414579e+003
1.064572e+002, 1.465008e+003
1.069393e+002, 1.521532e+003
1.074214e+002, 1.569470e+003
1.079035e+002, 1.603498e+003
1.083856e+002, 1.632254e+003
1.088677e+002, 1.664589e+003
1.093499e+002, 1.702290e+003
1.098320e+002, 1.742452e+003
1.103141e+002, 1.784612e+003
1.107962e+002, 1.829711e+003
1.112783e+002, 1.876015e+003
1.117604e+002, 1.924698e+003
1.122426e+002, 1.974893e+003
1.127247e+002, 2.024365e+003
1.132068e+002, 2.070440e+003
1.136889e+002, 2.117753e+003
1.141710e+002, 2.168682e+003
1.146531e+002, 2.227886e+003
1.151353e+002, 2.282339e+003
1.156174e+002, 2.326566e+003
1.160995e+002, 2.363745e+003
1.165816e+002, 2.402481e+003
1.170637e+002, 2.450649e+003
1.175458e+002, 2.498559e+003
1.180280e+002, 2.539877e+003
1.185101e+002, 2.569316e+003
1.189922e+002, 2.596154e+003
1.194743e+002, 2.624289e+003
1.199564e+002, 2.653600e+003
1.204385e+002, 2.683037e+003
1.209207e+002, 2.710902e+003
1.214028e+002, 2.738905e+003
1.218849e+002, 2.769086e+003
1.223670e+002, 2.807696e+003
1.228491e+002, 2.844956e+003
1.233312e+002, 2.870827e+003
1.238134e+002, 2.885674e+003
1.242955e+002, 2.895952e+003
1.247776e+002, 2.903874e+003
1.252597e+002, 2.910753e+003
1.257418e+002, 2.919299e+003
1.262239e+002, 2.931859e+003
1.267061e+002, 2.946454e+003
1.271882e+002, 2.959257e+003
1.276703e+002, 2.970171e+003
1.281524e+002, 2.980981e+003
1.286345e+002, 2.994010e+003
1.291166e+002, 3.008786e+003
1.295988e+002, 3.023208e+003
1.300809e+002, 3.036507e+003
1.305630e+002, 3.048698e+003
1.310451e+002, 3.059624e+003
1.315272e+002, 3.068975e+003
1.320093e+002, 3.077748e+003
1.324915e+002, 3.087653e+003
1.329736e+002, 3.098668e+003
1.334557e+002, 3.109432e+003
1.339378e+002, 3.118294e+003
1.344199e+002, 3.125431e+003
1.349020e+002, 3.134560e+003
1.353842e+002, 3.146329e+003
1.358663e+002, 3.159417e+003
1.363484e+002, 3.171414e+003
1.368305e+002, 3.181873e+003
1.373126e+002, 3.192589e+003
1.377947e+002, 3.205467e+003
1.382769e+002, 3.221333e+003
1.387590e+002, 3.233373e+003
1.392411e+002, 3.240591e+003
1.397232e+002, 3.243414e+003
1.402053e+002, 3.242913e+003
1.406874e+002, 3.238149e+003
1.411696e+002, 3.232155e+003
1.416517e+002, 3.227058e+003
1.421338e+002, 3.223122e+003
1.426159e+002, 3.219807e+003
1.430980e+002, 3.217042e+003
1.435801e+002, 3.215035e+003
1.440623e+002, 3.214712e+003
1.445444e+002, 3.217187e+003
1.450265e+002, 3.220457e+003
1.455086e+002, 3.222861e+003
1.459907e+002, 3.223725e+003
1.464728e+002, 3.225069e+003
1.469550e+002, 3.227604e+003
1.474371e+002, 3.231483e+003
1.479192e+002, 3.234122e+003
1.484013e+002, 3.234411e+003
1.488834e+002, 3.234078e+003
1.493655e+002, 3.234697e+003
1.498477e+002, 3.236215e+003
1.503298e+002, 3.238629e+003
1.508119e+002, 3.242679e+003
1.512940e+002, 3.249076e+003
1.517761e+002, 3.252797e+003
1.522583e+002, 3.251957e+003
1.527404e+002, 3.248929e+003
1.532225e+002, 3.246192e+003
1.537046e+002, 3.245437e+003
1.541867e+002, 3.243704e+003
1.546688e+002, 3.240547e+003
1.551510e+002, 3.236208e+003
1.556331e+002, 3.229480e+003
1.561152e+002, 3.218227e+003
1.565973e+002, 3.205073e+003
1.570794e+002, 3.193631e+003
1.575615e+002, 3.185481e+003
1.580437e+002, 3.178458e+003
1.585258e+002, 3.171843e+003
1.590079e+002, 3.165706e+003
1.594900e+002, 3.159581e+003
1.599721e+002, 3.152873e+003
1.604542e+002, 3.146110e+003
1.609364e+002, 3.140210e+003
1.614185e+002, 3.135498e+003
1.619006e+002, 3.131643e+003
1.623827e+002, 3.128792e+003
1.628648e+002, 3.127828e+003
1.633469e+002, 3.125655e+003
1.638291e+002, 3.119789e+003
1.643112e+002, 3.111571e+003
1.647933e+002, 3.104042e+003
1.652754e+002, 3.098911e+003
1.657575e+002, 3.094821e+003
1.662396e+002, 3.090682e+003
1.667218e+002, 3.085943e+003
1.672039e+002, 3.081835e+003
1.676860e+002, 3.078598e+003
1.681681e+002, 3.076547e+003
1.686502e+002, 3.076494e+003
1.691323e+002, 3.079543e+003
1.696145e+002, 3.084595e+003
1.700966e+002, 3.090643e+003
1.705787e+002, 3.097766e+003
1.710608e+002, 3.105359e+003
1.715429e+002, 3.111524e+003
1.720250e+002, 3.117138e+003
1.725072e+002, 3.125899e+003
1.729893e+002, 3.141443e+003
1.734714e+002, 3.161277e+003
1.739535e+002, 3.181875e+003
1.744356e+002, 3.201544e+003
1.749177e+002, 3.222463e+003
1.753999e+002, 3.246876e+003
1.758820e+002, 3.274995e+003
1.763641e+002, 3.306206e+003
1.768462e+002, 3.346385e+003
1.773283e+002, 3.389387e+003
1.778104e+002, 3.423606e+003
1.782926e+002, 3.444124e+003
1.787747e+002, 3.455365e+003
1.792568e+002, 3.463603e+003
1.797389e+002, 3.468654e+003
1.802210e+002, 3.467457e+003
1.807031e+002, 3.456591e+003
1.811853e+002, 3.437417e+003
1.816674e+002, 3.413094e+003
1.821495e+002, 3.383079e+003
1.826316e+002, 3.349515e+003
1.831137e+002, 3.316474e+003
1.835958e+002, 3.283630e+003
1.840780e+002, 3.252148e+003
1.845601e+002, 3.222131e+003
1.850422e+002, 3.194157e+003
1.855243e+002, 3.168228e+003
1.860064e+002, 3.144512e+003
1.864885e+002, 3.122960e+003
1.869707e+002, 3.104956e+003
1.874528e+002, 3.090606e+003
1.879349e+002, 3.077120e+003
1.884170e+002, 3.060408e+003
1.888991e+002, 3.041179e+003
1.893812e+002, 3.025124e+003
1.898634e+002, 3.015226e+003
1.903455e+002, 3.009827e+003
1.908276e+002, 3.002002e+003
1.913097e+002, 2.991223e+003
1.917918e+002, 2.980501e+003
1.922739e+002, 2.973436e+003
1.927561e+002, 2.969862e+003
1.932382e+002, 2.966912e+003
1.937203e+002, 2.963603e+003
1.942024e+002, 2.960021e+003
1.946845e+002, 2.957017e+003
1.951666e+002, 2.954791e+003
1.956488e+002, 2.952191e+003
1.961309e+002, 2.947186e+003
1.966130e+002, 2.939454e+003
1.970951e+002, 2.932945e+003
1.975772e+002, 2.929333e+003
1.980593e+002, 2.928319e+003
1.985415e+002, 2.926639e+003
1.990236e+002, 2.924303e+003
1.995057e+002, 2.921503e+003
1.999878e+002, 2.918505e+003
2.004699e+002, 2.915395e+003
2.009520e+002, 2.912169e+003
2.014342e+002, 2.908684e+003
2.019163e+002, 2.905041e+003
2.023984e+002, 2.902652e+003
2.028805e+002, 2.901672e+003
2.033626e+002, 2.901857e+003
2.038447e+002, 2.902949e+003
2.043269e+002, 2.905028e+003
2.048090e+002, 2.907754e+003
2.052911e+002, 2.911039e+003
2.057732e+002, 2.914872e+003
2.062553e+002, 2.918833e+003
2.067374e+002, 2.922648e+003
2.072196e+002, 2.926819e+003
2.077017e+002, 2.932024e+003
2.081838e+002, 2.938243e+003
2.086659e+002, 2.945283e+003
2.091480e+002, 2.953082e+003
2.096301e+002, 2.961707e+003
2.101123e+002, 2.970267e+003
2.105944e+002, 2.978509e+003
2.110765e+002, 2.987003e+003
2.115586e+002, 2.996480e+003
2.120407e+002, 3.006869e+003
2.125228e+002, 3.018433e+003
2.130050e+002, 3.031412e+003
2.134871e+002, 3.045899e+003
2.139692e+002, 3.060001e+003
2.144513e+002, 3.073156e+003
2.149334e+002, 3.086537e+003
2.154155e+002, 3.101975e+003
2.158977e+002, 3.119614e+003
2.163798e+002, 3.139057e+003
2.168619e+002, 3.159968e+003
2.173440e+002, 3.182137e+003
2.178261e+002, 3.206926e+003
2.183082e+002, 3.234457e+003
2.187904e+002, 3.264212e+003
2.192725e+002, 3.295924e+003
2.197546e+002, 3.330676e+003
2.202367e+002, 3.364615e+003
2.207188e+002, 3.396805e+003
2.212009e+002, 3.427913e+003
2.216831e+002, 3.455257e+003
2.221652e+002, 3.479581e+003
2.226473e+002, 3.499605e+003
2.231294e+002, 3.512948e+003
2.236115e+002, 3.518575e+003
2.240936e+002, 3.519949e+003
2.245758e+002, 3.518232e+003
2.250579e+002, 3.513745e+003
2.255400e+002, 3.503294e+003
2.260221e+002, 3.484161e+003
2.265042e+002, 3.461453e+003
2.269863e+002, 3.442159e+003
2.274685e+002, 3.427401e+003
2.279506e+002, 3.413437e+003
2.284327e+002, 3.398994e+003
2.289148e+002, 3.383498e+003
2.293969e+002, 3.370347e+003
2.298790e+002, 3.358912e+003
2.303612e+002, 3.350237e+003
2.308433e+002, 3.345935e+003
2.313254e+002, 3.347797e+003
2.318075e+002, 3.350580e+003
2.322896e+002, 3.352821e+003
2.327717e+002, 3.354231e+003
2.332539e+002, 3.357355e+003
2.337360e+002, 3.361426e+003
2.342181e+002, 3.367789e+003
2.347002e+002, 3.378310e+003
2.351823e+002, 3.394520e+003
2.356644e+002, 3.412163e+003
2.361466e+002, 3.430128e+003
2.366287e+002, 3.448186e+003
2.371108e+002, 3.469111e+003
2.375929e+002, 3.491981e+003
2.380750e+002, 3.518313e+003
2.385571e+002, 3.549917e+003
2.390393e+002, 3.588791e+003
2.395214e+002, 3.629410e+003
2.400035e+002, 3.670380e+003
2.404856e+002, 3.711969e+003
2.409677e+002, 3.756473e+003
2.414498e+002, 3.805676e+003
2.419320e+002, 3.856033e+003
2.424141e+002, 3.905596e+003
2.428962e+002, 3.957929e+003
2.433783e+002, 4.002536e+003
2.438604e+002, 4.037397e+003
2.443425e+002, 4.062422e+003
2.448247e+002, 4.080332e+003
2.453068e+002, 4.092443e+003
2.457889e+002, 4.095759e+003
2.462710e+002, 4.087348e+003
2.467531e+002, 4.064187e+003
2.472352e+002, 4.034971e+003
2.477174e+002, 3.999674e+003
2.481995e+002, 3.958886e+003
2.486816e+002, 3.917278e+003
2.491637e+002, 3.874945e+003
2.496458e+002, 3.831742e+003
2.501279e+002, 3.787619e+003
2.506101e+002, 3.740415e+003
2.510922e+002, 3.696666e+003
2.515743e+002, 3.658425e+003
2.520564e+002, 3.625016e+003
2.525385e+002, 3.591600e+003
2.530206e+002, 3.556594e+003
2.535028e+002, 3.523497e+003
2.539849e+002, 3.495918e+003
2.544670e+002, 3.475914e+003
2.549491e+002, 3.455368e+003
2.554312e+002, 3.433086e+003
2.559133e+002, 3.409521e+003
2.563955e+002, 3.386074e+003
2.568776e+002, 3.361730e+003
2.573597e+002, 3.338604e+003
2.578418e+002, 3.318042e+003
2.583239e+002, 3.300220e+003
2.588061e+002, 3.283863e+003
2.592882e+002, 3.269419e+003
2.597703e+002, 3.256121e+003
2.602524e+002, 3.241361e+003
2.607345e+002, 3.224369e+003
2.612166e+002, 3.207235e+003
2.616988e+002, 3.190766e+003
2.621809e+002, 3.175306e+003
2.626630e+002, 3.160785e+003
2.631451e+002, 3.147745e+003
2.636272e+002, 3.135624e+003
2.641093e+002, 3.123013e+003
2.645915e+002, 3.109313e+003
2.650736e+002, 3.096472e+003
2.655557e+002, 3.085627e+003
2.660378e+002, 3.077801e+003
2.665199e+002, 3.068671e+003
2.670020e+002, 3.057737e+003
2.674842e+002, 3.045910e+003
2.679663e+002, 3.035072e+003
2.684484e+002, 3.024993e+003
2.689305e+002, 3.016522e+003
2.694126e+002, 3.010126e+003
2.698947e+002, 3.005794e+003
2.703769e+002, 3.003115e+003
2.708590e+002, 3.002423e+003
2.713411e+002, 3.002769e+003
2.718232e+002, 3.002257e+003
2.723053e+002, 3.000219e+003
2.727874e+002, 2.999542e+003
2.732696e+002, 3.000891e+003
2.737517e+002, 3.004186e+003
2.742338e+002, 3.010880e+003
2.747159e+002, 3.021216e+003
2.751980e+002, 3.034369e+003
2.756801e+002, 3.049254e+003
2.761623e+002, 3.065941e+003
2.766444e+002, 3.084097e+003
2.771265e+002, 3.104022e+003
2.776086e+002, 3.125860e+003
2.780907e+002, 3.147038e+003
2.785728e+002, 3.167792e+003
2.790550e+002, 3.187809e+003
2.795371e+002, 3.206815e+003
2.800192e+002, 3.224867e+003
2.805013e+002, 3.241796e+003
2.809834e+002, 3.257305e+003
2.814655e+002, 3.271700e+003
2.819477e+002, 3.286791e+003
2.824298e+002, 3.302733e+003
2.829119e+002, 3.318018e+003
2.833940e+002, 3.331349e+003
2.838761e+002, 3.342706e+003
2.843582e+002, 3.352192e+003
2.848404e+002, 3.359606e+003
2.853225e+002, 3.365214e+003
2.858046e+002, 3.369846e+003
2.862867e+002, 3.373442e+003
2.867688e+002, 3.375959e+003
2.872509e+002, 3.377157e+003
2.877331e+002, 3.377098e+003
2.882152e+002, 3.376365e+003
2.886973e+002, 3.374848e+003
2.891794e+002, 3.372926e+003
2.896615e+002, 3.371661e+003
2.901436e+002, 3.371032e+003
2.906258e+002, 3.369958e+003
2.911079e+002, 3.366560e+003
2.915900e+002, 3.361798e+003
2.920721e+002, 3.360819e+003
2.925542e+002, 3.365735e+003
2.930363e+002, 3.371067e+003
2.935185e+002, 3.366586e+003
2.940006e+002, 3.353267e+003
2.944827e+002, 3.340751e+003
2.949648e+002, 3.335372e+003
2.954469e+002, 3.334702e+003
2.959290e+002, 3.332216e+003
2.964112e+002, 3.327216e+003
2.968933e+002, 3.321517e+003
2.973754e+002, 3.317294e+003
2.978575e+002, 3.314291e+003
2.983396e+002, 3.311484e+003
2.988217e+002, 3.308756e+003
2.993039e+002, 3.305796e+003
2.997860e+002, 3.301847e+003
3.002681e+002, 3.296786e+003
3.007502e+002, 3.291803e+003
3.012323e+002, 3.288355e+003
3.017144e+002, 3.285909e+003
3.021966e+002, 3.283344e+003
3.026787e+002, 3.280185e+003
3.031608e+002, 3.276667e+003
3.036429e+002, 3.273183e+003
3.041250e+002, 3.269736e+003
3.046071e+002, 3.265677e+003
3.050893e+002, 3.260171e+003
3.055714e+002, 3.253761e+003
3.060535e+002, 3.247425e+003
3.065356e+002, 3.240806e+003
3.070177e+002, 3.234958e+003
3.074998e+002, 3.231756e+003
3.079820e+002, 3.230641e+003
3.084641e+002, 3.228833e+003
3.089462e+002, 3.224316e+003
3.094283e+002, 3.218266e+003
3.099104e+002, 3.211837e+003
3.103925e+002, 3.204898e+003
3.108747e+002, 3.198508e+003
3.113568e+002, 3.194216e+003
3.118389e+002, 3.191257e+003
3.123210e+002, 3.187506e+003
3.128031e+002, 3.180681e+003
3.132852e+002, 3.173374e+003
3.137674e+002, 3.167592e+003
3.142495e+002, 3.164038e+003
3.147316e+002, 3.161122e+003
3.152137e+002, 3.159592e+003
3.156958e+002, 3.158060e+003
3.161779e+002, 3.154149e+003
3.166601e+002, 3.144176e+003
3.171422e+002, 3.133782e+003
3.176243e+002, 3.125839e+003
3.181064e+002, 3.120849e+003
3.185885e+002, 3.117249e+003
3.190706e+002, 3.115203e+003
3.195528e+002, 3.114046e+003
3.200349e+002, 3.113020e+003
3.205170e+002, 3.111858e+003
3.209991e+002, 3.110870e+003
3.214812e+002, 3.110085e+003
3.219633e+002, 3.109496e+003
3.224455e+002, 3.109316e+003
3.229276e+002, 3.109455e+003
3.234097e+002, 3.110059e+003
3.238918e+002, 3.111234e+003
3.243739e+002, 3.113412e+003
3.248560e+002, 3.115665e+003
3.253382e+002, 3.117492e+003
3.258203e+002, 3.119080e+003
3.263024e+002, 3.121686e+003
3.267845e+002, 3.125865e+003
3.272666e+002, 3.130712e+003
3.277487e+002, 3.135817e+003
3.282309e+002, 3.141168e+003
3.287130e+002, 3.146668e+003
3.291951e+002, 3.151993e+003
3.296772e+002, 3.157474e+003
3.301593e+002, 3.163953e+003
3.306414e+002, 3.171484e+003
3.311236e+002, 3.179898e+003
3.316057e+002, 3.189267e+003
3.320878e+002, 3.199819e+003
3.325699e+002, 3.210868e+003
3.330520e+002, 3.223179e+003
3.335341e+002, 3.235445e+003
3.340163e+002, 3.245496e+003
3.344984e+002, 3.251927e+003
3.349805e+002, 3.258874e+003
3.354626e+002, 3.267942e+003
3.359447e+002, 3.279362e+003
3.364268e+002, 3.288606e+003
3.369090e+002, 3.295362e+003
3.373911e+002, 3.300615e+003
3.378732e+002, 3.304906e+003
3.383553e+002, 3.307792e+003
3.388374e+002, 3.311507e+003
3.393195e+002, 3.316746e+003
3.398017e+002, 3.323010e+003
3.402838e+002, 3.328714e+003
3.407659e+002, 3.334126e+003
3.412480e+002, 3.337782e+003
3.417301e+002, 3.338077e+003
3.422122e+002, 3.334824e+003
3.426944e+002, 3.331897e+003
3.431765e+002, 3.329942e+003
3.436586e+002, 3.328075e+003
3.441407e+002, 3.324683e+003
3.446228e+002, 3.319796e+003
3.451049e+002, 3.313615e+003
3.455871e+002, 3.306267e+003
3.460692e+002, 3.297741e+003
3.465513e+002, 3.288209e+003
3.470334e+002, 3.277587e+003
3.475155e+002, 3.266692e+003
3.479977e+002, 3.256713e+003
3.484798e+002, 3.247507e+003
3.489619e+002, 3.238623e+003
3.494440e+002, 3.229965e+003
3.499261e+002, 3.221461e+003
3.504082e+002, 3.213583e+003
3.508904e+002, 3.206297e+003
3.513725e+002, 3.197494e+003
3.518546e+002, 3.183120e+003
3.523367e+002, 3.165875e+003
3.528188e+002, 3.151487e+003
3.533009e+002, 3.142568e+003
3.537831e+002, 3.135836e+003
3.542652e+002, 3.128218e+003
3.547473e+002, 3.119770e+003
3.552294e+002, 3.110828e+003
3.557115e+002, 3.101461e+003
3.561936e+002, 3.091818e+003
3.566758e+002, 3.081943e+003
3.571579e+002, 3.071512e+003
3.576400e+002, 3.061759e+003
3.581221e+002, 3.053227e+003
3.586042e+002, 3.046112e+003
3.590863e+002, 3.040539e+003
3.595685e+002, 3.038531e+003
3.600506e+002, 3.036741e+003
3.605327e+002, 3.032527e+003
3.610148e+002, 3.025324e+003
3.614969e+002, 3.019298e+003
3.619790e+002, 3.016626e+003
3.624612e+002, 3.015841e+003
3.629433e+002, 3.015320e+003
3.634254e+002, 3.015603e+003
3.639075e+002, 3.014995e+003
3.643896e+002, 3.012425e+003
3.648717e+002, 3.008017e+003
3.653539e+002, 3.003940e+003
3.658360e+002, 3.000571e+003
3.663181e+002, 2.997582e+003
3.668002e+002, 2.994695e+003
3.672823e+002, 2.991765e+003
3.677644e+002, 2.988993e+003
3.682466e+002, 2.986110e+003
3.687287e+002, 2.983357e+003
3.692108e+002, 2.981462e+003
3.696929e+002, 2.981818e+003
3.701750e+002, 2.981582e+003
3.706571e+002, 2.979470e+003
3.711393e+002, 2.974302e+003
3.716214e+002, 2.971397e+003
3.721035e+002, 2.972025e+003
3.725856e+002, 2.974054e+003
3.730677e+002, 2.974642e+003
3.735498e+002, 2.973003e+003
3.740320e+002, 2.971789e+003
3.745141e+002, 2.971569e+003
3.749962e+002, 2.972360e+003
3.754783e+002, 2.974151e+003
3.759604e+002, 2.977289e+003
3.764425e+002, 2.980741e+003
3.769247e+002, 2.983630e+003
3.774068e+002, 2.985848e+003
3.778889e+002, 2.988312e+003
3.783710e+002, 2.991116e+003
3.788531e+002, 2.994227e+003
3.793352e+002, 2.997755e+003
3.798174e+002, 3.001700e+003
3.802995e+002, 3.005460e+003
3.807816e+002, 3.008364e+003
3.812637e+002, 3.010576e+003
3.817458e+002, 3.013351e+003
3.822279e+002, 3.016827e+003
3.827101e+002, 3.020380e+003
3.831922e+002, 3.023865e+003
3.836743e+002, 3.026991e+003
3.841564e+002, 3.028385e+003
3.846385e+002, 3.027278e+003
3.851206e+002, 3.024193e+003
3.856028e+002, 3.019606e+003
3.860849e+002, 3.013591e+003
3.865670e+002, 3.007463e+003
3.870491e+002, 3.002320e+003
3.875312e+002, 2.997733e+003
3.880133e+002, 2.992912e+003
3.884955e+002, 2.987539e+003
3.889776e+002, 2.982244e+003
3.894597e+002, 2.977911e+003
3.899418e+002, 2.974250e+003
3.904239e+002, 2.970360e+003
3.909060e+002, 2.964020e+003
3.913882e+002, 2.958414e+003
3.918703e+002, 2.956169e+003
3.923524e+002, 2.957879e+003
3.928345e+002, 2.961201e+003
3.933166e+002, 2.965203e+003
3.937987e+002, 2.970105e+003
3.942809e+002, 2.976125e+003
3.947630e+002, 2.984942e+003
3.952451e+002, 2.993287e+003
3.957272e+002, 2.999724e+003
3.962093e+002, 3.004317e+003
3.966914e+002, 3.009426e+003
3.971736e+002, 3.016803e+003
3.976557e+002, 3.023974e+003
3.981378e+002, 3.029454e+003
3.986199e+002, 3.033033e+003
3.991020e+002, 3.034875e+003
3.995841e+002, 3.035784e+003
4.000663e+002, 3.034938e+003
4.005484e+002, 3.030253e+003
4.010305e+002, 3.019961e+003
4.015126e+002, 3.008043e+003
4.019947e+002, 2.995875e+003
4.024768e+002, 2.983958e+003
4.029590e+002, 2.969530e+003
4.034411e+002, 2.951673e+003
4.039232e+002, 2.932378e+003
4.044053e+002, 2.914019e+003
4.048874e+002, 2.897105e+003
4.053695e+002, 2.879171e+003
4.058517e+002, 2.859120e+003
4.063338e+002, 2.837780e+003
4.068159e+002, 2.817729e+003
4.072980e+002, 2.798953e+003
4.077801e+002, 2.781546e+003
4.082622e+002, 2.766035e+003
4.087444e+002, 2.752263e+003
4.092265e+002, 2.739172e+003
4.097086e+002, 2.726827e+003
4.101907e+002, 2.714533e+003
4.106728e+002, 2.700931e+003
4.111549e+002, 2.686156e+003
4.116371e+002, 2.671544e+003
4.121192e+002, 2.657542e+003
4.126013e+002, 2.644211e+003
4.130834e+002, 2.631987e+003
4.135655e+002, 2.620892e+003
4.140476e+002, 2.610132e+003
4.145298e+002, 2.599048e+003
4.150119e+002, 2.587799e+003
4.154940e+002, 2.576273e+003
4.159761e+002, 2.563942e+003
4.164582e+002, 2.552326e+003
4.169403e+002, 2.543604e+003
4.174225e+002, 2.536912e+003
4.179046e+002, 2.529770e+003
4.183867e+002, 2.520894e+003
4.188688e+002, 2.511340e+003
4.193509e+002, 2.501593e+003
4.198330e+002, 2.491330e+003
4.203152e+002, 2.482659e+003
4.207973e+002, 2.477340e+003
4.212794e+002, 2.473666e+003
4.217615e+002, 2.469627e+003
4.222436e+002, 2.464483e+003
4.227257e+002, 2.459247e+003
4.232079e+002, 2.454023e+003
4.236900e+002, 2.448849e+003
4.241721e+002, 2.443887e+003
4.246542e+002, 2.438780e+003
4.251363e+002, 2.434090e+003
4.256184e+002, 2.429888e+003
4.261006e+002, 2.425208e+003
4.265827e+002, 2.422944e+003
4.270648e+002, 2.424163e+003
4.275469e+002, 2.427215e+003
4.280290e+002, 2.429128e+003
4.285111e+002, 2.429377e+003
4.289933e+002, 2.429523e+003
4.294754e+002, 2.429384e+003
4.299575e+002, 2.429061e+003
4.304396e+002, 2.432642e+003
4.309217e+002, 2.441112e+003
4.314038e+002, 2.450584e+003
4.318860e+002, 2.457367e+003
4.323681e+002, 2.461441e+003
4.328502e+002, 2.465606e+003
4.333323e+002, 2.469907e+003
4.338144e+002, 2.475128e+003
4.342965e+002, 2.483514e+003
4.347787e+002, 2.494817e+003
4.352608e+002, 2.505919e+003
4.357429e+002, 2.515187e+003
4.362250e+002, 2.522998e+003
4.367071e+002, 2.530256e+003
4.371892e+002, 2.537018e+003
4.376714e+002, 2.542909e+003
4.381535e+002, 2.548097e+003
4.386356e+002, 2.552074e+003
4.391177e+002, 2.553953e+003
4.395998e+002, 2.553944e+003
4.400819e+002, 2.551208e+003
4.405641e+002, 2.544545e+003
4.410462e+002, 2.534452e+003
4.415283e+002, 2.522633e+003
4.420104e+002, 2.508210e+003
4.424925e+002, 2.493647e+003
4.429746e+002, 2.481081e+003
4.434568e+002, 2.471303e+003
4.439389e+002, 2.461120e+003
4.444210e+002, 2.448681e+003
4.449031e+002, 2.435512e+003
4.453852e+002, 2.423382e+003
4.458673e+002, 2.412259e+003
4.463495e+002, 2.402623e+003
4.468316e+002, 2.394934e+003
4.473137e+002, 2.389026e+003
4.477958e+002, 2.382872e+003
4.482779e+002, 2.375312e+003
4.487600e+002, 2.368729e+003
4.492422e+002, 2.364393e+003
4.497243e+002, 2.362998e+003
4.502064e+002, 2.362396e+003
4.506885e+002, 2.363046e+003
4.511706e+002, 2.364159e+003
4.516527e+002, 2.363913e+003
4.521349e+002, 2.361538e+003
4.526170e+002, 2.361450e+003
4.530991e+002, 2.365638e+003
4.535812e+002, 2.373408e+003
4.540633e+002, 2.380237e+003
4.545454e+002, 2.386210e+003
4.550276e+002, 2.391539e+003
4.555097e+002, 2.395880e+003
4.559918e+002, 2.399552e+003
4.564739e+002, 2.404205e+003
4.569560e+002, 2.410491e+003
4.574381e+002, 2.416561e+003
4.579203e+002, 2.419329e+003
4.584024e+002, 2.419636e+003
4.588845e+002, 2.420312e+003
4.593666e+002, 2.422832e+003
4.598488e+002, 2.426278e+003
4.603309e+002, 2.429464e+003
4.608130e+002, 2.432387e+003
4.612951e+002, 2.435998e+003
4.617772e+002, 2.441318e+003
4.622593e+002, 2.447353e+003
4.627415e+002, 2.453075e+003
4.632236e+002, 2.458093e+003
4.637057e+002, 2.463084e+003
4.641878e+002, 2.468461e+003
4.646699e+002, 2.473975e+003
4.651520e+002, 2.479235e+003
4.656342e+002, 2.483586e+003
4.661163e+002, 2.488134e+003
4.665984e+002, 2.493982e+003
4.670805e+002, 2.501582e+003
4.675626e+002, 2.506425e+003
4.680447e+002, 2.508086e+003
4.685269e+002, 2.507262e+003
4.690090e+002, 2.504333e+003
4.694911e+002, 2.498970e+003
4.699732e+002, 2.491970e+003
4.704553e+002, 2.482851e+003
4.709374e+002, 2.472396e+003
4.714196e+002, 2.462570e+003
4.719017e+002, 2.454073e+003
4.723838e+002, 2.443708e+003
4.728659e+002, 2.429359e+003
4.733480e+002, 2.411506e+003
4.738301e+002, 2.396063e+003
4.743123e+002, 2.383124e+003
4.747944e+002, 2.371546e+003
4.752765e+002, 2.360545e+003
4.757586e+002, 2.350090e+003
4.762407e+002, 2.339793e+003
4.767228e+002, 2.329260e+003
4.772050e+002, 2.319590e+003
4.776871e+002, 2.312517e+003
4.781692e+002, 2.307638e+003
4.786513e+002, 2.303829e+003
4.791334e+002, 2.300172e+003
4.796155e+002, 2.297470e+003
4.800977e+002, 2.296929e+003
4.805798e+002, 2.298530e+003
4.810619e+002, 2.300259e+003
4.815440e+002, 2.300122e+003
4.820261e+002, 2.299982e+003
4.825082e+002, 2.301595e+003
4.829904e+002, 2.306450e+003
4.834725e+002, 2.311484e+003
4.839546e+002, 2.315325e+003
4.844367e+002, 2.318822e+003
4.849188e+002, 2.323687e+003
4.854009e+002, 2.331832e+003
4.858831e+002, 2.339780e+003
4.863652e+002, 2.346291e+003
4.868473e+002, 2.351116e+003
4.873294e+002, 2.357816e+003
4.878115e+002, 2.368079e+003
4.882936e+002, 2.378258e+003
4.887758e+002, 2.385500e+003
4.892579e+002, 2.388652e+003
4.897400e+002, 2.392900e+003
4.902221e+002, 2.398505e+003
4.907042e+002, 2.405487e+003
4.911863e+002, 2.414680e+003
4.916685e+002, 2.426360e+003
4.921506e+002, 2.436251e+003
4.926327e+002, 2.443594e+003
4.931148e+002, 2.447637e+003
4.935969e+002, 2.444089e+003
4.940790e+002, 2.432940e+003
4.945612e+002, 2.420536e+003
4.950433e+002, 2.411342e+003
4.955254e+002, 2.404585e+003
4.960075e+002, 2.398958e+003
4.964896e+002, 2.394759e+003
4.969717e+002, 2.390077e+003
4.974539e+002, 2.383159e+003
4.979360e+002, 2.374614e+003
4.984181e+002, 2.365767e+003
4.989002e+002, 2.356116e+003
4.993823e+002, 2.347086e+003
4.998644e+002, 2.339817e+003
5.003466e+002, 2.334086e+003
5.008287e+002, 2.328129e+003
5.013108e+002, 2.321046e+003
5.017929e+002, 2.313865e+003
5.022750e+002, 2.307289e+003
5.027571e+002, 2.302045e+003
5.032393e+002, 2.295968e+003
5.037214e+002, 2.287874e+003
5.042035e+002, 2.279556e+003
5.046856e+002, 2.273531e+003
5.051677e+002, 2.271617e+003
5.056498e+002, 2.268317e+003
5.061320e+002, 2.261992e+003
5.066141e+002, 2.253349e+003
5.070962e+002, 2.246602e+003
5.075783e+002, 2.242006e+003
5.080604e+002, 2.238139e+003
5.085425e+002, 2.234172e+003
5.090247e+002, 2.230127e+003
5.095068e+002, 2.226391e+003
5.099889e+002, 2.222954e+003
5.104710e+002, 2.219871e+003
5.109531e+002, 2.217268e+003
5.114352e+002, 2.215091e+003
5.119174e+002, 2.213212e+003
5.123995e+002, 2.211831e+003
5.128816e+002, 2.210457e+003
5.133637e+002, 2.208529e+003
5.138458e+002, 2.206170e+003
5.143279e+002, 2.203724e+003
5.148101e+002, 2.201060e+003
5.152922e+002, 2.198666e+003
5.157743e+002, 2.196676e+003
5.162564e+002, 2.195060e+003
5.167385e+002, 2.194713e+003
5.172206e+002, 2.197560e+003
5.177028e+002, 2.200929e+003
5.181849e+002, 2.202649e+003
5.186670e+002, 2.199838e+003
5.191491e+002, 2.198535e+003
5.196312e+002, 2.199419e+003
5.201133e+002, 2.201923e+003
5.205955e+002, 2.205031e+003
5.210776e+002, 2.209241e+003
5.215597e+002, 2.212977e+003
5.220418e+002, 2.215565e+003
5.225239e+002, 2.217055e+003
5.230060e+002, 2.218917e+003
5.234882e+002, 2.221097e+003
5.239703e+002, 2.223720e+003
5.244524e+002, 2.227274e+003
5.249345e+002, 2.231571e+003
5.254166e+002, 2.234850e+003
5.258987e+002, 2.236822e+003
5.263809e+002, 2.238182e+003
5.268630e+002, 2.240119e+003
5.273451e+002, 2.242274e+003
5.278272e+002, 2.243463e+003
5.283093e+002, 2.242511e+003
5.287914e+002, 2.241042e+003
5.292736e+002, 2.240849e+003
5.297557e+002, 2.241706e+003
5.302378e+002, 2.242497e+003
5.307199e+002, 2.242888e+003
5.312020e+002, 2.242915e+003
5.316841e+002, 2.242670e+003
5.321663e+002, 2.242255e+003
5.326484e+002, 2.241254e+003
5.331305e+002, 2.239442e+003
5.336126e+002, 2.237059e+003
5.340947e+002, 2.234291e+003
5.345768e+002, 2.231117e+003
5.350590e+002, 2.227575e+003
5.355411e+002, 2.223592e+003
5.360232e+002, 2.219208e+003
5.365053e+002, 2.214713e+003
5.369874e+002, 2.210265e+003
5.374695e+002, 2.205292e+003
5.379517e+002, 2.199580e+003
5.384338e+002, 2.193086e+003
5.389159e+002, 2.186024e+003
5.393980e+002, 2.178261e+003
5.398801e+002, 2.170775e+003
5.403622e+002, 2.164717e+003
5.408444e+002, 2.159814e+003
5.413265e+002, 2.155031e+003
5.418086e+002, 2.150475e+003
5.422907e+002, 2.144963e+003
5.427728e+002, 2.136352e+003
5.432549e+002, 2.125761e+003
5.437371e+002, 2.115772e+003
5.442192e+002, 2.107963e+003
5.447013e+002, 2.100743e+003
5.451834e+002, 2.092520e+003
5.456655e+002, 2.083716e+003
5.461476e+002, 2.076293e+003
5.466298e+002, 2.071403e+003
5.471119e+002, 2.067813e+003
5.475940e+002, 2.065533e+003
5.480761e+002, 2.065537e+003
5.485582e+002, 2.062778e+003
5.490403e+002, 2.055661e+003
5.495225e+002, 2.046438e+003
5.500046e+002, 2.036718e+003
5.504867e+002, 2.025558e+003
5.509688e+002, 2.015977e+003
5.514509e+002, 2.008674e+003
5.519330e+002, 2.002666e+003
5.524152e+002, 1.995832e+003
5.528973e+002, 1.987953e+003
5.533794e+002, 1.980545e+003
5.538615e+002, 1.974257e+003
5.543436e+002, 1.968836e+003
5.548257e+002, 1.963788e+003
5.553079e+002, 1.959130e+003
5.557900e+002, 1.953697e+003
5.562721e+002, 1.945790e+003
5.567542e+002, 1.936866e+003
5.572363e+002, 1.929464e+003
5.577184e+002, 1.924050e+003
5.582006e+002, 1.919187e+003
5.586827e+002, 1.914254e+003
5.591648e+002, 1.909128e+003
5.596469e+002, 1.903553e+003
5.601290e+002, 1.896719e+003
5.606111e+002, 1.890299e+003
5.610933e+002, 1.885054e+003
5.615754e+002, 1.880666e+003
5.620575e+002, 1.876334e+003
5.625396e+002, 1.871739e+003
5.630217e+002, 1.867407e+003
5.635038e+002, 1.863646e+003
5.639860e+002, 1.860482e+003
5.644681e+002, 1.856402e+003
5.649502e+002, 1.850729e+003
5.654323e+002, 1.845407e+003
5.659144e+002, 1.842115e+003
5.663965e+002, 1.840986e+003
5.668787e+002, 1.839411e+003
5.673608e+002, 1.837067e+003
5.678429e+002, 1.834789e+003
5.683250e+002, 1.834238e+003
5.688071e+002, 1.834944e+003
5.692892e+002, 1.834816e+003
5.697714e+002, 1.832719e+003
5.702535e+002, 1.830112e+003
5.707356e+002, 1.829019e+003
5.712177e+002, 1.829007e+003
5.716998e+002, 1.828706e+003
5.721819e+002, 1.826775e+003
5.726641e+002, 1.824747e+003
5.731462e+002, 1.823807e+003
5.736283e+002, 1.824025e+003
5.741104e+002, 1.824107e+003
5.745925e+002, 1.822884e+003
5.750746e+002, 1.821918e+003
5.755568e+002, 1.822395e+003
5.760389e+002, 1.826334e+003
5.765210e+002, 1.828054e+003
5.770031e+002, 1.825844e+003
5.774852e+002, 1.822693e+003
5.779673e+002, 1.822824e+003
5.784495e+002, 1.827260e+003
5.789316e+002, 1.831475e+003
5.794137e+002, 1.834532e+003
5.798958e+002, 1.836840e+003
5.803779e+002, 1.839594e+003
5.808600e+002, 1.842787e+003
5.813422e+002, 1.846051e+003
5.818243e+002, 1.848598e+003
5.823064e+002, 1.851209e+003
5.827885e+002, 1.855907e+003
5.832706e+002, 1.862646e+003
5.837527e+002, 1.869337e+003
5.842349e+002, 1.874651e+003
5.847170e+002, 1.879039e+003
5.851991e+002, 1.882898e+003
5.856812e+002, 1.886237e+003
5.861633e+002, 1.889278e+003
5.866454e+002, 1.891314e+003
5.871276e+002, 1.893385e+003
5.876097e+002, 1.896739e+003
5.880918e+002, 1.904172e+003
5.885739e+002, 1.909819e+003
5.890560e+002, 1.912834e+003
5.895381e+002, 1.913642e+003
5.900203e+002, 1.913297e+003
5.905024e+002, 1.911452e+003
5.909845e+002, 1.909360e+003
5.914666e+002, 1.907529e+003
5.919487e+002, 1.905910e+003
5.924308e+002, 1.903848e+003
5.929130e+002, 1.901285e+003
5.933951e+002, 1.898868e+003
5.938772e+002, 1.897607e+003
5.943593e+002, 1.896906e+003
5.948414e+002, 1.894847e+003
5.953235e+002, 1.891126e+003
5.958057e+002, 1.886977e+003
5.962878e+002, 1.883431e+003
5.967699e+002, 1.880178e+003
5.972520e+002, 1.876714e+003
5.977341e+002, 1.871873e+003
5.982162e+002, 1.868186e+003
5.986984e+002, 1.868336e+003
5.991805e+002, 1.870411e+003
5.996626e+002, 1.870355e+003
6.001447e+002, 1.865244e+003
6.006268e+002, 1.860082e+003
6.011089e+002, 1.855972e+003
6.015911e+002, 1.852901e+003
6.020732e+002, 1.850664e+003
6.025553e+002, 1.848609e+003
6.030374e+002, 1.848699e+003
6.035195e+002, 1.853310e+003
6.040016e+002, 1.862766e+003
6.044838e+002, 1.867279e+003
6.049659e+002, 1.866224e+003
6.054480e+002, 1.863064e+003
6.059301e+002, 1.860204e+003
6.064122e+002, 1.858017e+003
6.068943e+002, 1.858101e+003
6.073765e+002, 1.861280e+003
6.078586e+002, 1.865031e+003
6.083407e+002, 1.866432e+003
6.088228e+002, 1.866581e+003
6.093049e+002, 1.867462e+003
6.097870e+002, 1.870323e+003
6.102692e+002, 1.873653e+003
6.107513e+002, 1.876783e+003
6.112334e+002, 1.879796e+003
6.117155e+002, 1.883012e+003
6.121976e+002, 1.887404e+003
6.126797e+002, 1.891066e+003
6.131619e+002, 1.892831e+003
6.136440e+002, 1.892516e+003
6.141261e+002, 1.894456e+003
6.146082e+002, 1.899615e+003
6.150903e+002, 1.905289e+003
6.155724e+002, 1.909743e+003
6.160546e+002, 1.912943e+003
6.165367e+002, 1.915986e+003
6.170188e+002, 1.918979e+003
6.175009e+002, 1.921471e+003
6.179830e+002, 1.922517e+003
6.184651e+002, 1.922622e+003
6.189473e+002, 1.923203e+003
6.194294e+002, 1.924594e+003
6.199115e+002, 1.926684e+003
6.203936e+002, 1.930309e+003
6.208757e+002, 1.934525e+003
6.213578e+002, 1.937431e+003
6.218400e+002, 1.935704e+003
6.223221e+002, 1.935044e+003
6.228042e+002, 1.938680e+003
6.232863e+002, 1.945940e+003
6.237684e+002, 1.952087e+003
6.242505e+002, 1.957090e+003
6.247327e+002, 1.960387e+003
6.252148e+002, 1.961022e+003
6.256969e+002, 1.958545e+003
6.261790e+002, 1.958912e+003
6.266611e+002, 1.963003e+003
6.271432e+002, 1.967581e+003
6.276254e+002, 1.970106e+003
6.281075e+002, 1.970699e+003
6.285896e+002, 1.970698e+003
6.290717e+002, 1.970166e+003
6.295538e+002, 1.969400e+003
6.300359e+002, 1.968558e+003
6.305181e+002, 1.967791e+003
6.310002e+002, 1.967383e+003
6.314823e+002, 1.967575e+003
6.319644e+002, 1.967986e+003
6.324465e+002, 1.968634e+003
6.329286e+002, 1.969311e+003
6.334108e+002, 1.969571e+003
6.338929e+002, 1.969014e+003
6.343750e+002, 1.968282e+003
6.348571e+002, 1.967303e+003
6.353392e+002, 1.966153e+003
6.358214e+002, 1.965610e+003
6.363035e+002, 1.966011e+003
6.367856e+002, 1.966305e+003
6.372677e+002, 1.966089e+003
6.377498e+002, 1.965316e+003
6.382319e+002, 1.963914e+003
6.387141e+002, 1.961819e+003
6.391962e+002, 1.959184e+003
6.396783e+002, 1.956267e+003
6.401604e+002, 1.952920e+003
6.406425e+002, 1.948481e+003
6.411246e+002, 1.942752e+003
6.416068e+002, 1.936958e+003
6.420889e+002, 1.932327e+003
6.425710e+002, 1.928359e+003
6.430531e+002, 1.924438e+003
6.435352e+002, 1.920407e+003
6.440173e+002, 1.916417e+003
6.444995e+002, 1.912398e+003
6.449816e+002, 1.908490e+003
6.454637e+002, 1.904817e+003
6.459458e+002, 1.901330e+003
6.464279e+002, 1.898215e+003
6.469100e+002, 1.895725e+003
6.473922e+002, 1.893561e+003
6.478743e+002, 1.890751e+003
6.483564e+002, 1.887151e+003
6.488385e+002, 1.883039e+003
6.493206e+002, 1.878330e+003
6.498027e+002, 1.873121e+003
6.502849e+002, 1.868269e+003
6.507670e+002, 1.863777e+003
6.512491e+002, 1.859580e+003
6.517312e+002, 1.855654e+003
6.522133e+002, 1.852103e+003
6.526954e+002, 1.849446e+003
6.531776e+002, 1.847896e+003
6.536597e+002, 1.845422e+003
6.541418e+002, 1.839133e+003
6.546239e+002, 1.832280e+003
6.551060e+002, 1.827961e+003
6.555881e+002, 1.828867e+003
6.560703e+002, 1.828453e+003
6.565524e+002, 1.824729e+003
6.570345e+002, 1.819770e+003
6.575166e+002, 1.815949e+003
6.579987e+002, 1.813406e+003
6.584808e+002, 1.811578e+003
6.589630e+002, 1.810850e+003
6.594451e+002, 1.810212e+003
6.599272e+002, 1.806785e+003
6.604093e+002, 1.800704e+003
6.608914e+002, 1.795750e+003
6.613735e+002, 1.794024e+003
6.618557e+002, 1.793873e+003
6.623378e+002, 1.793149e+003
6.628199e+002, 1.791782e+003
6.633020e+002, 1.789326e+003
6.637841e+002, 1.783720e+003
6.642662e+002, 1.778415e+003
6.647484e+002, 1.776394e+003
6.652305e+002, 1.777847e+003
6.657126e+002, 1.778646e+003
6.661947e+002, 1.776914e+003
6.666768e+002, 1.774971e+003
6.671589e+002, 1.774257e+003
6.676411e+002, 1.775452e+003
6.681232e+002, 1.774617e+003
6.686053e+002, 1.770676e+003
6.690874e+002, 1.766319e+003
6.695695e+002, 1.764182e+003
6.700516e+002, 1.764127e+003
6.705338e+002, 1.764023e+003
6.710159e+002, 1.763768e+003
6.714980e+002, 1.762662e+003
6.719801e+002, 1.759298e+003
6.724622e+002, 1.754456e+003
6.729443e+002, 1.750040e+003
6.734265e+002, 1.746893e+003
6.739086e+002, 1.743925e+003
6.743907e+002, 1.740527e+003
6.748728e+002, 1.736825e+003
6.753549e+002, 1.733064e+003
6.758370e+002, 1.730136e+003
6.763192e+002, 1.726357e+003
6.768013e+002, 1.720861e+003
6.772834e+002, 1.714258e+003
6.777655e+002, 1.708697e+003
6.782476e+002, 1.704483e+003
6.787297e+002, 1.700780e+003
6.792119e+002, 1.697302e+003
6.796940e+002, 1.694074e+003
6.801761e+002, 1.691627e+003
6.806582e+002, 1.689967e+003
6.811403e+002, 1.687975e+003
6.816224e+002, 1.684351e+003
6.821046e+002, 1.679965e+003
6.825867e+002, 1.676627e+003
6.830688e+002, 1.674351e+003
6.835509e+002, 1.671697e+003
6.840330e+002, 1.667275e+003
6.845151e+002, 1.662276e+003
6.849973e+002, 1.657733e+003
6.854794e+002, 1.654070e+003
6.859615e+002, 1.649960e+003
6.864436e+002, 1.645006e+003
6.869257e+002, 1.639634e+003
6.874078e+002, 1.634129e+003
6.878900e+002, 1.628306e+003
6.883721e+002, 1.622813e+003
6.888542e+002, 1.617764e+003
6.893363e+002, 1.613141e+003
6.898184e+002, 1.609319e+003
6.903005e+002, 1.606196e+003
6.907827e+002, 1.602510e+003
6.912648e+002, 1.597694e+003
6.917469e+002, 1.592671e+003
6.922290e+002, 1.588812e+003
6.927111e+002, 1.585662e+003
6.931932e+002, 1.582346e+003
6.936754e+002, 1.578269e+003
6.941575e+002, 1.574093e+003
6.946396e+002, 1.569858e+003
6.951217e+002, 1.565734e+003
6.956038e+002, 1.562252e+003
6.960859e+002, 1.560010e+003
6.965681e+002, 1.557900e+003
6.970502e+002, 1.555589e+003
6.975323e+002, 1.553145e+003
6.980144e+002, 1.551431e+003
6.984965e+002, 1.550784e+003
6.989786e+002, 1.549478e+003
6.994608e+002, 1.545880e+003
6.999429e+002, 1.540766e+003
7.004250e+002, 1.537256e+003
7.009071e+002, 1.535332e+003
7.013892e+002, 1.534337e+003
7.018713e+002, 1.534668e+003
7.023535e+002, 1.535191e+003
7.028356e+002, 1.534399e+003
7.033177e+002, 1.531877e+003
7.037998e+002, 1.529864e+003
7.042819e+002, 1.529810e+003
7.047640e+002, 1.530191e+003
7.052462e+002, 1.529700e+003
7.057283e+002, 1.527231e+003
7.062104e+002, 1.526097e+003
7.066925e+002, 1.526579e+003
7.071746e+002, 1.527960e+003
7.076567e+002, 1.529772e+003
7.081389e+002, 1.532031e+003
7.086210e+002, 1.533203e+003
7.091031e+002, 1.532838e+003
7.095852e+002, 1.532017e+003
7.100673e+002, 1.532182e+003
7.105494e+002, 1.533063e+003
7.110316e+002, 1.534076e+003
7.115137e+002, 1.535472e+003
7.119958e+002, 1.536271e+003
7.124779e+002, 1.535103e+003
7.129600e+002, 1.533037e+003
7.134421e+002, 1.532073e+003
7.139243e+002, 1.533926e+003
7.144064e+002, 1.535588e+003
7.148885e+002, 1.536498e+003
7.153706e+002, 1.536793e+003
7.158527e+002, 1.536614e+003
7.163348e+002, 1.535559e+003
7.168170e+002, 1.535484e+003
7.172991e+002, 1.537322e+003
7.177812e+002, 1.540447e+003
7.182633e+002, 1.542837e+003
7.187454e+002, 1.544558e+003
7.192275e+002, 1.546123e+003
7.197097e+002, 1.547693e+003
7.201918e+002, 1.549358e+003
7.206739e+002, 1.551329e+003
7.211560e+002, 1.553541e+003
7.216381e+002, 1.555669e+003
7.221202e+002, 1.557686e+003
7.226024e+002, 1.559453e+003
7.230845e+002, 1.560671e+003
7.235666e+002, 1.561183e+003
7.240487e+002, 1.562703e+003
7.245308e+002, 1.565814e+003
7.250129e+002, 1.569118e+003
7.254951e+002, 1.571742e+003
7.259772e+002, 1.573694e+003
7.264593e+002, 1.575903e+003
7.269414e+002, 1.578439e+003
7.274235e+002, 1.580805e+003
7.279056e+002, 1.582301e+003
7.283878e+002, 1.583360e+003
7.288699e+002, 1.584762e+003
7.293520e+002, 1.586635e+003
7.298341e+002, 1.588824e+003
7.303162e+002, 1.591280e+003
7.307983e+002, 1.593966e+003
7.312805e+002, 1.596895e+003
7.317626e+002, 1.600292e+003
7.322447e+002, 1.603519e+003
7.327268e+002, 1.606836e+003
7.332089e+002, 1.609699e+003
7.336910e+002, 1.611217e+003
7.341732e+002, 1.610916e+003
7.346553e+002, 1.611748e+003
7.351374e+002, 1.614324e+003
7.356195e+002, 1.617467e+003
7.361016e+002, 1.619137e+003
7.365837e+002, 1.619806e+003
7.370659e+002, 1.621305e+003
7.375480e+002, 1.624825e+003
7.380301e+002, 1.628086e+003
7.385122e+002, 1.628425e+003
7.389943e+002, 1.627243e+003
7.394764e+002, 1.626946e+003
7.399586e+002, 1.629606e+003
7.404407e+002, 1.631740e+003
7.409228e+002, 1.632348e+003
7.414049e+002, 1.631922e+003
7.418870e+002, 1.631370e+003
7.423691e+002, 1.630570e+003
7.428513e+002, 1.630188e+003
7.433334e+002, 1.630509e+003
7.438155e+002, 1.631327e+003
7.442976e+002, 1.632145e+003
7.447797e+002, 1.632974e+003
7.452618e+002, 1.633749e+003
7.457440e+002, 1.634170e+003
7.462261e+002, 1.634733e+003
7.467082e+002, 1.636277e+003
7.471903e+002, 1.638482e+003
7.476724e+002, 1.640240e+003
7.481545e+002, 1.640154e+003
7.486367e+002, 1.640384e+003
7.491188e+002, 1.642329e+003
7.496009e+002, 1.645791e+003
7.500830e+002, 1.647723e+003
7.505651e+002, 1.647285e+003
7.510472e+002, 1.647099e+003
7.515294e+002, 1.648429e+003
7.520115e+002, 1.651032e+003
7.524936e+002, 1.653159e+003
7.529757e+002, 1.654826e+003
7.534578e+002, 1.656441e+003
7.539399e+002, 1.658048e+003
7.544221e+002, 1.659874e+003
7.549042e+002, 1.662315e+003
7.553863e+002, 1.665369e+003
7.558684e+002, 1.668360e+003
7.563505e+002, 1.670739e+003
7.568326e+002, 1.673146e+003
7.573148e+002, 1.676121e+003
7.577969e+002, 1.679898e+003
7.582790e+002, 1.682822e+003
7.587611e+002, 1.684469e+003
7.592432e+002, 1.685922e+003
7.597253e+002, 1.687762e+003
7.602075e+002, 1.689993e+003
7.606896e+002, 1.692953e+003
7.611717e+002, 1.696795e+003
7.616538e+002, 1.700198e+003
7.621359e+002, 1.701657e+003
7.626180e+002, 1.702122e+003
7.631002e+002, 1.703049e+003
7.635823e+002, 1.704671e+003
7.640644e+002, 1.706472e+003
7.645465e+002, 1.708242e+003
7.650286e+002, 1.710103e+003
7.655107e+002, 1.712201e+003
7.659929e+002, 1.714849e+003
7.664750e+002, 1.717048e+003
7.669571e+002, 1.718728e+003
7.674392e+002, 1.720092e+003
7.679213e+002, 1.720698e+003
7.684034e+002, 1.720487e+003
7.688856e+002, 1.723618e+003
7.693677e+002, 1.730899e+003
7.698498e+002, 1.738440e+003
7.703319e+002, 1.741794e+003
7.708140e+002, 1.742622e+003
7.712961e+002, 1.743981e+003
7.717783e+002, 1.746768e+003
7.722604e+002, 1.749198e+003
7.727425e+002, 1.749829e+003
7.732246e+002, 1.749879e+003
7.737067e+002, 1.750629e+003
7.741888e+002, 1.752472e+003
7.746710e+002, 1.754721e+003
7.751531e+002, 1.757749e+003
7.756352e+002, 1.760768e+003
7.761173e+002, 1.762601e+003
7.765994e+002, 1.763256e+003
7.770815e+002, 1.764390e+003
7.775637e+002, 1.766245e+003
7.780458e+002, 1.768742e+003
7.785279e+002, 1.772598e+003
7.790100e+002, 1.776860e+003
7.794921e+002, 1.779621e+003
7.799742e+002, 1.779298e+003
7.804564e+002, 1.779432e+003
7.809385e+002, 1.782058e+003
7.814206e+002, 1.785863e+003
7.819027e+002, 1.789074e+003
7.823848e+002, 1.791077e+003
7.828669e+002, 1.793345e+003
7.833491e+002, 1.796228e+003
7.838312e+002, 1.799084e+003
7.843133e+002, 1.800645e+003
7.847954e+002, 1.800974e+003
7.852775e+002, 1.801647e+003
7.857596e+002, 1.803139e+003
7.862418e+002, 1.804744e+003
7.867239e+002, 1.805494e+003
7.872060e+002, 1.805761e+003
7.876881e+002, 1.806268e+003
7.881702e+002, 1.807842e+003
7.886523e+002, 1.808934e+003
7.891345e+002, 1.808873e+003
7.896166e+002, 1.808056e+003
7.900987e+002, 1.807084e+003
7.905808e+002, 1.805518e+003
7.910629e+002, 1.805095e+003
7.915450e+002, 1.806698e+003
7.920272e+002, 1.808775e+003
7.925093e+002, 1.807589e+003
7.929914e+002, 1.803694e+003
7.934735e+002, 1.801848e+003
7.939556e+002, 1.804576e+003
7.944377e+002, 1.807465e+003
7.949199e+002, 1.805319e+003
7.954020e+002, 1.799864e+003
7.958841e+002, 1.794326e+003
7.963662e+002, 1.789700e+003
7.968483e+002, 1.785106e+003
7.973304e+002, 1.779840e+003
7.978126e+002, 1.774557e+003
7.982947e+002, 1.770798e+003
7.987768e+002, 1.769490e+003
7.992589e+002, 1.766698e+003
7.997410e+002, 1.761643e+003
8.002231e+002, 1.754883e+003
8.007053e+002, 1.746982e+003
8.011874e+002, 1.738248e+003
8.016695e+002, 1.729678e+003
8.021516e+002, 1.721782e+003
8.026337e+002, 1.714174e+003
8.031158e+002, 1.706714e+003
8.035980e+002, 1.699398e+003
8.040801e+002, 1.691929e+003
8.045622e+002, 1.683849e+003
8.050443e+002, 1.676251e+003
8.055264e+002, 1.669011e+003
8.060085e+002, 1.662470e+003
8.064907e+002, 1.658125e+003
8.069728e+002, 1.656868e+003
8.074549e+002, 1.651384e+003
8.079370e+002, 1.638753e+003
8.084191e+002, 1.623636e+003
8.089012e+002, 1.613060e+003
8.093834e+002, 1.606207e+003
8.098655e+002, 1.601106e+003
8.103476e+002, 1.598625e+003
8.108297e+002, 1.595314e+003
8.113118e+002, 1.588586e+003
8.117939e+002, 1.579835e+003
8.122761e+002, 1.571469e+003
8.127582e+002, 1.564521e+003
8.132403e+002, 1.556870e+003
8.137224e+002, 1.547925e+003
8.142045e+002, 1.538563e+003
8.146866e+002, 1.530232e+003
8.151688e+002, 1.523071e+003
8.156509e+002, 1.516834e+003
8.161330e+002, 1.511813e+003
8.166151e+002, 1.506917e+003
8.170972e+002, 1.500512e+003
8.175793e+002, 1.493292e+003
8.180615e+002, 1.486384e+003
8.185436e+002, 1.480262e+003
8.190257e+002, 1.474485e+003
8.195078e+002, 1.468811e+003
8.199899e+002, 1.463485e+003
8.204720e+002, 1.459121e+003
8.209542e+002, 1.456890e+003
8.214363e+002, 1.452275e+003
8.219184e+002, 1.443877e+003
8.224005e+002, 1.434311e+003
8.228826e+002, 1.428024e+003
8.233647e+002, 1.424256e+003
8.238469e+002, 1.419929e+003
8.243290e+002, 1.414196e+003
8.248111e+002, 1.407860e+003
8.252932e+002, 1.400270e+003
8.257753e+002, 1.392903e+003
8.262574e+002, 1.387971e+003
8.267396e+002, 1.388209e+003
8.272217e+002, 1.387687e+003
8.277038e+002, 1.385832e+003
8.281859e+002, 1.383060e+003
8.286681e+002, 1.379671e+003
8.291502e+002, 1.375611e+003
8.296323e+002, 1.371492e+003
8.301144e+002, 1.367254e+003
8.305966e+002, 1.363430e+003
8.310787e+002, 1.360814e+003
8.315608e+002, 1.358933e+003
8.320429e+002, 1.356809e+003
8.325250e+002, 1.354087e+003
8.330071e+002, 1.351401e+003
8.334893e+002, 1.348694e+003
8.339714e+002, 1.346323e+003
8.344535e+002, 1.344639e+003
8.349356e+002, 1.343579e+003
8.354177e+002, 1.343603e+003
8.358998e+002, 1.345677e+003
8.363820e+002, 1.347174e+003
8.368641e+002, 1.344824e+003
8.373462e+002, 1.339212e+003
8.378283e+002, 1.333802e+003
8.383104e+002, 1.328984e+003
8.387925e+002, 1.325132e+003
8.392747e+002, 1.323132e+003
8.397568e+002, 1.321970e+003
8.402389e+002, 1.320523e+003
8.407210e+002, 1.318511e+003
8.412031e+002, 1.316431e+003
8.416852e+002, 1.314473e+003
8.421674e+002, 1.312325e+003
8.426495e+002, 1.309641e+003
8.431316e+002, 1.306212e+003
8.436137e+002, 1.303539e+003
8.440958e+002, 1.301716e+003
8.445779e+002, 1.299801e+003
8.450601e+002, 1.296995e+003
8.455422e+002, 1.293514e+003
8.460243e+002, 1.289657e+003
8.465064e+002, 1.285458e+003
8.469885e+002, 1.281036e+003
8.474706e+002, 1.276766e+003
8.479528e+002, 1.272072e+003
8.484349e+002, 1.266423e+003
8.489170e+002, 1.259666e+003
8.493991e+002, 1.253301e+003
8.498812e+002, 1.247318e+003
8.503633e+002, 1.241720e+003
8.508455e+002, 1.236869e+003
8.513276e+002, 1.232441e+003
8.518097e+002, 1.226869e+003
8.522918e+002, 1.220113e+003
8.527739e+002, 1.212563e+003
8.532560e+002, 1.203514e+003
8.537382e+002, 1.194387e+003
8.542203e+002, 1.186316e+003
8.547024e+002, 1.179266e+003
8.551845e+002, 1.172248e+003
8.556666e+002, 1.165561e+003
8.561487e+002, 1.158292e+003
8.566309e+002, 1.149663e+003
8.571130e+002, 1.140266e+003
8.575951e+002, 1.132976e+003
8.580772e+002, 1.127856e+003
8.585593e+002, 1.122278e+003
8.590414e+002, 1.113905e+003
8.595236e+002, 1.105049e+003
8.600057e+002, 1.100016e+003
8.604878e+002, 1.097531e+003
8.609699e+002, 1.093548e+003
8.614520e+002, 1.084480e+003
8.619341e+002, 1.075693e+003
8.624163e+002, 1.069315e+003
8.628984e+002, 1.064519e+003
8.633805e+002, 1.059416e+003
8.638626e+002, 1.053842e+003
8.643447e+002, 1.048293e+003
8.648268e+002, 1.042873e+003
8.653090e+002, 1.037466e+003
8.657911e+002, 1.031718e+003
8.662732e+002, 1.025845e+003
8.667553e+002, 1.020716e+003
8.672374e+002, 1.017022e+003
8.677195e+002, 1.013455e+003
8.682017e+002, 1.009065e+003
8.686838e+002, 1.004400e+003
8.691659e+002, 1.000530e+003
8.696480e+002, 9.983634e+002
8.701301e+002, 9.952502e+002
8.706122e+002, 9.906816e+002
8.710944e+002, 9.856209e+002
8.715765e+002, 9.813398e+002
8.720586e+002, 9.777748e+002
8.725407e+002, 9.746145e+002
8.730228e+002, 9.718964e+002
8.735049e+002, 9.691725e+002
8.739871e+002, 9.663632e+002
8.744692e+002, 9.631523e+002
8.749513e+002, 9.589764e+002
8.754334e+002, 9.527468e+002
8.759155e+002, 9.480432e+002
8.763976e+002, 9.457287e+002
8.768798e+002, 9.441962e+002
8.773619e+002, 9.422787e+002
8.778440e+002, 9.399713e+002
8.783261e+002, 9.375156e+002
8.788082e+002, 9.348900e+002
8.792903e+002, 9.323116e+002
8.797725e+002, 9.301670e+002
8.802546e+002, 9.280291e+002
8.807367e+002, 9.251002e+002
8.812188e+002, 9.212922e+002
8.817009e+002, 9.181755e+002
8.821830e+002, 9.164484e+002
8.826652e+002, 9.154460e+002
8.831473e+002, 9.151225e+002
8.836294e+002, 9.154244e+002
8.841115e+002, 9.145463e+002
8.845936e+002, 9.123008e+002
8.850757e+002, 9.101409e+002
8.855579e+002, 9.090256e+002
8.860400e+002, 9.084567e+002
8.865221e+002, 9.079205e+002
8.870042e+002, 9.072129e+002
8.874863e+002, 9.054875e+002
8.879684e+002, 9.005623e+002
8.884506e+002, 8.963497e+002
8.889327e+002, 8.951740e+002
8.894148e+002, 8.960679e+002
8.898969e+002, 8.958609e+002
8.903790e+002, 8.943690e+002
8.908611e+002, 8.922960e+002
8.913433e+002, 8.894527e+002
8.918254e+002, 8.866941e+002
8.923075e+002, 8.862973e+002
8.927896e+002, 8.873521e+002
8.932717e+002, 8.870279e+002
8.937538e+002, 8.831676e+002
8.942360e+002, 8.795148e+002
8.947181e+002, 8.785345e+002
8.952002e+002, 8.789316e+002
8.956823e+002, 8.788709e+002
8.961644e+002, 8.782284e+002
8.966465e+002, 8.771629e+002
8.971287e+002, 8.755452e+002
8.976108e+002, 8.738229e+002
8.980929e+002, 8.727133e+002
8.985750e+002, 8.720089e+002
8.990571e+002, 8.706369e+002
8.995392e+002, 8.682454e+002
9.000214e+002, 8.666778e+002
9.005035e+002, 8.686311e+002
9.009856e+002, 8.711215e+002
9.014677e+002, 8.712877e+002
9.019498e+002, 8.677422e+002
9.024319e+002, 8.656017e+002
9.029141e+002, 8.657615e+002
9.033962e+002, 8.657421e+002
9.038783e+002, 8.635607e+002
9.043604e+002, 8.596140e+002
9.048425e+002, 8.567516e+002
9.053246e+002, 8.549486e+002
9.058068e+002, 8.543087e+002
9.062889e+002, 8.560421e+002
9.067710e+002, 8.579985e+002
9.072531e+002, 8.584637e+002
9.077352e+002, 8.575101e+002
9.082173e+002, 8.563597e+002
9.086995e+002, 8.553204e+002
9.091816e+002, 8.539140e+002
9.096637e+002, 8.519078e+002
9.101458e+002, 8.495436e+002
9.106279e+002, 8.473274e+002
9.111100e+002, 8.453358e+002
9.115922e+002, 8.443270e+002
9.120743e+002, 8.451290e+002
9.125564e+002, 8.462049e+002
9.130385e+002, 8.461191e+002
9.135206e+002, 8.452748e+002
9.140027e+002, 8.443656e+002
9.144849e+002, 8.429124e+002
9.149670e+002, 8.424131e+002
9.154491e+002, 8.435888e+002
9.159312e+002, 8.450392e+002
9.164133e+002, 8.448881e+002
9.168954e+002, 8.432010e+002
9.173776e+002, 8.411219e+002
9.178597e+002, 8.386334e+002
9.183418e+002, 8.369003e+002
9.188239e+002, 8.380596e+002
9.193060e+002, 8.399807e+002
9.197881e+002, 8.400917e+002
9.202703e+002, 8.374881e+002
9.207524e+002, 8.356331e+002
9.212345e+002, 8.354941e+002
9.217166e+002, 8.356008e+002
9.221987e+002, 8.352715e+002
9.226808e+002, 8.345127e+002
9.231630e+002, 8.329977e+002
9.236451e+002, 8.307434e+002
9.241272e+002, 8.291949e+002
9.246093e+002, 8.301559e+002
9.250914e+002, 8.316731e+002
9.255735e+002, 8.318274e+002
9.260557e+002, 8.307750e+002
9.265378e+002, 8.294897e+002
9.270199e+002, 8.274211e+002
9.275020e+002, 8.262106e+002
9.279841e+002, 8.265497e+002
9.284662e+002, 8.277475e+002
9.289484e+002, 8.280039e+002
9.294305e+002, 8.273586e+002
9.299126e+002, 8.266238e+002
9.303947e+002, 8.260360e+002
9.308768e+002, 8.254383e+002
9.313589e+002, 8.246211e+002
9.318411e+002, 8.236993e+002
9.323232e+002, 8.228362e+002
9.328053e+002, 8.216617e+002
9.332874e+002, 8.213430e+002
9.337695e+002, 8.226022e+002
9.342516e+002, 8.239662e+002
9.347338e+002, 8.238456e+002
9.352159e+002, 8.223099e+002
9.356980e+002, 8.212881e+002
9.361801e+002, 8.209218e+002
9.366622e+002, 8.206263e+002
9.371443e+002, 8.200118e+002
9.376265e+002, 8.191525e+002
9.381086e+002, 8.174724e+002
9.385907e+002, 8.148873e+002
9.390728e+002, 8.149882e+002
9.395549e+002, 8.210736e+002
9.400370e+002, 8.257868e+002
9.405192e+002, 8.259832e+002
9.410013e+002, 8.226348e+002
9.414834e+002, 8.199875e+002
9.419655e+002, 8.179896e+002
9.424476e+002, 8.163511e+002
9.429297e+002, 8.150045e+002
9.434119e+002, 8.138857e+002
9.438940e+002, 8.134346e+002
9.443761e+002, 8.131152e+002
9.448582e+002, 8.117950e+002
9.453403e+002, 8.080219e+002
9.458224e+002, 8.050321e+002
9.463046e+002, 8.029274e+002
9.467867e+002, 8.019785e+002
9.472688e+002, 8.033319e+002
9.477509e+002, 8.064529e+002
9.482330e+002, 8.077571e+002
9.487151e+002, 8.064150e+002
9.491973e+002, 8.053281e+002
9.496794e+002, 8.080643e+002
9.501615e+002, 8.113412e+002
9.506436e+002, 8.119234e+002
9.511257e+002, 8.086224e+002
9.516078e+002, 8.062569e+002
9.520900e+002, 8.051788e+002
9.525721e+002, 8.044479e+002
9.530542e+002, 8.035001e+002
9.535363e+002, 8.024801e+002
9.540184e+002, 8.022651e+002
9.545005e+002, 8.026837e+002
9.549827e+002, 8.026084e+002
9.554648e+002, 8.005418e+002
9.559469e+002, 7.986503e+002
9.564290e+002, 7.987180e+002
9.569111e+002, 8.000130e+002
9.573932e+002, 8.001277e+002
9.578754e+002, 7.982722e+002
9.583575e+002, 7.971514e+002
9.588396e+002, 7.974161e+002
9.593217e+002, 7.982188e+002
9.598038e+002, 7.981956e+002
9.602859e+002, 7.976186e+002
9.607681e+002, 7.972499e+002
9.612502e+002, 7.973223e+002
9.617323e+002, 7.973257e+002
9.622144e+002, 7.969658e+002
9.626965e+002, 7.964185e+002
9.631786e+002, 7.958267e+002
9.636608e+002, 7.952100e+002
9.641429e+002, 7.944534e+002
9.646250e+002, 7.934699e+002
9.651071e+002, 7.928207e+002
9.655892e+002, 7.931456e+002
9.660714e+002, 7.939871e+002
9.665535e+002, 7.947015e+002
9.670356e+002, 7.951863e+002
9.675177e+002, 7.950428e+002
9.679998e+002, 7.936917e+002
9.684819e+002, 7.920938e+002
9.689641e+002, 7.902595e+002
9.694462e+002, 7.885209e+002
9.699283e+002, 7.877752e+002
9.704104e+002, 7.881053e+002
9.708925e+002, 7.885641e+002
9.713746e+002, 7.890479e+002
9.718568e+002, 7.892568e+002
9.723389e+002, 7.885692e+002
9.728210e+002, 7.874581e+002
9.733031e+002, 7.865856e+002
9.737852e+002, 7.859980e+002
9.742673e+002, 7.860004e+002
9.747495e+002, 7.874359e+002
9.752316e+002, 7.885999e+002
9.757137e+002, 7.880040e+002
9.761958e+002, 7.856432e+002
9.766779e+002, 7.850325e+002
9.771600e+002, 7.861541e+002
9.776422e+002, 7.872552e+002
9.781243e+002, 7.870596e+002
9.786064e+002, 7.863647e+002
9.790885e+002, 7.858101e+002
9.795706e+002, 7.853880e+002
9.800527e+002, 7.849398e+002
9.805349e+002, 7.846143e+002
9.810170e+002, 7.839330e+002
9.814991e+002, 7.825905e+002
9.819812e+002, 7.811212e+002
9.824633e+002, 7.807211e+002
9.829454e+002, 7.811580e+002
9.834276e+002, 7.814640e+002
9.839097e+002, 7.813987e+002
9.843918e+002, 7.811838e+002
9.848739e+002, 7.810418e+002
9.853560e+002, 7.807839e+002
9.858381e+002, 7.800333e+002
9.863203e+002, 7.783560e+002
9.868024e+002, 7.782813e+002
9.872845e+002, 7.803599e+002
9.877666e+002, 7.821650e+002
9.882487e+002, 7.815649e+002
9.887308e+002, 7.795921e+002
9.892130e+002, 7.785389e+002
9.896951e+002, 7.782969e+002
9.901772e+002, 7.781144e+002
9.906593e+002, 7.773342e+002
9.911414e+002, 7.768962e+002
9.916235e+002, 7.776392e+002
9.921057e+002, 7.787963e+002
9.925878e+002, 7.784807e+002
9.930699e+002, 7.764637e+002
9.935520e+002, 7.756006e+002
9.940341e+002, 7.767164e+002
9.945162e+002, 7.781290e+002
9.949984e+002, 7.776345e+002
9.954805e+002, 7.763131e+002
9.959626e+002, 7.756794e+002
9.964447e+002, 7.762069e+002
9.969268e+002, 7.765685e+002
9.974089e+002, 7.763658e+002
9.978911e+002, 7.762361e+002
9.983732e+002, 7.766652e+002
9.988553e+002, 7.775242e+002
9.993374e+002, 7.777350e+002
9.998195e+002, 7.773611e+002
1.000302e+003, 7.770062e+002
1.000784e+003, 7.773795e+002
1.001266e+003, 7.775605e+002
1.001748e+003, 7.764899e+002
1.002230e+003, 7.747733e+002
1.002712e+003, 7.740843e+002
1.003194e+003, 7.750533e+002
1.003676e+003, 7.756122e+002
1.004159e+003, 7.754219e+002
1.004641e+003, 7.749432e+002
1.005123e+003, 7.739058e+002
1.005605e+003, 7.732111e+002
1.006087e+003, 7.761250e+002
1.006569e+003, 7.838240e+002
1.007051e+003, 7.884004e+002
1.007533e+003, 7.832385e+002
1.008016e+003, 7.765021e+002
1.008498e+003, 7.727117e+002
1.008980e+003, 7.717601e+002
1.009462e+003, 7.715261e+002
1.009944e+003, 7.720599e+002
1.010426e+003, 7.724293e+002
1.010908e+003, 7.720099e+002
1.011390e+003, 7.714044e+002
1.011872e+003, 7.715166e+002
1.012355e+003, 7.719577e+002
1.012837e+003, 7.719376e+002
1.013319e+003, 7.710543e+002
1.013801e+003, 7.698973e+002
1.014283e+003, 7.682562e+002
1.014765e+003, 7.667523e+002
1.015247e+003, 7.661697e+002
1.015729e+003, 7.663497e+002
1.016211e+003, 7.664294e+002
1.016694e+003, 7.663420e+002
1.017176e+003, 7.662709e+002
1.017658e+003, 7.665111e+002
1.018140e+003, 7.666668e+002
1.018622e+003, 7.661899e+002
1.019104e+003, 7.652413e+002
1.019586e+003, 7.654433e+002
1.020068e+003, 7.672465e+002
1.020551e+003, 7.682194e+002
1.021033e+003, 7.673227e+002
1.021515e+003, 7.656925e+002
1.021997e+003, 7.653307e+002
1.022479e+003, 7.655837e+002
1.022961e+003, 7.650646e+002
1.023443e+003, 7.624465e+002
1.023925e+003, 7.610969e+002
1.024407e+003, 7.628338e+002
1.024890e+003, 7.651230e+002
1.025372e+003, 7.662887e+002
1.025854e+003, 7.663232e+002
1.026336e+003, 7.655409e+002
1.026818e+003, 7.639630e+002
1.027300e+003, 7.626591e+002
1.027782e+003, 7.622678e+002
1.028264e+003, 7.625031e+002
1.028746e+003, 7.636387e+002
1.029229e+003, 7.652715e+002
1.029711e+003, 7.658582e+002
1.030193e+003, 7.648318e+002
1.030675e+003, 7.640523e+002
1.031157e+003, 7.638312e+002
1.031639e+003, 7.639740e+002
1.032121e+003, 7.646094e+002
1.032603e+003, 7.653074e+002
1.033086e+003, 7.648399e+002
1.033568e+003, 7.627929e+002
1.034050e+003, 7.611859e+002
1.034532e+003, 7.613844e+002
1.035014e+003, 7.618221e+002
1.035496e+003, 7.615697e+002
1.035978e+003, 7.607248e+002
1.036460e+003, 7.603967e+002
1.036943e+003, 7.605825e+002
1.037425e+003, 7.609150e+002
1.037907e+003, 7.614474e+002
1.038389e+003, 7.617665e+002
1.038871e+003, 7.613601e+002
1.039353e+003, 7.604941e+002
1.039835e+003, 7.596198e+002
1.040317e+003, 7.587266e+002
1.040799e+003, 7.579800e+002
1.041281e+003, 7.573122e+002
1.041764e+003, 7.569474e+002
1.042246e+003, 7.570922e+002
1.042728e+003, 7.577072e+002
1.043210e+003, 7.592183e+002
1.043692e+003, 7.614781e+002
1.044174e+003, 7.623699e+002
1.044656e+003, 7.592902e+002
1.045138e+003, 7.563195e+002
1.045621e+003, 7.554240e+002
1.046103e+003, 7.558378e+002
1.046585e+003, 7.554495e+002
1.047067e+003, 7.542505e+002
1.047549e+003, 7.530392e+002
1.048031e+003, 7.519880e+002
1.048513e+003, 7.511726e+002
1.048995e+003, 7.499635e+002
1.049478e+003, 7.494589e+002
1.049960e+003, 7.514978e+002
1.050442e+003, 7.578656e+002
1.050924e+003, 7.603417e+002
1.051406e+003, 7.573454e+002
1.051888e+003, 7.540707e+002
1.052370e+003, 7.534890e+002
1.052852e+003, 7.546476e+002
1.053334e+003, 7.555018e+002
1.053817e+003, 7.559625e+002
1.054299e+003, 7.557598e+002
1.054781e+003, 7.542208e+002
1.055263e+003, 7.526386e+002
1.055745e+003, 7.513221e+002
1.056227e+003, 7.501677e+002
1.056709e+003, 7.490413e+002
1.057191e+003, 7.479369e+002
1.057673e+003, 7.470488e+002
1.058156e+003, 7.463838e+002
1.058638e+003, 7.461205e+002
1.059120e+003, 7.468401e+002
1.059602e+003, 7.476750e+002
1.060084e+003, 7.480541e+002
1.060566e+003, 7.478978e+002
1.061048e+003, 7.469637e+002
1.061530e+003, 7.448397e+002
1.062013e+003, 7.432900e+002
1.062495e+003, 7.429927e+002
1.062977e+003, 7.430536e+002
1.063459e+003, 7.415760e+002
1.063941e+003, 7.394798e+002
1.064423e+003, 7.386859e+002
1.064905e+003, 7.400582e+002
1.065387e+003, 7.410966e+002
1.065870e+003, 7.409890e+002
1.066352e+003, 7.403287e+002
1.066834e+003, 7.392363e+002
1.067316e+003, 7.377949e+002
1.067798e+003, 7.364177e+002
1.068280e+003, 7.351699e+002
1.068762e+003, 7.347194e+002
1.069244e+003, 7.364340e+002
1.069726e+003, 7.379250e+002
1.070208e+003, 7.371242e+002
1.070691e+003, 7.352753e+002
1.071173e+003, 7.343448e+002
1.071655e+003, 7.344060e+002
1.072137e+003, 7.355775e+002
1.072619e+003, 7.381824e+002
1.073101e+003, 7.402472e+002
1.073583e+003, 7.397880e+002
1.074065e+003, 7.378179e+002
1.074548e+003, 7.350684e+002
1.075030e+003, 7.318444e+002
1.075512e+003, 7.296722e+002
1.075994e+003, 7.297582e+002
1.076476e+003, 7.297176e+002
1.076958e+003, 7.290604e+002
1.077440e+003, 7.280431e+002
1.077922e+003, 7.270616e+002
1.078405e+003, 7.261203e+002
1.078887e+003, 7.250970e+002
1.079369e+003, 7.238332e+002
1.079851e+003, 7.232987e+002
1.080333e+003, 7.250353e+002
1.080815e+003, 7.267062e+002
1.081297e+003, 7.266113e+002
1.081779e+003, 7.249955e+002
1.082261e+003, 7.245510e+002
1.082744e+003, 7.252625e+002
1.083226e+003, 7.261335e+002
1.083708e+003, 7.268104e+002
1.084190e+003, 7.273189e+002
1.084672e+003, 7.272166e+002
1.085154e+003, 7.271339e+002
1.085636e+003, 7.281545e+002
1.086118e+003, 7.314749e+002
1.086601e+003, 7.332365e+002
1.087083e+003, 7.333703e+002
1.087565e+003, 7.322051e+002
1.088047e+003, 7.289999e+002
1.088529e+003, 7.251868e+002
1.089011e+003, 7.238036e+002
1.089493e+003, 7.242184e+002
1.089975e+003, 7.235557e+002
1.090458e+003, 7.198312e+002
1.090940e+003, 7.160876e+002
1.091422e+003, 7.124481e+002
1.091904e+003, 7.096433e+002
1.092386e+003, 7.095915e+002
1.092868e+003, 7.114725e+002
1.093350e+003, 7.114022e+002
1.093832e+003, 7.088340e+002
1.094314e+003, 7.064870e+002
1.094797e+003, 7.063509e+002
1.095279e+003, 7.066257e+002
1.095761e+003, 7.060118e+002
1.096243e+003, 7.049001e+002
1.096725e+003, 7.053715e+002
1.097207e+003, 7.074753e+002
1.097689e+003, 7.085386e+002
1.098171e+003, 7.074990e+002
1.098653e+003, 7.058982e+002
1.099136e+003, 7.050502e+002
1.099618e+003, 7.046168e+002
1.100100e+003, 7.041329e+002
1.100582e+003, 7.033896e+002
1.101064e+003, 7.036208e+002
1.101546e+003, 7.052821e+002
1.102028e+003, 7.061960e+002
1.102510e+003, 7.045825e+002
1.102993e+003, 7.020001e+002
1.103475e+003, 7.013934e+002
1.103957e+003, 7.019978e+002
1.104439e+003, 7.020940e+002
1.104921e+003, 7.008191e+002
1.105403e+003, 6.993617e+002
1.105885e+003, 6.976622e+002
1.106367e+003, 6.961404e+002
1.106849e+003, 6.953295e+002
1.107332e+003, 6.950585e+002
1.107814e+003, 6.947180e+002
1.108296e+003, 6.942678e+002
1.108778e+003, 6.935768e+002
1.109260e+003, 6.924197e+002
1.109742e+003, 6.911910e+002
1.110224e+003, 6.897988e+002
1.110706e+003, 6.885916e+002
1.111188e+003, 6.882548e+002
1.111671e+003, 6.887615e+002
1.112153e+003, 6.892414e+002
1.112635e+003, 6.896069e+002
1.113117e+003, 6.896869e+002
1.113599e+003, 6.892401e+002
1.114081e+003, 6.885413e+002
1.114563e+003, 6.875851e+002
1.115045e+003, 6.864974e+002
1.115528e+003, 6.862328e+002
1.116010e+003, 6.868990e+002
1.116492e+003, 6.876977e+002
1.116974e+003, 6.884627e+002
1.117456e+003, 6.890263e+002
1.117938e+003, 6.889465e+002
1.118420e+003, 6.886259e+002
1.118902e+003, 6.886056e+002
1.119385e+003, 6.890445e+002
1.119867e+003, 6.894288e+002
1.120349e+003, 6.897392e+002
1.120831e+003, 6.899448e+002
1.121313e+003, 6.901672e+002
1.121795e+003, 6.901376e+002
1.122277e+003, 6.889935e+002
1.122759e+003, 6.871754e+002
1.123241e+003, 6.857363e+002
1.123724e+003, 6.853538e+002
1.124206e+003, 6.848912e+002
1.124688e+003, 6.839467e+002
1.125170e+003, 6.832673e+002
1.125652e+003, 6.839090e+002
1.126134e+003, 6.854340e+002
1.126616e+003, 6.852872e+002
1.127098e+003, 6.836953e+002
1.127580e+003, 6.821216e+002
1.128063e+003, 6.812542e+002
1.128545e+003, 6.806791e+002
1.129027e+003, 6.803857e+002
1.129509e+003, 6.801951e+002
1.129991e+003, 6.798528e+002
1.130473e+003, 6.793562e+002
1.130955e+003, 6.790284e+002
1.131437e+003, 6.788865e+002
1.131920e+003, 6.787112e+002
1.132402e+003, 6.781791e+002
1.132884e+003, 6.776767e+002
1.133366e+003, 6.774191e+002
1.133848e+003, 6.774111e+002
1.134330e+003, 6.776310e+002
1.134812e+003, 6.780767e+002
1.135294e+003, 6.788899e+002
1.135776e+003, 6.802435e+002
1.136259e+003, 6.812614e+002
1.136741e+003, 6.807478e+002
1.137223e+003, 6.796322e+002
1.137705e+003, 6.787960e+002
1.138187e+003, 6.783669e+002
1.138669e+003, 6.781242e+002
1.139151e+003, 6.781075e+002
1.139633e+003, 6.781700e+002
1.140115e+003, 6.783691e+002
1.140598e+003, 6.784111e+002
1.141080e+003, 6.772960e+002
1.141562e+003, 6.759454e+002
1.142044e+003, 6.760726e+002
1.142526e+003, 6.789362e+002
1.143008e+003, 6.799857e+002
1.143490e+003, 6.784359e+002
1.143972e+003, 6.761539e+002
1.144455e+003, 6.737167e+002
1.144937e+003, 6.715685e+002
1.145419e+003, 6.706838e+002
1.145901e+003, 6.709476e+002
1.146383e+003, 6.720999e+002
1.146865e+003, 6.753475e+002
1.147347e+003, 6.772645e+002
1.147829e+003, 6.770809e+002
1.148312e+003, 6.760051e+002
1.148794e+003, 6.747579e+002
1.149276e+003, 6.734154e+002
1.149758e+003, 6.722906e+002
1.150240e+003, 6.714330e+002
1.150722e+003, 6.710881e+002
1.151204e+003, 6.720886e+002
1.151686e+003, 6.727253e+002
1.152168e+003, 6.721596e+002
1.152651e+003, 6.712115e+002
1.153133e+003, 6.708781e+002
1.153615e+003, 6.710801e+002
1.154097e+003, 6.707394e+002
1.154579e+003, 6.698394e+002
1.155061e+003, 6.695853e+002
1.155543e+003, 6.718308e+002
1.156025e+003, 6.738184e+002
1.156507e+003, 6.733948e+002
1.156990e+003, 6.718747e+002
1.157472e+003, 6.719462e+002
1.157954e+003, 6.736226e+002
1.158436e+003, 6.741138e+002
1.158918e+003, 6.729283e+002
1.159400e+003, 6.718893e+002
1.159882e+003, 6.732240e+002
1.160364e+003, 6.746376e+002
1.160847e+003, 6.741800e+002
1.161329e+003, 6.721686e+002
1.161811e+003, 6.702048e+002
1.162293e+003, 6.682059e+002
1.162775e+003, 6.676349e+002
1.163257e+003, 6.692339e+002
1.163739e+003, 6.708228e+002
1.164221e+003, 6.697318e+002
1.164703e+003, 6.678506e+002
1.165186e+003, 6.671798e+002
1.165668e+003, 6.679645e+002
1.166150e+003, 6.683658e+002
1.166632e+003, 6.683832e+002
1.167114e+003, 6.679713e+002
1.167596e+003, 6.668243e+002
1.168078e+003, 6.658605e+002
1.168560e+003, 6.665580e+002
1.169042e+003, 6.680407e+002
1.169525e+003, 6.692556e+002
1.170007e+003, 6.701965e+002
1.170489e+003, 6.697491e+002
1.170971e+003, 6.673668e+002
1.171453e+003, 6.655986e+002
1.171935e+003, 6.659846e+002
1.172417e+003, 6.674426e+002
1.172899e+003, 6.679443e+002
1.173382e+003, 6.683399e+002
1.173864e+003, 6.703657e+002
1.174346e+003, 6.772880e+002
1.174828e+003, 6.794513e+002
1.175310e+003, 6.752385e+002
1.175792e+003, 6.704127e+002
1.176274e+003, 6.691876e+002
1.176756e+003, 6.700225e+002
1.177239e+003, 6.701055e+002
1.177721e+003, 6.696887e+002
1.178203e+003, 6.694326e+002
1.178685e+003, 6.702430e+002
1.179167e+003, 6.700663e+002
1.179649e+003, 6.684084e+002
1.180131e+003, 6.666385e+002
1.180613e+003, 6.660346e+002
1.181095e+003, 6.662556e+002
1.181578e+003, 6.668900e+002
1.182060e+003, 6.677088e+002
1.182542e+003, 6.677938e+002
1.183024e+003, 6.653943e+002
1.183506e+003, 6.644153e+002
1.183988e+003, 6.659303e+002
1.184470e+003, 6.680253e+002
1.184952e+003, 6.683073e+002
1.185434e+003, 6.674421e+002
1.185917e+003, 6.671074e+002
1.186399e+003, 6.673586e+002
1.186881e+003, 6.676324e+002
1.187363e+003, 6.673353e+002
1.187845e+003, 6.675928e+002
1.188327e+003, 6.690109e+002
1.188809e+003, 6.705131e+002
1.189291e+003, 6.701382e+002
1.189774e+003, 6.685322e+002
1.190256e+003, 6.675954e+002
1.190738e+003, 6.675436e+002
1.191220e+003, 6.680095e+002
1.191702e+003, 6.695836e+002
1.192184e+003, 6.706960e+002
1.192666e+003, 6.708334e+002
1.193148e+003, 6.703060e+002
1.193630e+003, 6.694535e+002
1.194113e+003, 6.684754e+002
1.194595e+003, 6.681636e+002
1.195077e+003, 6.687356e+002
1.195559e+003, 6.690769e+002
1.196041e+003, 6.685162e+002
1.196523e+003, 6.677894e+002
1.197005e+003, 6.670901e+002
1.197487e+003, 6.664941e+002
1.197969e+003, 6.661531e+002
1.198452e+003, 6.660855e+002
1.198934e+003, 6.665174e+002
1.199416e+003, 6.676780e+002
1.199898e+003, 6.682952e+002
1.200380e+003, 6.668694e+002
1.200862e+003, 6.657610e+002
1.201344e+003, 6.662967e+002
1.201826e+003, 6.678845e+002
1.202309e+003, 6.683523e+002
1.202791e+003, 6.679553e+002
1.203273e+003, 6.678315e+002
1.203755e+003, 6.687184e+002
1.204237e+003, 6.686755e+002
1.204719e+003, 6.655920e+002
1.205201e+003, 6.626107e+002
1.205683e+003, 6.615804e+002
1.206166e+003, 6.620930e+002
1.206648e+003, 6.623214e+002
1.207130e+003, 6.622875e+002
1.207612e+003, 6.620219e+002
1.208094e+003, 6.612988e+002
1.208576e+003, 6.608804e+002
1.209058e+003, 6.615120e+002
1.209540e+003, 6.621384e+002
1.210022e+003, 6.619434e+002
1.210505e+003, 6.611409e+002
1.210987e+003, 6.611868e+002
1.211469e+003, 6.619277e+002
1.211951e+003, 6.626559e+002
1.212433e+003, 6.629413e+002
1.212915e+003, 6.633690e+002
1.213397e+003, 6.644435e+002
1.213879e+003, 6.654480e+002
1.214361e+003, 6.658798e+002
1.214844e+003, 6.657635e+002
1.215326e+003, 6.649673e+002
1.215808e+003, 6.637050e+002
1.216290e+003, 6.630466e+002
1.216772e+003, 6.641818e+002
1.217254e+003, 6.651050e+002
1.217736e+003, 6.648496e+002
1.218218e+003, 6.645281e+002
1.218701e+003, 6.653356e+002
1.219183e+003, 6.669906e+002
1.219665e+003, 6.674330e+002
1.220147e+003, 6.668640e+002
1.220629e+003, 6.665138e+002
1.221111e+003, 6.676896e+002
1.221593e+003, 6.682188e+002
1.222075e+003, 6.672959e+002
1.222557e+003, 6.657894e+002
1.223040e+003, 6.643924e+002
1.223522e+003, 6.631461e+002
1.224004e+003, 6.620662e+002
1.224486e+003, 6.612610e+002
1.224968e+003, 6.613544e+002
1.225450e+003, 6.640120e+002
1.225932e+003, 6.657225e+002
1.226414e+003, 6.653559e+002
1.226896e+003, 6.642250e+002
1.227379e+003, 6.636725e+002
1.227861e+003, 6.636313e+002
1.228343e+003, 6.642022e+002
1.228825e+003, 6.651894e+002
1.229307e+003, 6.653810e+002
1.229789e+003, 6.620323e+002
1.230271e+003, 6.611569e+002
1.230753e+003, 6.654716e+002
1.231236e+003, 6.704454e+002
1.231718e+003, 6.692736e+002
1.232200e+003, 6.642872e+002
1.232682e+003, 6.620246e+002
1.233164e+003, 6.626095e+002
1.233646e+003, 6.631249e+002
1.234128e+003, 6.619714e+002
1.234610e+003, 6.612703e+002
1.235093e+003, 6.615834e+002
1.235575e+003, 6.622178e+002
1.236057e+003, 6.621112e+002
1.236539e+003, 6.616568e+002
1.237021e+003, 6.618220e+002
1.237503e+003, 6.626119e+002
1.237985e+003, 6.632839e+002
1.238467e+003, 6.634236e+002
1.238949e+003, 6.636929e+002
1.239432e+003, 6.642715e+002
1.239914e+003, 6.648553e+002
1.240396e+003, 6.648343e+002
1.240878e+003, 6.645933e+002
1.241360e+003, 6.650223e+002
1.241842e+003, 6.661165e+002
1.242324e+003, 6.666083e+002
1.242806e+003, 6.657239e+002
1.243288e+003, 6.654064e+002
1.243771e+003, 6.661832e+002
1.244253e+003, 6.671975e+002
1.244735e+003, 6.674113e+002
1.245217e+003, 6.670839e+002
1.245699e+003, 6.665793e+002
1.246181e+003, 6.659301e+002
1.246663e+003, 6.649340e+002
1.247145e+003, 6.629822e+002
1.247628e+003, 6.625211e+002
1.248110e+003, 6.643476e+002
1.248592e+003, 6.668238e+002
1.249074e+003, 6.686506e+002
1.249556e+003, 6.694297e+002
1.250038e+003, 6.681896e+002
1.250520e+003, 6.650207e+002
1.251002e+003, 6.629386e+002
1.251484e+003, 6.621799e+002
1.251967e+003, 6.618358e+002
1.252449e+003, 6.616359e+002
1.252931e+003, 6.621230e+002
1.253413e+003, 6.647464e+002
1.253895e+003, 6.677315e+002
1.254377e+003, 6.692969e+002
1.254859e+003, 6.693265e+002
1.255341e+003, 6.686292e+002
1.255823e+003, 6.670626e+002
1.256306e+003, 6.659730e+002
1.256788e+003, 6.657320e+002
1.257270e+003, 6.657291e+002
1.257752e+003, 6.649955e+002
1.258234e+003, 6.645733e+002
1.258716e+003, 6.658826e+002
1.259198e+003, 6.684108e+002
1.259680e+003, 6.695034e+002
1.260163e+003, 6.691516e+002
1.260645e+003, 6.687777e+002
1.261127e+003, 6.687538e+002
1.261609e+003, 6.684592e+002
1.262091e+003, 6.668926e+002
1.262573e+003, 6.654079e+002
1.263055e+003, 6.648899e+002
1.263537e+003, 6.651953e+002
1.264020e+003, 6.663431e+002
1.264502e+003, 6.680710e+002
1.264984e+003, 6.675667e+002
1.265466e+003, 6.635726e+002
1.265948e+003, 6.618926e+002
1.266430e+003, 6.692524e+002
1.266912e+003, 6.762194e+002
1.267394e+003, 6.782382e+002
1.267876e+003, 6.764390e+002
1.268359e+003, 6.728682e+002
1.268841e+003, 6.682487e+002
1.269323e+003, 6.653663e+002
1.269805e+003, 6.649749e+002
1.270287e+003, 6.650722e+002
1.270769e+003, 6.651968e+002
1.271251e+003, 6.652053e+002
1.271733e+003, 6.649578e+002
1.272215e+003, 6.646884e+002
1.272698e+003, 6.650818e+002
1.273180e+003, 6.658132e+002
1.273662e+003, 6.660398e+002
1.274144e+003, 6.655309e+002
1.274626e+003, 6.654848e+002
1.275108e+003, 6.667952e+002
1.275590e+003, 6.670350e+002
1.276072e+003, 6.648737e+002
1.276555e+003, 6.623640e+002
1.277037e+003, 6.636518e+002
1.277519e+003, 6.665332e+002
1.278001e+003, 6.674649e+002
1.278483e+003, 6.657007e+002
1.278965e+003, 6.644973e+002
1.279447e+003, 6.639582e+002
1.279929e+003, 6.642943e+002
1.280411e+003, 6.657780e+002
1.280894e+003, 6.675052e+002
1.281376e+003, 6.687700e+002
1.281858e+003, 6.693948e+002
1.282340e+003, 6.689494e+002
1.282822e+003, 6.674580e+002
1.283304e+003, 6.662864e+002
1.283786e+003, 6.653788e+002
1.284268e+003, 6.656570e+002
1.284750e+003, 6.677131e+002
1.285233e+003, 6.695956e+002
1.285715e+003, 6.691600e+002
1.286197e+003, 6.680721e+002
1.286679e+003, 6.676882e+002
1.287161e+003, 6.678719e+002
1.287643e+003, 6.677747e+002
1.288125e+003, 6.674511e+002
1.288607e+003, 6.676240e+002
1.289090e+003, 6.685650e+002
1.289572e+003, 6.693687e+002
1.290054e+003, 6.692088e+002
1.290536e+003, 6.690650e+002
1.291018e+003, 6.695359e+002
1.291500e+003, 6.703303e+002
1.291982e+003, 6.707479e+002
1.292464e+003, 6.707844e+002
1.292947e+003, 6.701005e+002
1.293429e+003, 6.684445e+002
1.293911e+003, 6.680544e+002
1.294393e+003, 6.720078e+002
1.294875e+003, 6.743975e+002
1.295357e+003, 6.728907e+002
1.295839e+003, 6.696568e+002
1.296321e+003, 6.685981e+002
1.296803e+003, 6.689881e+002
1.297286e+003, 6.695389e+002
1.297768e+003, 6.700515e+002
1.298250e+003, 6.707223e+002
1.298732e+003, 6.719529e+002
1.299214e+003, 6.721498e+002
1.299696e+003, 6.705720e+002
1.300178e+003, 6.689196e+002
1.300660e+003, 6.690347e+002
##END=



