##NAMES=Piemontite
##RRUFFID=R150096
##IDEAL CHEMISTRY=Ca_2_(Al_2_Mn^3+^)(Si_2_O_7_)(SiO_4_)O(OH)
##LOCALITY=Ash Canyon, Huachuca Mountains, Cochise County, Arizona, USA
##OWNER=RRUFF
##SOURCE=Marcus Origlieri
##DESCRIPTION=Red prismatic crystals, associated with yellow tabular or massive axinite-(Mn), on white quartz matrix
##STATUS=The identification of this mineral has been confirmed only by single crystal X-ray diffraction.
##URL=rruff.info/R150096
8.806445e+001, 5.990609e+002
8.854657e+001, 5.919859e+002
8.902869e+001, 5.895565e+002
8.951080e+001, 5.945923e+002
8.999292e+001, 6.030128e+002
9.047504e+001, 6.113284e+002
9.095715e+001, 6.190276e+002
9.143927e+001, 6.250284e+002
9.192139e+001, 6.274863e+002
9.240350e+001, 6.266901e+002
9.288562e+001, 6.243969e+002
9.336774e+001, 6.168174e+002
9.384985e+001, 6.005233e+002
9.433197e+001, 5.776797e+002
9.481409e+001, 5.574161e+002
9.529620e+001, 5.371951e+002
9.577832e+001, 5.179024e+002
9.626044e+001, 4.996336e+002
9.674255e+001, 4.831537e+002
9.722467e+001, 4.693009e+002
9.770679e+001, 4.580126e+002
9.818890e+001, 4.487748e+002
9.867102e+001, 4.425946e+002
9.915314e+001, 4.371904e+002
9.963525e+001, 4.305990e+002
1.001174e+002, 4.218953e+002
1.005995e+002, 4.116870e+002
1.010816e+002, 4.021127e+002
1.015637e+002, 3.931665e+002
1.020458e+002, 3.847627e+002
1.025280e+002, 3.770000e+002
1.030101e+002, 3.696621e+002
1.034922e+002, 3.623037e+002
1.039743e+002, 3.545629e+002
1.044564e+002, 3.464080e+002
1.049385e+002, 3.397989e+002
1.054207e+002, 3.352847e+002
1.059028e+002, 3.313435e+002
1.063849e+002, 3.277774e+002
1.068670e+002, 3.243842e+002
1.073491e+002, 3.199492e+002
1.078312e+002, 3.126359e+002
1.083134e+002, 3.026552e+002
1.087955e+002, 2.942343e+002
1.092776e+002, 2.883991e+002
1.097597e+002, 2.842504e+002
1.102418e+002, 2.806290e+002
1.107239e+002, 2.775014e+002
1.112061e+002, 2.746259e+002
1.116882e+002, 2.717108e+002
1.121703e+002, 2.687802e+002
1.126524e+002, 2.661486e+002
1.131345e+002, 2.640746e+002
1.136166e+002, 2.625249e+002
1.140988e+002, 2.610264e+002
1.145809e+002, 2.596735e+002
1.150630e+002, 2.582197e+002
1.155451e+002, 2.565104e+002
1.160272e+002, 2.545425e+002
1.165093e+002, 2.524752e+002
1.169915e+002, 2.505163e+002
1.174736e+002, 2.487670e+002
1.179557e+002, 2.468531e+002
1.184378e+002, 2.443603e+002
1.189199e+002, 2.419568e+002
1.194020e+002, 2.400824e+002
1.198842e+002, 2.388881e+002
1.203663e+002, 2.382560e+002
1.208484e+002, 2.379182e+002
1.213305e+002, 2.381177e+002
1.218126e+002, 2.383788e+002
1.222947e+002, 2.388683e+002
1.227769e+002, 2.393682e+002
1.232590e+002, 2.396145e+002
1.237411e+002, 2.394736e+002
1.242232e+002, 2.389751e+002
1.247053e+002, 2.382162e+002
1.251874e+002, 2.367629e+002
1.256696e+002, 2.355631e+002
1.261517e+002, 2.347949e+002
1.266338e+002, 2.345086e+002
1.271159e+002, 2.349512e+002
1.275980e+002, 2.365949e+002
1.280801e+002, 2.390620e+002
1.285623e+002, 2.409458e+002
1.290444e+002, 2.417998e+002
1.295265e+002, 2.423344e+002
1.300086e+002, 2.432953e+002
1.304907e+002, 2.447709e+002
1.309728e+002, 2.462192e+002
1.314550e+002, 2.471315e+002
1.319371e+002, 2.478210e+002
1.324192e+002, 2.487409e+002
1.329013e+002, 2.503796e+002
1.333834e+002, 2.523302e+002
1.338655e+002, 2.533690e+002
1.343477e+002, 2.532097e+002
1.348298e+002, 2.524241e+002
1.353119e+002, 2.514001e+002
1.357940e+002, 2.500340e+002
1.362761e+002, 2.480941e+002
1.367582e+002, 2.452664e+002
1.372404e+002, 2.415380e+002
1.377225e+002, 2.381033e+002
1.382046e+002, 2.358080e+002
1.386867e+002, 2.330925e+002
1.391688e+002, 2.292964e+002
1.396509e+002, 2.245513e+002
1.401331e+002, 2.194254e+002
1.406152e+002, 2.143853e+002
1.410973e+002, 2.093648e+002
1.415794e+002, 2.048718e+002
1.420615e+002, 2.008821e+002
1.425436e+002, 1.972976e+002
1.430258e+002, 1.940692e+002
1.435079e+002, 1.911848e+002
1.439900e+002, 1.885952e+002
1.444721e+002, 1.862372e+002
1.449542e+002, 1.841127e+002
1.454363e+002, 1.823135e+002
1.459185e+002, 1.810314e+002
1.464006e+002, 1.799980e+002
1.468827e+002, 1.789648e+002
1.473648e+002, 1.778883e+002
1.478469e+002, 1.766687e+002
1.483290e+002, 1.750036e+002
1.488112e+002, 1.728397e+002
1.492933e+002, 1.708323e+002
1.497754e+002, 1.691750e+002
1.502575e+002, 1.678521e+002
1.507396e+002, 1.668300e+002
1.512217e+002, 1.662269e+002
1.517039e+002, 1.658038e+002
1.521860e+002, 1.652180e+002
1.526681e+002, 1.644389e+002
1.531502e+002, 1.637228e+002
1.536323e+002, 1.633130e+002
1.541144e+002, 1.632230e+002
1.545966e+002, 1.631065e+002
1.550787e+002, 1.632185e+002
1.555608e+002, 1.630252e+002
1.560429e+002, 1.619754e+002
1.565250e+002, 1.599290e+002
1.570071e+002, 1.575731e+002
1.574893e+002, 1.558284e+002
1.579714e+002, 1.548076e+002
1.584535e+002, 1.541475e+002
1.589356e+002, 1.538214e+002
1.594177e+002, 1.537443e+002
1.598998e+002, 1.539498e+002
1.603820e+002, 1.544444e+002
1.608641e+002, 1.550531e+002
1.613462e+002, 1.553519e+002
1.618283e+002, 1.551222e+002
1.623104e+002, 1.548508e+002
1.627925e+002, 1.547312e+002
1.632747e+002, 1.545497e+002
1.637568e+002, 1.539744e+002
1.642389e+002, 1.528301e+002
1.647210e+002, 1.513366e+002
1.652031e+002, 1.504365e+002
1.656852e+002, 1.506531e+002
1.661674e+002, 1.508688e+002
1.666495e+002, 1.509695e+002
1.671316e+002, 1.509481e+002
1.676137e+002, 1.507674e+002
1.680958e+002, 1.503659e+002
1.685779e+002, 1.498224e+002
1.690601e+002, 1.496316e+002
1.695422e+002, 1.502896e+002
1.700243e+002, 1.507263e+002
1.705064e+002, 1.502845e+002
1.709885e+002, 1.491695e+002
1.714706e+002, 1.482442e+002
1.719528e+002, 1.481663e+002
1.724349e+002, 1.486917e+002
1.729170e+002, 1.486743e+002
1.733991e+002, 1.477270e+002
1.738812e+002, 1.465505e+002
1.743633e+002, 1.456484e+002
1.748455e+002, 1.450234e+002
1.753276e+002, 1.444777e+002
1.758097e+002, 1.438152e+002
1.762918e+002, 1.431705e+002
1.767739e+002, 1.428021e+002
1.772560e+002, 1.429110e+002
1.777382e+002, 1.432190e+002
1.782203e+002, 1.433952e+002
1.787024e+002, 1.434775e+002
1.791845e+002, 1.432928e+002
1.796666e+002, 1.424503e+002
1.801487e+002, 1.413689e+002
1.806309e+002, 1.405788e+002
1.811130e+002, 1.402995e+002
1.815951e+002, 1.404547e+002
1.820772e+002, 1.408969e+002
1.825593e+002, 1.418905e+002
1.830414e+002, 1.427275e+002
1.835236e+002, 1.428940e+002
1.840057e+002, 1.428204e+002
1.844878e+002, 1.431508e+002
1.849699e+002, 1.443455e+002
1.854520e+002, 1.462374e+002
1.859341e+002, 1.477733e+002
1.864163e+002, 1.490614e+002
1.868984e+002, 1.497789e+002
1.873805e+002, 1.495840e+002
1.878626e+002, 1.488099e+002
1.883447e+002, 1.480319e+002
1.888268e+002, 1.476907e+002
1.893090e+002, 1.477600e+002
1.897911e+002, 1.472383e+002
1.902732e+002, 1.456757e+002
1.907553e+002, 1.439830e+002
1.912374e+002, 1.422812e+002
1.917195e+002, 1.406317e+002
1.922017e+002, 1.390926e+002
1.926838e+002, 1.377222e+002
1.931659e+002, 1.365170e+002
1.936480e+002, 1.353048e+002
1.941301e+002, 1.336154e+002
1.946122e+002, 1.323464e+002
1.950944e+002, 1.322672e+002
1.955765e+002, 1.330779e+002
1.960586e+002, 1.336601e+002
1.965407e+002, 1.330105e+002
1.970228e+002, 1.310668e+002
1.975049e+002, 1.298487e+002
1.979871e+002, 1.296937e+002
1.984692e+002, 1.298911e+002
1.989513e+002, 1.301319e+002
1.994334e+002, 1.303682e+002
1.999155e+002, 1.304867e+002
2.003976e+002, 1.302676e+002
2.008798e+002, 1.297890e+002
2.013619e+002, 1.298414e+002
2.018440e+002, 1.311198e+002
2.023261e+002, 1.325224e+002
2.028082e+002, 1.328655e+002
2.032903e+002, 1.320439e+002
2.037725e+002, 1.312683e+002
2.042546e+002, 1.317162e+002
2.047367e+002, 1.329760e+002
2.052188e+002, 1.338660e+002
2.057009e+002, 1.340091e+002
2.061830e+002, 1.337372e+002
2.066652e+002, 1.334338e+002
2.071473e+002, 1.330812e+002
2.076294e+002, 1.327875e+002
2.081115e+002, 1.326565e+002
2.085936e+002, 1.326291e+002
2.090757e+002, 1.326259e+002
2.095579e+002, 1.326038e+002
2.100400e+002, 1.325941e+002
2.105221e+002, 1.326596e+002
2.110042e+002, 1.328071e+002
2.114863e+002, 1.330200e+002
2.119685e+002, 1.333550e+002
2.124506e+002, 1.337315e+002
2.129327e+002, 1.340169e+002
2.134148e+002, 1.341024e+002
2.138969e+002, 1.340771e+002
2.143790e+002, 1.342212e+002
2.148612e+002, 1.346101e+002
2.153433e+002, 1.350600e+002
2.158254e+002, 1.354706e+002
2.163075e+002, 1.358938e+002
2.167896e+002, 1.363958e+002
2.172717e+002, 1.370001e+002
2.177539e+002, 1.377187e+002
2.182360e+002, 1.386187e+002
2.187181e+002, 1.399859e+002
2.192002e+002, 1.411485e+002
2.196823e+002, 1.417630e+002
2.201644e+002, 1.421246e+002
2.206466e+002, 1.426547e+002
2.211287e+002, 1.436199e+002
2.216108e+002, 1.449291e+002
2.220929e+002, 1.460521e+002
2.225750e+002, 1.468127e+002
2.230571e+002, 1.475629e+002
2.235393e+002, 1.483067e+002
2.240214e+002, 1.490811e+002
2.245035e+002, 1.499112e+002
2.249856e+002, 1.508008e+002
2.254677e+002, 1.517717e+002
2.259498e+002, 1.529585e+002
2.264320e+002, 1.547413e+002
2.269141e+002, 1.563311e+002
2.273962e+002, 1.575626e+002
2.278783e+002, 1.585241e+002
2.283604e+002, 1.593845e+002
2.288425e+002, 1.602461e+002
2.293247e+002, 1.610704e+002
2.298068e+002, 1.616295e+002
2.302889e+002, 1.618828e+002
2.307710e+002, 1.619436e+002
2.312531e+002, 1.617970e+002
2.317352e+002, 1.614730e+002
2.322174e+002, 1.610056e+002
2.326995e+002, 1.604031e+002
2.331816e+002, 1.596890e+002
2.336637e+002, 1.589613e+002
2.341458e+002, 1.583795e+002
2.346279e+002, 1.576094e+002
2.351101e+002, 1.563585e+002
2.355922e+002, 1.548660e+002
2.360743e+002, 1.535925e+002
2.365564e+002, 1.527671e+002
2.370385e+002, 1.523092e+002
2.375206e+002, 1.520079e+002
2.380028e+002, 1.519051e+002
2.384849e+002, 1.518475e+002
2.389670e+002, 1.516120e+002
2.394491e+002, 1.513781e+002
2.399312e+002, 1.516092e+002
2.404133e+002, 1.525907e+002
2.408955e+002, 1.540180e+002
2.413776e+002, 1.551749e+002
2.418597e+002, 1.558747e+002
2.423418e+002, 1.567864e+002
2.428239e+002, 1.583942e+002
2.433060e+002, 1.604480e+002
2.437882e+002, 1.622700e+002
2.442703e+002, 1.635958e+002
2.447524e+002, 1.645966e+002
2.452345e+002, 1.655882e+002
2.457166e+002, 1.666074e+002
2.461987e+002, 1.674506e+002
2.466809e+002, 1.681101e+002
2.471630e+002, 1.685308e+002
2.476451e+002, 1.684862e+002
2.481272e+002, 1.677838e+002
2.486093e+002, 1.667479e+002
2.490914e+002, 1.657930e+002
2.495736e+002, 1.649303e+002
2.500557e+002, 1.639973e+002
2.505378e+002, 1.628447e+002
2.510199e+002, 1.615346e+002
2.515020e+002, 1.603411e+002
2.519841e+002, 1.594156e+002
2.524663e+002, 1.584703e+002
2.529484e+002, 1.571850e+002
2.534305e+002, 1.556035e+002
2.539126e+002, 1.540565e+002
2.543947e+002, 1.527457e+002
2.548768e+002, 1.516326e+002
2.553590e+002, 1.505685e+002
2.558411e+002, 1.495343e+002
2.563232e+002, 1.485513e+002
2.568053e+002, 1.476595e+002
2.572874e+002, 1.468312e+002
2.577695e+002, 1.459652e+002
2.582516e+002, 1.449994e+002
2.587338e+002, 1.439386e+002
2.592159e+002, 1.428415e+002
2.596980e+002, 1.416906e+002
2.601801e+002, 1.405229e+002
2.606622e+002, 1.393239e+002
2.611443e+002, 1.381243e+002
2.616265e+002, 1.369932e+002
2.621086e+002, 1.360144e+002
2.625907e+002, 1.351421e+002
2.630728e+002, 1.341847e+002
2.635549e+002, 1.330946e+002
2.640370e+002, 1.319805e+002
2.645192e+002, 1.307721e+002
2.650013e+002, 1.295881e+002
2.654834e+002, 1.286350e+002
2.659655e+002, 1.280724e+002
2.664476e+002, 1.277864e+002
2.669297e+002, 1.273509e+002
2.674119e+002, 1.266399e+002
2.678940e+002, 1.259854e+002
2.683761e+002, 1.254227e+002
2.688582e+002, 1.249850e+002
2.693403e+002, 1.247292e+002
2.698224e+002, 1.247019e+002
2.703046e+002, 1.248306e+002
2.707867e+002, 1.249118e+002
2.712688e+002, 1.248891e+002
2.717509e+002, 1.249234e+002
2.722330e+002, 1.251074e+002
2.727151e+002, 1.253286e+002
2.731973e+002, 1.254450e+002
2.736794e+002, 1.253955e+002
2.741615e+002, 1.253015e+002
2.746436e+002, 1.254856e+002
2.751257e+002, 1.263381e+002
2.756078e+002, 1.266693e+002
2.760900e+002, 1.263008e+002
2.765721e+002, 1.254780e+002
2.770542e+002, 1.243146e+002
2.775363e+002, 1.228658e+002
2.780184e+002, 1.212693e+002
2.785005e+002, 1.198001e+002
2.789827e+002, 1.186708e+002
2.794648e+002, 1.171698e+002
2.799469e+002, 1.149526e+002
2.804290e+002, 1.126336e+002
2.809111e+002, 1.105452e+002
2.813932e+002, 1.087852e+002
2.818754e+002, 1.073473e+002
2.823575e+002, 1.062561e+002
2.828396e+002, 1.056182e+002
2.833217e+002, 1.050412e+002
2.838038e+002, 1.044955e+002
2.842859e+002, 1.040251e+002
2.847681e+002, 1.036416e+002
2.852502e+002, 1.033543e+002
2.857323e+002, 1.031903e+002
2.862144e+002, 1.032011e+002
2.866965e+002, 1.034357e+002
2.871786e+002, 1.035621e+002
2.876608e+002, 1.034845e+002
2.881429e+002, 1.033994e+002
2.886250e+002, 1.033843e+002
2.891071e+002, 1.034317e+002
2.895892e+002, 1.034956e+002
2.900714e+002, 1.035390e+002
2.905535e+002, 1.035616e+002
2.910356e+002, 1.035926e+002
2.915177e+002, 1.035614e+002
2.919998e+002, 1.036121e+002
2.924819e+002, 1.038966e+002
2.929641e+002, 1.042867e+002
2.934462e+002, 1.045397e+002
2.939283e+002, 1.044901e+002
2.944104e+002, 1.041869e+002
2.948925e+002, 1.039664e+002
2.953746e+002, 1.039286e+002
2.958568e+002, 1.038660e+002
2.963389e+002, 1.038312e+002
2.968210e+002, 1.037320e+002
2.973031e+002, 1.034460e+002
2.977852e+002, 1.029125e+002
2.982673e+002, 1.021727e+002
2.987495e+002, 1.013533e+002
2.992316e+002, 1.002140e+002
2.997137e+002, 9.929514e+001
3.001958e+002, 9.877597e+001
3.006779e+002, 9.840541e+001
3.011600e+002, 9.793628e+001
3.016422e+002, 9.728519e+001
3.021243e+002, 9.652957e+001
3.026064e+002, 9.580796e+001
3.030885e+002, 9.510719e+001
3.035706e+002, 9.447575e+001
3.040527e+002, 9.393868e+001
3.045349e+002, 9.344899e+001
3.050170e+002, 9.295547e+001
3.054991e+002, 9.245873e+001
3.059812e+002, 9.202587e+001
3.064633e+002, 9.175694e+001
3.069454e+002, 9.173988e+001
3.074276e+002, 9.157722e+001
3.079097e+002, 9.120916e+001
3.083918e+002, 9.077717e+001
3.088739e+002, 9.021214e+001
3.093560e+002, 8.961208e+001
3.098381e+002, 8.930537e+001
3.103203e+002, 8.965571e+001
3.108024e+002, 9.074366e+001
3.112845e+002, 9.116120e+001
3.117666e+002, 9.031421e+001
3.122487e+002, 8.951002e+001
3.127308e+002, 8.923849e+001
3.132130e+002, 8.936593e+001
3.136951e+002, 8.953194e+001
3.141772e+002, 8.950330e+001
3.146593e+002, 8.931702e+001
3.151414e+002, 8.923261e+001
3.156235e+002, 8.935351e+001
3.161057e+002, 8.945592e+001
3.165878e+002, 8.948556e+001
3.170699e+002, 8.948019e+001
3.175520e+002, 8.949349e+001
3.180341e+002, 8.954953e+001
3.185162e+002, 8.963345e+001
3.189984e+002, 8.970654e+001
3.194805e+002, 8.973692e+001
3.199626e+002, 8.980010e+001
3.204447e+002, 8.987306e+001
3.209268e+002, 8.999129e+001
3.214089e+002, 9.023038e+001
3.218911e+002, 9.059571e+001
3.223732e+002, 9.096084e+001
3.228553e+002, 9.112092e+001
3.233374e+002, 9.089408e+001
3.238195e+002, 9.092126e+001
3.243016e+002, 9.139050e+001
3.247838e+002, 9.192934e+001
3.252659e+002, 9.235883e+001
3.257480e+002, 9.263783e+001
3.262301e+002, 9.275600e+001
3.267122e+002, 9.267962e+001
3.271943e+002, 9.236974e+001
3.276765e+002, 9.219212e+001
3.281586e+002, 9.247343e+001
3.286407e+002, 9.254595e+001
3.291228e+002, 9.193873e+001
3.296049e+002, 9.091412e+001
3.300870e+002, 9.008691e+001
3.305692e+002, 8.989213e+001
3.310513e+002, 9.023460e+001
3.315334e+002, 9.038173e+001
3.320155e+002, 9.008241e+001
3.324976e+002, 8.986262e+001
3.329797e+002, 8.989433e+001
3.334619e+002, 9.001794e+001
3.339440e+002, 9.004442e+001
3.344261e+002, 8.988890e+001
3.349082e+002, 8.956833e+001
3.353904e+002, 8.909399e+001
3.358725e+002, 8.816962e+001
3.363546e+002, 8.757893e+001
3.368367e+002, 8.757417e+001
3.373188e+002, 8.774121e+001
3.378009e+002, 8.777686e+001
3.382831e+002, 8.760294e+001
3.387652e+002, 8.729134e+001
3.392473e+002, 8.690352e+001
3.397294e+002, 8.633187e+001
3.402115e+002, 8.603024e+001
3.406936e+002, 8.614092e+001
3.411758e+002, 8.635427e+001
3.416579e+002, 8.654764e+001
3.421400e+002, 8.670838e+001
3.426221e+002, 8.686242e+001
3.431042e+002, 8.702309e+001
3.435863e+002, 8.719022e+001
3.440685e+002, 8.744036e+001
3.445506e+002, 8.786567e+001
3.450327e+002, 8.828428e+001
3.455148e+002, 8.863009e+001
3.459969e+002, 8.894754e+001
3.464790e+002, 8.934358e+001
3.469612e+002, 8.989686e+001
3.474433e+002, 9.049062e+001
3.479254e+002, 9.072677e+001
3.484075e+002, 9.024199e+001
3.488896e+002, 8.998852e+001
3.493717e+002, 9.035289e+001
3.498539e+002, 9.083924e+001
3.503360e+002, 9.097547e+001
3.508181e+002, 9.062936e+001
3.513002e+002, 9.008213e+001
3.517823e+002, 8.976272e+001
3.522644e+002, 8.976982e+001
3.527466e+002, 8.968308e+001
3.532287e+002, 8.956081e+001
3.537108e+002, 8.927417e+001
3.541929e+002, 8.866380e+001
3.546750e+002, 8.778569e+001
3.551571e+002, 8.688422e+001
3.556393e+002, 8.619102e+001
3.561214e+002, 8.570178e+001
3.566035e+002, 8.512265e+001
3.570856e+002, 8.424275e+001
3.575677e+002, 8.354086e+001
3.580498e+002, 8.334502e+001
3.585320e+002, 8.341114e+001
3.590141e+002, 8.329160e+001
3.594962e+002, 8.268897e+001
3.599783e+002, 8.183370e+001
3.604604e+002, 8.139542e+001
3.609425e+002, 8.161034e+001
3.614247e+002, 8.168674e+001
3.619068e+002, 8.129107e+001
3.623889e+002, 8.071687e+001
3.628710e+002, 8.019827e+001
3.633531e+002, 7.979648e+001
3.638352e+002, 7.948775e+001
3.643174e+002, 7.922222e+001
3.647995e+002, 7.898804e+001
3.652816e+002, 7.892591e+001
3.657637e+002, 7.923580e+001
3.662458e+002, 7.957400e+001
3.667279e+002, 7.975516e+001
3.672101e+002, 7.976912e+001
3.676922e+002, 7.964426e+001
3.681743e+002, 7.930459e+001
3.686564e+002, 7.881771e+001
3.691385e+002, 7.852379e+001
3.696206e+002, 7.853902e+001
3.701028e+002, 7.854144e+001
3.705849e+002, 7.827995e+001
3.710670e+002, 7.788062e+001
3.715491e+002, 7.757520e+001
3.720312e+002, 7.749343e+001
3.725133e+002, 7.749242e+001
3.729955e+002, 7.733887e+001
3.734776e+002, 7.701044e+001
3.739597e+002, 7.674865e+001
3.744418e+002, 7.665444e+001
3.749239e+002, 7.668834e+001
3.754060e+002, 7.680477e+001
3.758882e+002, 7.701149e+001
3.763703e+002, 7.725342e+001
3.768524e+002, 7.750167e+001
3.773345e+002, 7.775576e+001
3.778166e+002, 7.800278e+001
3.782987e+002, 7.821069e+001
3.787809e+002, 7.846656e+001
3.792630e+002, 7.894404e+001
3.797451e+002, 7.960972e+001
3.802272e+002, 8.012546e+001
3.807093e+002, 8.023579e+001
3.811914e+002, 8.020088e+001
3.816736e+002, 8.035483e+001
3.821557e+002, 8.072464e+001
3.826378e+002, 8.121049e+001
3.831199e+002, 8.177642e+001
3.836020e+002, 8.240587e+001
3.840841e+002, 8.301244e+001
3.845663e+002, 8.361266e+001
3.850484e+002, 8.417345e+001
3.855305e+002, 8.458604e+001
3.860126e+002, 8.492780e+001
3.864947e+002, 8.545290e+001
3.869768e+002, 8.627739e+001
3.874590e+002, 8.731418e+001
3.879411e+002, 8.843904e+001
3.884232e+002, 8.976431e+001
3.889053e+002, 9.084465e+001
3.893874e+002, 9.155717e+001
3.898695e+002, 9.199510e+001
3.903517e+002, 9.221535e+001
3.908338e+002, 9.223918e+001
3.913159e+002, 9.218712e+001
3.917980e+002, 9.222735e+001
3.922801e+002, 9.240295e+001
3.927622e+002, 9.211301e+001
3.932444e+002, 9.092963e+001
3.937265e+002, 8.973135e+001
3.942086e+002, 8.904855e+001
3.946907e+002, 8.872976e+001
3.951728e+002, 8.830971e+001
3.956549e+002, 8.752029e+001
3.961371e+002, 8.643337e+001
3.966192e+002, 8.536169e+001
3.971013e+002, 8.419905e+001
3.975834e+002, 8.318826e+001
3.980655e+002, 8.240793e+001
3.985476e+002, 8.176101e+001
3.990298e+002, 8.116570e+001
3.995119e+002, 8.059658e+001
3.999940e+002, 8.005462e+001
4.004761e+002, 7.954117e+001
4.009582e+002, 7.905756e+001
4.014403e+002, 7.860281e+001
4.019225e+002, 7.818051e+001
4.024046e+002, 7.778023e+001
4.028867e+002, 7.736862e+001
4.033688e+002, 7.697440e+001
4.038509e+002, 7.664838e+001
4.043330e+002, 7.641415e+001
4.048152e+002, 7.628684e+001
4.052973e+002, 7.637350e+001
4.057794e+002, 7.695241e+001
4.062615e+002, 7.732253e+001
4.067436e+002, 7.715820e+001
4.072257e+002, 7.684215e+001
4.077079e+002, 7.677856e+001
4.081900e+002, 7.708756e+001
4.086721e+002, 7.754612e+001
4.091542e+002, 7.783412e+001
4.096363e+002, 7.790813e+001
4.101184e+002, 7.806748e+001
4.106006e+002, 7.827042e+001
4.110827e+002, 7.864368e+001
4.115648e+002, 7.933591e+001
4.120469e+002, 8.027519e+001
4.125290e+002, 8.121457e+001
4.130111e+002, 8.201787e+001
4.134933e+002, 8.269791e+001
4.139754e+002, 8.328413e+001
4.144575e+002, 8.375523e+001
4.149396e+002, 8.418797e+001
4.154217e+002, 8.438448e+001
4.159038e+002, 8.465049e+001
4.163860e+002, 8.539761e+001
4.168681e+002, 8.678790e+001
4.173502e+002, 8.844318e+001
4.178323e+002, 9.002055e+001
4.183144e+002, 9.153992e+001
4.187965e+002, 9.313895e+001
4.192787e+002, 9.493916e+001
4.197608e+002, 9.670922e+001
4.202429e+002, 9.803993e+001
4.207250e+002, 9.898071e+001
4.212071e+002, 1.003115e+002
4.216892e+002, 1.025961e+002
4.221714e+002, 1.052918e+002
4.226535e+002, 1.077146e+002
4.231356e+002, 1.098142e+002
4.236177e+002, 1.117007e+002
4.240998e+002, 1.134187e+002
4.245819e+002, 1.149730e+002
4.250641e+002, 1.164265e+002
4.255462e+002, 1.178266e+002
4.260283e+002, 1.190732e+002
4.265104e+002, 1.204190e+002
4.269925e+002, 1.215432e+002
4.274746e+002, 1.216810e+002
4.279568e+002, 1.205180e+002
4.284389e+002, 1.187545e+002
4.289210e+002, 1.174193e+002
4.294031e+002, 1.167101e+002
4.298852e+002, 1.159103e+002
4.303673e+002, 1.149643e+002
4.308495e+002, 1.139640e+002
4.313316e+002, 1.129183e+002
4.318137e+002, 1.118612e+002
4.322958e+002, 1.108633e+002
4.327779e+002, 1.099605e+002
4.332600e+002, 1.091635e+002
4.337422e+002, 1.085763e+002
4.342243e+002, 1.084316e+002
4.347064e+002, 1.082248e+002
4.351885e+002, 1.078520e+002
4.356706e+002, 1.074071e+002
4.361527e+002, 1.069740e+002
4.366349e+002, 1.065850e+002
4.371170e+002, 1.062566e+002
4.375991e+002, 1.059897e+002
4.380812e+002, 1.057354e+002
4.385633e+002, 1.057258e+002
4.390454e+002, 1.062516e+002
4.395276e+002, 1.067509e+002
4.400097e+002, 1.069872e+002
4.404918e+002, 1.070175e+002
4.409739e+002, 1.069939e+002
4.414560e+002, 1.069699e+002
4.419381e+002, 1.070043e+002
4.424203e+002, 1.072818e+002
4.429024e+002, 1.078531e+002
4.433845e+002, 1.085332e+002
4.438666e+002, 1.091645e+002
4.443487e+002, 1.099427e+002
4.448308e+002, 1.111046e+002
4.453130e+002, 1.126868e+002
4.457951e+002, 1.143734e+002
4.462772e+002, 1.158865e+002
4.467593e+002, 1.172716e+002
4.472414e+002, 1.187859e+002
4.477235e+002, 1.205451e+002
4.482057e+002, 1.222426e+002
4.486878e+002, 1.238022e+002
4.491699e+002, 1.251429e+002
4.496520e+002, 1.259502e+002
4.501341e+002, 1.261183e+002
4.506162e+002, 1.257556e+002
4.510984e+002, 1.248189e+002
4.515805e+002, 1.233737e+002
4.520626e+002, 1.218351e+002
4.525447e+002, 1.203830e+002
4.530268e+002, 1.189015e+002
4.535089e+002, 1.171244e+002
4.539911e+002, 1.149833e+002
4.544732e+002, 1.129348e+002
4.549553e+002, 1.111151e+002
4.554374e+002, 1.094145e+002
4.559195e+002, 1.077091e+002
4.564016e+002, 1.059844e+002
4.568838e+002, 1.043086e+002
4.573659e+002, 1.026882e+002
4.578480e+002, 1.011435e+002
4.583301e+002, 1.000162e+002
4.588122e+002, 9.971678e+001
4.592943e+002, 9.927243e+001
4.597765e+002, 9.830379e+001
4.602586e+002, 9.710254e+001
4.607407e+002, 9.603246e+001
4.612228e+002, 9.522495e+001
4.617049e+002, 9.460867e+001
4.621870e+002, 9.411282e+001
4.626692e+002, 9.384752e+001
4.631513e+002, 9.334738e+001
4.636334e+002, 9.230667e+001
4.641155e+002, 9.134841e+001
4.645976e+002, 9.076162e+001
4.650797e+002, 9.046943e+001
4.655619e+002, 9.026517e+001
4.660440e+002, 9.005333e+001
4.665261e+002, 8.979457e+001
4.670082e+002, 8.934429e+001
4.674903e+002, 8.858534e+001
4.679724e+002, 8.795113e+001
4.684546e+002, 8.772805e+001
4.689367e+002, 8.754935e+001
4.694188e+002, 8.709998e+001
4.699009e+002, 8.636230e+001
4.703830e+002, 8.565788e+001
4.708651e+002, 8.527140e+001
4.713473e+002, 8.511897e+001
4.718294e+002, 8.491052e+001
4.723115e+002, 8.463967e+001
4.727936e+002, 8.428222e+001
4.732757e+002, 8.376382e+001
4.737578e+002, 8.315848e+001
4.742400e+002, 8.260793e+001
4.747221e+002, 8.215683e+001
4.752042e+002, 8.172407e+001
4.756863e+002, 8.127231e+001
4.761684e+002, 8.079528e+001
4.766505e+002, 8.024203e+001
4.771327e+002, 7.956506e+001
4.776148e+002, 7.894456e+001
4.780969e+002, 7.866577e+001
4.785790e+002, 7.881004e+001
4.790611e+002, 7.868594e+001
4.795432e+002, 7.791113e+001
4.800254e+002, 7.716651e+001
4.805075e+002, 7.693488e+001
4.809896e+002, 7.711160e+001
4.814717e+002, 7.733625e+001
4.819538e+002, 7.741923e+001
4.824359e+002, 7.738761e+001
4.829181e+002, 7.730983e+001
4.834002e+002, 7.698009e+001
4.838823e+002, 7.692131e+001
4.843644e+002, 7.721864e+001
4.848465e+002, 7.771236e+001
4.853286e+002, 7.844264e+001
4.858108e+002, 7.930081e+001
4.862929e+002, 7.995462e+001
4.867750e+002, 8.008244e+001
4.872571e+002, 7.974728e+001
4.877392e+002, 7.949504e+001
4.882213e+002, 7.925593e+001
4.887035e+002, 7.923101e+001
4.891856e+002, 7.950272e+001
4.896677e+002, 7.996475e+001
4.901498e+002, 8.058757e+001
4.906319e+002, 8.136403e+001
4.911140e+002, 8.203899e+001
4.915962e+002, 8.232055e+001
4.920783e+002, 8.224809e+001
4.925604e+002, 8.208499e+001
4.930425e+002, 8.172512e+001
4.935246e+002, 8.154466e+001
4.940067e+002, 8.202425e+001
4.944889e+002, 8.288614e+001
4.949710e+002, 8.350002e+001
4.954531e+002, 8.349128e+001
4.959352e+002, 8.346056e+001
4.964173e+002, 8.399748e+001
4.968994e+002, 8.494130e+001
4.973816e+002, 8.567111e+001
4.978637e+002, 8.593608e+001
4.983458e+002, 8.604576e+001
4.988279e+002, 8.644448e+001
4.993100e+002, 8.719310e+001
4.997921e+002, 8.794308e+001
5.002743e+002, 8.874973e+001
5.007564e+002, 8.948569e+001
5.012385e+002, 8.994463e+001
5.017206e+002, 9.024707e+001
5.022027e+002, 9.076345e+001
5.026848e+002, 9.172417e+001
5.031670e+002, 9.293790e+001
5.036491e+002, 9.381819e+001
5.041312e+002, 9.409117e+001
5.046133e+002, 9.446986e+001
5.050954e+002, 9.510902e+001
5.055775e+002, 9.574509e+001
5.060597e+002, 9.621017e+001
5.065418e+002, 9.649812e+001
5.070239e+002, 9.667919e+001
5.075060e+002, 9.679331e+001
5.079881e+002, 9.685226e+001
5.084702e+002, 9.691724e+001
5.089524e+002, 9.701085e+001
5.094345e+002, 9.705856e+001
5.099166e+002, 9.711289e+001
5.103987e+002, 9.706687e+001
5.108808e+002, 9.676961e+001
5.113629e+002, 9.619698e+001
5.118451e+002, 9.559528e+001
5.123271e+002, 9.529826e+001
5.128093e+002, 9.511080e+001
5.132914e+002, 9.443662e+001
5.137735e+002, 9.316799e+001
5.142556e+002, 9.169827e+001
5.147377e+002, 9.020272e+001
5.152198e+002, 8.872466e+001
5.157020e+002, 8.737769e+001
5.161841e+002, 8.610470e+001
5.166662e+002, 8.505179e+001
5.171483e+002, 8.442007e+001
5.176304e+002, 8.401241e+001
5.181125e+002, 8.349500e+001
5.185947e+002, 8.278577e+001
5.190768e+002, 8.202672e+001
5.195589e+002, 8.134834e+001
5.200410e+002, 8.073612e+001
5.205231e+002, 8.033438e+001
5.210052e+002, 8.023569e+001
5.214874e+002, 8.020712e+001
5.219695e+002, 8.013132e+001
5.224516e+002, 8.009435e+001
5.229337e+002, 8.031203e+001
5.234158e+002, 8.084604e+001
5.238979e+002, 8.136988e+001
5.243801e+002, 8.134241e+001
5.248622e+002, 8.063766e+001
5.253443e+002, 8.004945e+001
5.258264e+002, 7.970960e+001
5.263085e+002, 7.936714e+001
5.267906e+002, 7.902124e+001
5.272728e+002, 7.858110e+001
5.277549e+002, 7.785273e+001
5.282370e+002, 7.668111e+001
5.287191e+002, 7.535816e+001
5.292012e+002, 7.427734e+001
5.296833e+002, 7.341817e+001
5.301655e+002, 7.245690e+001
5.306476e+002, 7.124441e+001
5.311297e+002, 7.001870e+001
5.316118e+002, 6.904384e+001
5.320939e+002, 6.829069e+001
5.325760e+002, 6.764183e+001
5.330582e+002, 6.709768e+001
5.335403e+002, 6.662893e+001
5.340224e+002, 6.620608e+001
5.345045e+002, 6.584028e+001
5.349866e+002, 6.559183e+001
5.354688e+002, 6.549931e+001
5.359509e+002, 6.547043e+001
5.364330e+002, 6.533022e+001
5.369151e+002, 6.501206e+001
5.373972e+002, 6.474025e+001
5.378793e+002, 6.445890e+001
5.383615e+002, 6.426984e+001
5.388436e+002, 6.426962e+001
5.393257e+002, 6.440639e+001
5.398078e+002, 6.457243e+001
5.402899e+002, 6.471376e+001
5.407720e+002, 6.481431e+001
5.412542e+002, 6.480251e+001
5.417363e+002, 6.459794e+001
5.422184e+002, 6.455280e+001
5.427005e+002, 6.484581e+001
5.431826e+002, 6.521073e+001
5.436647e+002, 6.549474e+001
5.441469e+002, 6.571280e+001
5.446290e+002, 6.596552e+001
5.451111e+002, 6.632272e+001
5.455932e+002, 6.672849e+001
5.460753e+002, 6.709203e+001
5.465574e+002, 6.741430e+001
5.470396e+002, 6.776024e+001
5.475217e+002, 6.813824e+001
5.480038e+002, 6.856811e+001
5.484859e+002, 6.906750e+001
5.489680e+002, 6.960905e+001
5.494501e+002, 7.034693e+001
5.499323e+002, 7.150446e+001
5.504144e+002, 7.270956e+001
5.508965e+002, 7.364205e+001
5.513786e+002, 7.435191e+001
5.518607e+002, 7.507739e+001
5.523428e+002, 7.594651e+001
5.528250e+002, 7.691049e+001
5.533071e+002, 7.782859e+001
5.537892e+002, 7.848909e+001
5.542713e+002, 7.951770e+001
5.547534e+002, 8.133862e+001
5.552355e+002, 8.309772e+001
5.557177e+002, 8.418050e+001
5.561998e+002, 8.477969e+001
5.566819e+002, 8.549400e+001
5.571640e+002, 8.667216e+001
5.576461e+002, 8.818320e+001
5.581282e+002, 8.971207e+001
5.586104e+002, 9.122795e+001
5.590925e+002, 9.296902e+001
5.595746e+002, 9.490392e+001
5.600567e+002, 9.720777e+001
5.605388e+002, 1.001103e+002
5.610209e+002, 1.035254e+002
5.615031e+002, 1.069351e+002
5.619852e+002, 1.097163e+002
5.624673e+002, 1.126852e+002
5.629494e+002, 1.169430e+002
5.634315e+002, 1.222434e+002
5.639136e+002, 1.273878e+002
5.643958e+002, 1.319354e+002
5.648779e+002, 1.360119e+002
5.653600e+002, 1.398886e+002
5.658421e+002, 1.437057e+002
5.663242e+002, 1.467267e+002
5.668063e+002, 1.490281e+002
5.672885e+002, 1.504955e+002
5.677706e+002, 1.513437e+002
5.682527e+002, 1.512733e+002
5.687348e+002, 1.496067e+002
5.692169e+002, 1.459946e+002
5.696990e+002, 1.409800e+002
5.701812e+002, 1.354534e+002
5.706633e+002, 1.292638e+002
5.711454e+002, 1.232291e+002
5.716275e+002, 1.173383e+002
5.721096e+002, 1.116715e+002
5.725917e+002, 1.060666e+002
5.730739e+002, 1.007396e+002
5.735560e+002, 9.619830e+001
5.740381e+002, 9.273501e+001
5.745202e+002, 8.991370e+001
5.750023e+002, 8.730417e+001
5.754844e+002, 8.492242e+001
5.759666e+002, 8.289647e+001
5.764487e+002, 8.126435e+001
5.769308e+002, 7.995039e+001
5.774129e+002, 7.888528e+001
5.778950e+002, 7.808543e+001
5.783771e+002, 7.752306e+001
5.788593e+002, 7.730368e+001
5.793414e+002, 7.720361e+001
5.798235e+002, 7.719201e+001
5.803056e+002, 7.721185e+001
5.807877e+002, 7.715178e+001
5.812698e+002, 7.698679e+001
5.817520e+002, 7.684150e+001
5.822341e+002, 7.687093e+001
5.827162e+002, 7.708468e+001
5.831984e+002, 7.738374e+001
5.836805e+002, 7.773497e+001
5.841626e+002, 7.822352e+001
5.846447e+002, 7.894096e+001
5.851268e+002, 7.977286e+001
5.856089e+002, 8.059639e+001
5.860911e+002, 8.137973e+001
5.865732e+002, 8.211266e+001
5.870553e+002, 8.274557e+001
5.875374e+002, 8.331827e+001
5.880195e+002, 8.395568e+001
5.885016e+002, 8.466424e+001
5.889838e+002, 8.546552e+001
5.894659e+002, 8.637785e+001
5.899480e+002, 8.739822e+001
5.904301e+002, 8.850587e+001
5.909122e+002, 8.977120e+001
5.913943e+002, 9.098360e+001
5.918765e+002, 9.205167e+001
5.923586e+002, 9.305683e+001
5.928407e+002, 9.405228e+001
5.933228e+002, 9.506370e+001
5.938049e+002, 9.614311e+001
5.942870e+002, 9.732719e+001
5.947692e+002, 9.862346e+001
5.952513e+002, 1.001144e+002
5.957334e+002, 1.020047e+002
5.962155e+002, 1.037158e+002
5.966976e+002, 1.051671e+002
5.971797e+002, 1.064600e+002
5.976619e+002, 1.076718e+002
5.981440e+002, 1.087949e+002
5.986261e+002, 1.097725e+002
5.991082e+002, 1.105331e+002
5.995903e+002, 1.111616e+002
6.000724e+002, 1.118996e+002
6.005546e+002, 1.127485e+002
6.010367e+002, 1.132385e+002
6.015188e+002, 1.132201e+002
6.020009e+002, 1.127845e+002
6.024830e+002, 1.119787e+002
6.029651e+002, 1.108225e+002
6.034473e+002, 1.094529e+002
6.039294e+002, 1.078165e+002
6.044115e+002, 1.060454e+002
6.048936e+002, 1.041808e+002
6.053757e+002, 1.022570e+002
6.058578e+002, 1.003200e+002
6.063400e+002, 9.839377e+001
6.068221e+002, 9.650124e+001
6.073042e+002, 9.467786e+001
6.077863e+002, 9.293488e+001
6.082684e+002, 9.120626e+001
6.087505e+002, 8.934988e+001
6.092327e+002, 8.769693e+001
6.097148e+002, 8.657107e+001
6.101969e+002, 8.560249e+001
6.106790e+002, 8.423037e+001
6.111611e+002, 8.229108e+001
6.116432e+002, 8.041801e+001
6.121254e+002, 7.921336e+001
6.126075e+002, 7.851204e+001
6.130896e+002, 7.782519e+001
6.135717e+002, 7.710927e+001
6.140538e+002, 7.641756e+001
6.145359e+002, 7.581261e+001
6.150181e+002, 7.524033e+001
6.155002e+002, 7.452739e+001
6.159823e+002, 7.352442e+001
6.164644e+002, 7.272173e+001
6.169465e+002, 7.236658e+001
6.174286e+002, 7.214269e+001
6.179108e+002, 7.180499e+001
6.183929e+002, 7.134189e+001
6.188750e+002, 7.080972e+001
6.193571e+002, 7.023009e+001
6.198392e+002, 6.967844e+001
6.203214e+002, 6.940972e+001
6.208035e+002, 6.960328e+001
6.212856e+002, 6.952255e+001
6.217677e+002, 6.866646e+001
6.222498e+002, 6.792813e+001
6.227319e+002, 6.787994e+001
6.232141e+002, 6.831786e+001
6.236962e+002, 6.869253e+001
6.241783e+002, 6.880284e+001
6.246604e+002, 6.877525e+001
6.251425e+002, 6.871545e+001
6.256246e+002, 6.861968e+001
6.261068e+002, 6.846878e+001
6.265889e+002, 6.825487e+001
6.270710e+002, 6.801127e+001
6.275531e+002, 6.775359e+001
6.280352e+002, 6.748656e+001
6.285173e+002, 6.730968e+001
6.289995e+002, 6.733434e+001
6.294816e+002, 6.729452e+001
6.299637e+002, 6.701760e+001
6.304458e+002, 6.672501e+001
6.309279e+002, 6.670534e+001
6.314100e+002, 6.693838e+001
6.318922e+002, 6.709237e+001
6.323743e+002, 6.685165e+001
6.328564e+002, 6.635206e+001
6.333385e+002, 6.612693e+001
6.338206e+002, 6.625347e+001
6.343027e+002, 6.634164e+001
6.347849e+002, 6.631821e+001
6.352670e+002, 6.617482e+001
6.357491e+002, 6.581461e+001
6.362312e+002, 6.527565e+001
6.367133e+002, 6.496918e+001
6.371954e+002, 6.525584e+001
6.376776e+002, 6.561201e+001
6.381597e+002, 6.560703e+001
6.386418e+002, 6.533949e+001
6.391239e+002, 6.504143e+001
6.396060e+002, 6.479079e+001
6.400881e+002, 6.460558e+001
6.405703e+002, 6.451553e+001
6.410524e+002, 6.452786e+001
6.415345e+002, 6.455580e+001
6.420166e+002, 6.466134e+001
6.424987e+002, 6.470770e+001
6.429808e+002, 6.462830e+001
6.434630e+002, 6.450017e+001
6.439451e+002, 6.442261e+001
6.444272e+002, 6.440438e+001
6.449093e+002, 6.433266e+001
6.453914e+002, 6.404279e+001
6.458735e+002, 6.365041e+001
6.463557e+002, 6.345464e+001
6.468378e+002, 6.346212e+001
6.473199e+002, 6.351232e+001
6.478020e+002, 6.353996e+001
6.482841e+002, 6.357640e+001
6.487662e+002, 6.372053e+001
6.492484e+002, 6.404013e+001
6.497305e+002, 6.408649e+001
6.502126e+002, 6.353125e+001
6.506947e+002, 6.298713e+001
6.511768e+002, 6.280566e+001
6.516589e+002, 6.286869e+001
6.521411e+002, 6.298148e+001
6.526232e+002, 6.306404e+001
6.531053e+002, 6.306871e+001
6.535874e+002, 6.285581e+001
6.540695e+002, 6.241983e+001
6.545516e+002, 6.238259e+001
6.550338e+002, 6.304195e+001
6.555159e+002, 6.350368e+001
6.559980e+002, 6.310358e+001
6.564801e+002, 6.243544e+001
6.569622e+002, 6.217268e+001
6.574443e+002, 6.241394e+001
6.579265e+002, 6.264473e+001
6.584086e+002, 6.265908e+001
6.588907e+002, 6.253283e+001
6.593728e+002, 6.228605e+001
6.598549e+002, 6.196156e+001
6.603370e+002, 6.171171e+001
6.608192e+002, 6.161057e+001
6.613013e+002, 6.157882e+001
6.617834e+002, 6.147733e+001
6.622655e+002, 6.127922e+001
6.627476e+002, 6.111066e+001
6.632297e+002, 6.104921e+001
6.637119e+002, 6.093020e+001
6.641940e+002, 6.064177e+001
6.646761e+002, 6.029204e+001
6.651582e+002, 6.002720e+001
6.656403e+002, 5.988555e+001
6.661224e+002, 5.979218e+001
6.666046e+002, 5.975682e+001
6.670867e+002, 5.970808e+001
6.675688e+002, 5.940327e+001
6.680509e+002, 5.882918e+001
6.685330e+002, 5.836401e+001
6.690151e+002, 5.820121e+001
6.694973e+002, 5.825136e+001
6.699794e+002, 5.836951e+001
6.704615e+002, 5.866704e+001
6.709436e+002, 5.870904e+001
6.714257e+002, 5.824352e+001
6.719078e+002, 5.776997e+001
6.723900e+002, 5.754987e+001
6.728721e+002, 5.749944e+001
6.733542e+002, 5.747134e+001
6.738363e+002, 5.740833e+001
6.743184e+002, 5.728603e+001
6.748005e+002, 5.699792e+001
6.752827e+002, 5.658103e+001
6.757648e+002, 5.647414e+001
6.762469e+002, 5.680665e+001
6.767290e+002, 5.701392e+001
6.772111e+002, 5.672945e+001
6.776932e+002, 5.621762e+001
6.781754e+002, 5.591516e+001
6.786575e+002, 5.582111e+001
6.791396e+002, 5.592257e+001
6.796217e+002, 5.638746e+001
6.801038e+002, 5.689675e+001
6.805859e+002, 5.726583e+001
6.810681e+002, 5.747782e+001
6.815502e+002, 5.750037e+001
6.820323e+002, 5.732788e+001
6.825144e+002, 5.708363e+001
6.829965e+002, 5.693878e+001
6.834786e+002, 5.689740e+001
6.839608e+002, 5.688892e+001
6.844429e+002, 5.691323e+001
6.849250e+002, 5.697074e+001
6.854071e+002, 5.709620e+001
6.858892e+002, 5.723568e+001
6.863713e+002, 5.733566e+001
6.868535e+002, 5.739050e+001
6.873356e+002, 5.740967e+001
6.878177e+002, 5.741912e+001
6.882998e+002, 5.737764e+001
6.887819e+002, 5.720894e+001
6.892640e+002, 5.694890e+001
6.897462e+002, 5.670573e+001
6.902283e+002, 5.651920e+001
6.907104e+002, 5.639962e+001
6.911925e+002, 5.638121e+001
6.916746e+002, 5.648868e+001
6.921567e+002, 5.647558e+001
6.926389e+002, 5.633749e+001
6.931210e+002, 5.607575e+001
6.936031e+002, 5.560597e+001
6.940852e+002, 5.507366e+001
6.945673e+002, 5.459839e+001
6.950494e+002, 5.420191e+001
6.955316e+002, 5.390923e+001
6.960137e+002, 5.387871e+001
6.964958e+002, 5.387037e+001
6.969779e+002, 5.346059e+001
6.974600e+002, 5.275539e+001
6.979421e+002, 5.228854e+001
6.984243e+002, 5.226661e+001
6.989064e+002, 5.237477e+001
6.993885e+002, 5.219560e+001
6.998706e+002, 5.168737e+001
7.003527e+002, 5.143944e+001
7.008348e+002, 5.178979e+001
7.013170e+002, 5.198703e+001
7.017991e+002, 5.180235e+001
7.022812e+002, 5.147247e+001
7.027633e+002, 5.118559e+001
7.032454e+002, 5.097584e+001
7.037275e+002, 5.082536e+001
7.042097e+002, 5.074067e+001
7.046918e+002, 5.069188e+001
7.051739e+002, 5.066413e+001
7.056560e+002, 5.064220e+001
7.061381e+002, 5.049902e+001
7.066202e+002, 5.017451e+001
7.071024e+002, 4.986282e+001
7.075845e+002, 4.978173e+001
7.080666e+002, 4.992496e+001
7.085487e+002, 4.996148e+001
7.090308e+002, 4.981988e+001
7.095129e+002, 4.967133e+001
7.099951e+002, 4.953612e+001
7.104772e+002, 4.940638e+001
7.109593e+002, 4.923832e+001
7.114414e+002, 4.906240e+001
7.119235e+002, 4.901235e+001
7.124056e+002, 4.924144e+001
7.128878e+002, 4.948653e+001
7.133699e+002, 4.920208e+001
7.138520e+002, 4.849529e+001
7.143341e+002, 4.820078e+001
7.148162e+002, 4.854386e+001
7.152983e+002, 4.895992e+001
7.157805e+002, 4.899532e+001
7.162626e+002, 4.871584e+001
7.167447e+002, 4.849784e+001
7.172268e+002, 4.833453e+001
7.177089e+002, 4.823795e+001
7.181910e+002, 4.827771e+001
7.186732e+002, 4.832610e+001
7.191553e+002, 4.823450e+001
7.196374e+002, 4.807843e+001
7.201195e+002, 4.807779e+001
7.206016e+002, 4.835635e+001
7.210837e+002, 4.870607e+001
7.215659e+002, 4.888686e+001
7.220480e+002, 4.890259e+001
7.225301e+002, 4.870841e+001
7.230122e+002, 4.824942e+001
7.234943e+002, 4.790743e+001
7.239764e+002, 4.795613e+001
7.244586e+002, 4.823686e+001
7.249407e+002, 4.833631e+001
7.254228e+002, 4.814014e+001
7.259049e+002, 4.804909e+001
7.263870e+002, 4.818620e+001
7.268691e+002, 4.833057e+001
7.273513e+002, 4.839741e+001
7.278334e+002, 4.837583e+001
7.283155e+002, 4.822461e+001
7.287976e+002, 4.793935e+001
7.292797e+002, 4.768090e+001
7.297618e+002, 4.765049e+001
7.302440e+002, 4.778702e+001
7.307261e+002, 4.786856e+001
7.312082e+002, 4.788705e+001
7.316903e+002, 4.789515e+001
7.321724e+002, 4.790306e+001
7.326545e+002, 4.793274e+001
7.331367e+002, 4.804849e+001
7.336188e+002, 4.829728e+001
7.341009e+002, 4.833385e+001
7.345830e+002, 4.797812e+001
7.350651e+002, 4.762860e+001
7.355472e+002, 4.738427e+001
7.360294e+002, 4.723944e+001
7.365115e+002, 4.715995e+001
7.369936e+002, 4.715403e+001
7.374757e+002, 4.730866e+001
7.379578e+002, 4.780345e+001
7.384399e+002, 4.839090e+001
7.389221e+002, 4.852708e+001
7.394042e+002, 4.823864e+001
7.398863e+002, 4.791740e+001
7.403684e+002, 4.762415e+001
7.408505e+002, 4.746586e+001
7.413326e+002, 4.760551e+001
7.418148e+002, 4.800052e+001
7.422969e+002, 4.815508e+001
7.427790e+002, 4.781956e+001
7.432611e+002, 4.760942e+001
7.437432e+002, 4.776541e+001
7.442253e+002, 4.792788e+001
7.447075e+002, 4.773215e+001
7.451896e+002, 4.731063e+001
7.456717e+002, 4.709512e+001
7.461538e+002, 4.732303e+001
7.466359e+002, 4.768019e+001
7.471180e+002, 4.776287e+001
7.476002e+002, 4.765709e+001
7.480823e+002, 4.771253e+001
7.485644e+002, 4.797734e+001
7.490465e+002, 4.817292e+001
7.495286e+002, 4.812236e+001
7.500107e+002, 4.791486e+001
7.504929e+002, 4.774889e+001
7.509750e+002, 4.757149e+001
7.514571e+002, 4.757505e+001
7.519392e+002, 4.801608e+001
7.524213e+002, 4.833731e+001
7.529034e+002, 4.822969e+001
7.533856e+002, 4.790940e+001
7.538677e+002, 4.764976e+001
7.543498e+002, 4.751990e+001
7.548319e+002, 4.749723e+001
7.553140e+002, 4.764408e+001
7.557961e+002, 4.784665e+001
7.562783e+002, 4.786220e+001
7.567604e+002, 4.773642e+001
7.572425e+002, 4.779143e+001
7.577246e+002, 4.815302e+001
7.582067e+002, 4.852221e+001
7.586888e+002, 4.851382e+001
7.591710e+002, 4.813225e+001
7.596531e+002, 4.801522e+001
7.601352e+002, 4.838527e+001
7.606173e+002, 4.868345e+001
7.610994e+002, 4.882701e+001
7.615815e+002, 4.887702e+001
7.620637e+002, 4.883680e+001
7.625458e+002, 4.873919e+001
7.630279e+002, 4.869489e+001
7.635100e+002, 4.884594e+001
7.639921e+002, 4.887831e+001
7.644742e+002, 4.827584e+001
7.649564e+002, 4.746464e+001
7.654385e+002, 4.733364e+001
7.659206e+002, 4.791252e+001
7.664027e+002, 4.851546e+001
7.668848e+002, 4.870843e+001
7.673669e+002, 4.863824e+001
7.678491e+002, 4.865940e+001
7.683312e+002, 4.883403e+001
7.688133e+002, 4.885832e+001
7.692954e+002, 4.860040e+001
7.697775e+002, 4.836982e+001
7.702596e+002, 4.828883e+001
7.707418e+002, 4.831795e+001
7.712239e+002, 4.845629e+001
7.717060e+002, 4.872559e+001
7.721881e+002, 4.886174e+001
7.726702e+002, 4.862095e+001
7.731523e+002, 4.833850e+001
7.736345e+002, 4.833417e+001
7.741166e+002, 4.848653e+001
7.745987e+002, 4.849497e+001
7.750808e+002, 4.829289e+001
7.755629e+002, 4.811557e+001
7.760450e+002, 4.821460e+001
7.765272e+002, 4.852703e+001
7.770093e+002, 4.877308e+001
7.774914e+002, 4.896388e+001
7.779735e+002, 4.900476e+001
7.784556e+002, 4.875270e+001
7.789377e+002, 4.853203e+001
7.794199e+002, 4.870869e+001
7.799020e+002, 4.918253e+001
7.803841e+002, 4.945500e+001
7.808662e+002, 4.942284e+001
7.813483e+002, 4.931435e+001
7.818304e+002, 4.908104e+001
7.823126e+002, 4.887590e+001
7.827947e+002, 4.884159e+001
7.832768e+002, 4.894316e+001
7.837589e+002, 4.906524e+001
7.842410e+002, 4.915599e+001
7.847231e+002, 4.925787e+001
7.852053e+002, 4.949020e+001
7.856874e+002, 4.978175e+001
7.861695e+002, 4.979412e+001
7.866516e+002, 4.949619e+001
7.871337e+002, 4.926917e+001
7.876158e+002, 4.929802e+001
7.880980e+002, 4.944270e+001
7.885801e+002, 4.950248e+001
7.890622e+002, 4.947308e+001
7.895443e+002, 4.938359e+001
7.900264e+002, 4.911519e+001
7.905085e+002, 4.894190e+001
7.909907e+002, 4.899274e+001
7.914728e+002, 4.911412e+001
7.919549e+002, 4.915837e+001
7.924370e+002, 4.912993e+001
7.929191e+002, 4.913634e+001
7.934012e+002, 4.925475e+001
7.938834e+002, 4.938945e+001
7.943655e+002, 4.944804e+001
7.948476e+002, 4.945221e+001
7.953297e+002, 4.944310e+001
7.958118e+002, 4.942819e+001
7.962939e+002, 4.940023e+001
7.967761e+002, 4.934819e+001
7.972582e+002, 4.930533e+001
7.977403e+002, 4.936873e+001
7.982224e+002, 4.958333e+001
7.987045e+002, 4.971111e+001
7.991866e+002, 4.970226e+001
7.996688e+002, 4.967751e+001
8.001509e+002, 4.967577e+001
8.006330e+002, 4.969722e+001
8.011151e+002, 4.974220e+001
8.015972e+002, 4.981050e+001
8.020793e+002, 4.990992e+001
8.025615e+002, 5.009031e+001
8.030436e+002, 5.025314e+001
8.035257e+002, 5.037138e+001
8.040078e+002, 5.041724e+001
8.044899e+002, 5.026501e+001
8.049720e+002, 4.995521e+001
8.054542e+002, 4.981911e+001
8.059363e+002, 5.019032e+001
8.064184e+002, 5.076938e+001
8.069005e+002, 5.075121e+001
8.073826e+002, 5.017828e+001
8.078647e+002, 5.011979e+001
8.083469e+002, 5.086148e+001
8.088290e+002, 5.162414e+001
8.093111e+002, 5.186583e+001
8.097932e+002, 5.172955e+001
8.102753e+002, 5.164906e+001
8.107574e+002, 5.165129e+001
8.112396e+002, 5.165505e+001
8.117217e+002, 5.160978e+001
8.122038e+002, 5.162220e+001
8.126859e+002, 5.177019e+001
8.131680e+002, 5.198811e+001
8.136501e+002, 5.219921e+001
8.141323e+002, 5.238624e+001
8.146144e+002, 5.253868e+001
8.150965e+002, 5.264682e+001
8.155786e+002, 5.272018e+001
8.160607e+002, 5.273650e+001
8.165428e+002, 5.272974e+001
8.170250e+002, 5.275232e+001
8.175071e+002, 5.282852e+001
8.179892e+002, 5.308976e+001
8.184713e+002, 5.369633e+001
8.189534e+002, 5.448409e+001
8.194355e+002, 5.479484e+001
8.199177e+002, 5.447227e+001
8.203998e+002, 5.441291e+001
8.208819e+002, 5.483551e+001
8.213640e+002, 5.532426e+001
8.218461e+002, 5.562926e+001
8.223282e+002, 5.583091e+001
8.228104e+002, 5.609594e+001
8.232925e+002, 5.645202e+001
8.237746e+002, 5.678032e+001
8.242567e+002, 5.705088e+001
8.247388e+002, 5.729812e+001
8.252209e+002, 5.752473e+001
8.257031e+002, 5.774993e+001
8.261852e+002, 5.803196e+001
8.266673e+002, 5.835985e+001
8.271494e+002, 5.859337e+001
8.276315e+002, 5.856639e+001
8.281136e+002, 5.844508e+001
8.285958e+002, 5.850046e+001
8.290779e+002, 5.871433e+001
8.295600e+002, 5.905235e+001
8.300421e+002, 5.951377e+001
8.305242e+002, 5.985955e+001
8.310063e+002, 5.990762e+001
8.314885e+002, 5.972203e+001
8.319706e+002, 5.947744e+001
8.324527e+002, 5.907452e+001
8.329348e+002, 5.887831e+001
8.334169e+002, 5.906362e+001
8.338990e+002, 5.923840e+001
8.343812e+002, 5.921195e+001
8.348633e+002, 5.910979e+001
8.353454e+002, 5.914342e+001
8.358275e+002, 5.933915e+001
8.363096e+002, 5.931714e+001
8.367917e+002, 5.873667e+001
8.372739e+002, 5.813451e+001
8.377560e+002, 5.780621e+001
8.382381e+002, 5.768385e+001
8.387202e+002, 5.773784e+001
8.392023e+002, 5.790120e+001
8.396844e+002, 5.794726e+001
8.401666e+002, 5.768747e+001
8.406487e+002, 5.735522e+001
8.411308e+002, 5.744688e+001
8.416129e+002, 5.787657e+001
8.420950e+002, 5.801044e+001
8.425771e+002, 5.776301e+001
8.430593e+002, 5.746697e+001
8.435414e+002, 5.729671e+001
8.440235e+002, 5.718961e+001
8.445056e+002, 5.700597e+001
8.449877e+002, 5.668102e+001
8.454698e+002, 5.661561e+001
8.459520e+002, 5.712814e+001
8.464341e+002, 5.748037e+001
8.469162e+002, 5.735819e+001
8.473983e+002, 5.712367e+001
8.478804e+002, 5.707149e+001
8.483625e+002, 5.720490e+001
8.488447e+002, 5.741208e+001
8.493268e+002, 5.774752e+001
8.498089e+002, 5.800821e+001
8.502910e+002, 5.799146e+001
8.507731e+002, 5.789861e+001
8.512552e+002, 5.800010e+001
8.517374e+002, 5.825151e+001
8.522195e+002, 5.840897e+001
8.527016e+002, 5.835997e+001
8.531837e+002, 5.828520e+001
8.536658e+002, 5.838602e+001
8.541479e+002, 5.865987e+001
8.546301e+002, 5.917300e+001
8.551122e+002, 5.993106e+001
8.555943e+002, 6.055163e+001
8.560764e+002, 6.091159e+001
8.565585e+002, 6.104327e+001
8.570406e+002, 6.092472e+001
8.575228e+002, 6.059259e+001
8.580049e+002, 6.048662e+001
8.584870e+002, 6.077493e+001
8.589691e+002, 6.100709e+001
8.594512e+002, 6.105037e+001
8.599333e+002, 6.112801e+001
8.604155e+002, 6.143568e+001
8.608976e+002, 6.183888e+001
8.613797e+002, 6.205458e+001
8.618618e+002, 6.199128e+001
8.623439e+002, 6.199749e+001
8.628260e+002, 6.230156e+001
8.633082e+002, 6.265162e+001
8.637903e+002, 6.284238e+001
8.642724e+002, 6.293845e+001
8.647545e+002, 6.304089e+001
8.652366e+002, 6.318807e+001
8.657188e+002, 6.342057e+001
8.662009e+002, 6.378864e+001
8.666830e+002, 6.422980e+001
8.671651e+002, 6.469738e+001
8.676472e+002, 6.515234e+001
8.681293e+002, 6.528369e+001
8.686115e+002, 6.503027e+001
8.690936e+002, 6.478348e+001
8.695757e+002, 6.477342e+001
8.700578e+002, 6.492356e+001
8.705399e+002, 6.508452e+001
8.710220e+002, 6.525752e+001
8.715042e+002, 6.543510e+001
8.719863e+002, 6.563426e+001
8.724684e+002, 6.580954e+001
8.729505e+002, 6.601403e+001
8.734326e+002, 6.613792e+001
8.739147e+002, 6.597706e+001
8.743969e+002, 6.560313e+001
8.748790e+002, 6.547874e+001
8.753611e+002, 6.578873e+001
8.758432e+002, 6.622368e+001
8.763253e+002, 6.695860e+001
8.768074e+002, 6.753931e+001
8.772896e+002, 6.739059e+001
8.777717e+002, 6.678776e+001
8.782538e+002, 6.644919e+001
8.787359e+002, 6.663380e+001
8.792180e+002, 6.687810e+001
8.797001e+002, 6.666906e+001
8.801823e+002, 6.627238e+001
8.806644e+002, 6.626059e+001
8.811465e+002, 6.652629e+001
8.816286e+002, 6.651570e+001
8.821107e+002, 6.609293e+001
8.825928e+002, 6.571259e+001
8.830750e+002, 6.580991e+001
8.835571e+002, 6.618623e+001
8.840392e+002, 6.609196e+001
8.845213e+002, 6.539046e+001
8.850034e+002, 6.506889e+001
8.854855e+002, 6.545490e+001
8.859677e+002, 6.564819e+001
8.864498e+002, 6.501997e+001
8.869319e+002, 6.405386e+001
8.874140e+002, 6.357618e+001
8.878961e+002, 6.365517e+001
8.883782e+002, 6.378078e+001
8.888604e+002, 6.415159e+001
8.893425e+002, 6.429635e+001
8.898246e+002, 6.383754e+001
8.903067e+002, 6.329927e+001
8.907888e+002, 6.323059e+001
8.912709e+002, 6.349926e+001
8.917531e+002, 6.351423e+001
8.922352e+002, 6.294880e+001
8.927173e+002, 6.248744e+001
8.931994e+002, 6.286417e+001
8.936815e+002, 6.340201e+001
8.941636e+002, 6.323505e+001
8.946458e+002, 6.254462e+001
8.951279e+002, 6.190719e+001
8.956100e+002, 6.151991e+001
8.960921e+002, 6.130146e+001
8.965742e+002, 6.116442e+001
8.970563e+002, 6.114355e+001
8.975385e+002, 6.140417e+001
8.980206e+002, 6.191652e+001
8.985027e+002, 6.225852e+001
8.989848e+002, 6.233915e+001
8.994669e+002, 6.244720e+001
8.999490e+002, 6.279459e+001
9.004312e+002, 6.324528e+001
9.009133e+002, 6.345562e+001
9.013954e+002, 6.330383e+001
9.018775e+002, 6.349630e+001
9.023596e+002, 6.432690e+001
9.028417e+002, 6.500096e+001
9.033239e+002, 6.506729e+001
9.038060e+002, 6.504348e+001
9.042881e+002, 6.545069e+001
9.047702e+002, 6.622465e+001
9.052523e+002, 6.693220e+001
9.057344e+002, 6.736182e+001
9.062166e+002, 6.795905e+001
9.066987e+002, 6.895910e+001
9.071808e+002, 7.004331e+001
9.076629e+002, 7.099706e+001
9.081450e+002, 7.186098e+001
9.086271e+002, 7.273412e+001
9.091093e+002, 7.364191e+001
9.095914e+002, 7.459946e+001
9.100735e+002, 7.582579e+001
9.105556e+002, 7.691734e+001
9.110377e+002, 7.707883e+001
9.115198e+002, 7.687084e+001
9.120020e+002, 7.751469e+001
9.124841e+002, 7.912430e+001
9.129662e+002, 8.103364e+001
9.134483e+002, 8.287023e+001
9.139304e+002, 8.445293e+001
9.144125e+002, 8.544797e+001
9.148947e+002, 8.590217e+001
9.153768e+002, 8.621404e+001
9.158589e+002, 8.640245e+001
9.163410e+002, 8.630082e+001
9.168231e+002, 8.577003e+001
9.173052e+002, 8.526240e+001
9.177874e+002, 8.535352e+001
9.182695e+002, 8.594186e+001
9.187516e+002, 8.603006e+001
9.192337e+002, 8.547258e+001
9.197158e+002, 8.475114e+001
9.201979e+002, 8.371848e+001
9.206801e+002, 8.277665e+001
9.211622e+002, 8.237613e+001
9.216443e+002, 8.211034e+001
9.221264e+002, 8.128127e+001
9.226085e+002, 7.978246e+001
9.230906e+002, 7.835572e+001
9.235728e+002, 7.703013e+001
9.240549e+002, 7.588155e+001
9.245370e+002, 7.523064e+001
9.250191e+002, 7.455643e+001
9.255012e+002, 7.327236e+001
9.259833e+002, 7.152148e+001
9.264655e+002, 6.984181e+001
9.269476e+002, 6.840498e+001
9.274297e+002, 6.720234e+001
9.279118e+002, 6.635983e+001
9.283939e+002, 6.564255e+001
9.288760e+002, 6.479158e+001
9.293582e+002, 6.384807e+001
9.298403e+002, 6.299454e+001
9.303224e+002, 6.224728e+001
9.308045e+002, 6.134707e+001
9.312866e+002, 6.001300e+001
9.317687e+002, 5.855455e+001
9.322509e+002, 5.758796e+001
9.327330e+002, 5.702530e+001
9.332151e+002, 5.647758e+001
9.336972e+002, 5.590266e+001
9.341793e+002, 5.539407e+001
9.346614e+002, 5.500926e+001
9.351436e+002, 5.464455e+001
9.356257e+002, 5.413947e+001
9.361078e+002, 5.350460e+001
9.365899e+002, 5.295550e+001
9.370720e+002, 5.251813e+001
9.375541e+002, 5.206038e+001
9.380363e+002, 5.150371e+001
9.385184e+002, 5.103420e+001
9.390005e+002, 5.081380e+001
9.394826e+002, 5.076980e+001
9.399647e+002, 5.070471e+001
9.404468e+002, 5.064418e+001
9.409290e+002, 5.049013e+001
9.414111e+002, 5.005482e+001
9.418932e+002, 4.976507e+001
9.423753e+002, 4.997762e+001
9.428574e+002, 5.020841e+001
9.433395e+002, 4.991295e+001
9.438217e+002, 4.919411e+001
9.443038e+002, 4.866457e+001
9.447859e+002, 4.851569e+001
9.452680e+002, 4.846467e+001
9.457501e+002, 4.859228e+001
9.462322e+002, 4.860646e+001
9.467144e+002, 4.806640e+001
9.471965e+002, 4.734837e+001
9.476786e+002, 4.712617e+001
9.481607e+002, 4.750420e+001
9.486428e+002, 4.795893e+001
9.491249e+002, 4.821560e+001
9.496071e+002, 4.832655e+001
9.500892e+002, 4.827221e+001
9.505713e+002, 4.814171e+001
9.510534e+002, 4.810035e+001
9.515355e+002, 4.813800e+001
9.520176e+002, 4.810651e+001
9.524998e+002, 4.794251e+001
9.529819e+002, 4.781788e+001
9.534640e+002, 4.799011e+001
9.539461e+002, 4.834194e+001
9.544282e+002, 4.850245e+001
9.549103e+002, 4.849552e+001
9.553925e+002, 4.849434e+001
9.558746e+002, 4.853518e+001
9.563567e+002, 4.863306e+001
9.568388e+002, 4.881129e+001
9.573209e+002, 4.900745e+001
9.578030e+002, 4.908522e+001
9.582852e+002, 4.903744e+001
9.587673e+002, 4.894098e+001
9.592494e+002, 4.877439e+001
9.597315e+002, 4.864947e+001
9.602136e+002, 4.861631e+001
9.606957e+002, 4.860554e+001
9.611779e+002, 4.856672e+001
9.616600e+002, 4.849232e+001
9.621421e+002, 4.833663e+001
9.626242e+002, 4.801493e+001
9.631063e+002, 4.777941e+001
9.635884e+002, 4.756445e+001
9.640706e+002, 4.752499e+001
9.645527e+002, 4.798146e+001
9.650348e+002, 4.846383e+001
9.655169e+002, 4.834888e+001
9.659990e+002, 4.767596e+001
9.664811e+002, 4.721891e+001
9.669633e+002, 4.715368e+001
9.674454e+002, 4.721574e+001
9.679275e+002, 4.748927e+001
9.684096e+002, 4.773030e+001
9.688917e+002, 4.766105e+001
9.693738e+002, 4.749309e+001
9.698560e+002, 4.768075e+001
9.703381e+002, 4.829042e+001
9.708202e+002, 4.866555e+001
9.713023e+002, 4.825063e+001
9.717844e+002, 4.777791e+001
9.722665e+002, 4.768558e+001
9.727487e+002, 4.783822e+001
9.732308e+002, 4.809676e+001
9.737129e+002, 4.844353e+001
9.741950e+002, 4.892250e+001
9.746771e+002, 4.954898e+001
9.751592e+002, 5.019218e+001
9.756414e+002, 5.076818e+001
9.761235e+002, 5.126334e+001
9.766056e+002, 5.155595e+001
9.770877e+002, 5.178069e+001
9.775698e+002, 5.230276e+001
9.780519e+002, 5.313603e+001
9.785341e+002, 5.397956e+001
9.790162e+002, 5.465607e+001
9.794983e+002, 5.522357e+001
9.799804e+002, 5.576134e+001
9.804625e+002, 5.626466e+001
9.809446e+002, 5.673011e+001
9.814268e+002, 5.715063e+001
9.819089e+002, 5.749026e+001
9.823910e+002, 5.774015e+001
9.828731e+002, 5.780750e+001
9.833552e+002, 5.760815e+001
9.838373e+002, 5.720081e+001
9.843195e+002, 5.667958e+001
9.848016e+002, 5.603177e+001
9.852837e+002, 5.563424e+001
9.857658e+002, 5.558236e+001
9.862479e+002, 5.529117e+001
9.867300e+002, 5.451361e+001
9.872122e+002, 5.355307e+001
9.876943e+002, 5.269548e+001
9.881764e+002, 5.191637e+001
9.886585e+002, 5.105556e+001
9.891406e+002, 4.996214e+001
9.896227e+002, 4.923013e+001
9.901049e+002, 4.901186e+001
9.905870e+002, 4.894360e+001
9.910691e+002, 4.915893e+001
9.915512e+002, 4.918019e+001
9.920333e+002, 4.822275e+001
9.925154e+002, 4.633658e+001
9.929976e+002, 4.507496e+001
9.934797e+002, 4.478021e+001
9.939618e+002, 4.458492e+001
9.944439e+002, 4.451645e+001
9.949260e+002, 4.445911e+001
9.954081e+002, 4.444188e+001
9.958903e+002, 4.435731e+001
9.963724e+002, 4.397649e+001
9.968545e+002, 4.329878e+001
9.973366e+002, 4.286321e+001
9.978187e+002, 4.302941e+001
9.983008e+002, 4.309486e+001
9.987830e+002, 4.286073e+001
9.992651e+002, 4.245793e+001
9.997472e+002, 4.181572e+001
1.000229e+003, 4.114058e+001
1.000711e+003, 4.079892e+001
1.001194e+003, 4.085456e+001
1.001676e+003, 4.090042e+001
1.002158e+003, 4.076272e+001
1.002640e+003, 4.056329e+001
1.003122e+003, 4.027632e+001
1.003604e+003, 4.003897e+001
1.004086e+003, 4.009198e+001
1.004568e+003, 4.029529e+001
1.005050e+003, 4.025688e+001
1.005533e+003, 3.986022e+001
1.006015e+003, 3.950404e+001
1.006497e+003, 3.951910e+001
1.006979e+003, 3.965026e+001
1.007461e+003, 3.971609e+001
1.007943e+003, 3.969593e+001
1.008425e+003, 3.948530e+001
1.008907e+003, 3.915778e+001
1.009390e+003, 3.897147e+001
1.009872e+003, 3.903483e+001
1.010354e+003, 3.920129e+001
1.010836e+003, 3.935994e+001
1.011318e+003, 3.950854e+001
1.011800e+003, 3.967711e+001
1.012282e+003, 3.982395e+001
1.012764e+003, 3.981363e+001
1.013246e+003, 3.965586e+001
1.013729e+003, 3.951888e+001
1.014211e+003, 3.949165e+001
1.014693e+003, 3.949776e+001
1.015175e+003, 3.940604e+001
1.015657e+003, 3.927671e+001
1.016139e+003, 3.929282e+001
1.016621e+003, 3.943688e+001
1.017103e+003, 3.965073e+001
1.017586e+003, 3.991204e+001
1.018068e+003, 4.010888e+001
1.018550e+003, 4.017028e+001
1.019032e+003, 4.014153e+001
1.019514e+003, 4.009169e+001
1.019996e+003, 4.001819e+001
1.020478e+003, 3.986799e+001
1.020960e+003, 3.964593e+001
1.021442e+003, 3.955949e+001
1.021925e+003, 3.965977e+001
1.022407e+003, 3.984581e+001
1.022889e+003, 4.006176e+001
1.023371e+003, 4.026712e+001
1.023853e+003, 4.038189e+001
1.024335e+003, 4.040517e+001
1.024817e+003, 4.034178e+001
1.025299e+003, 4.016019e+001
1.025781e+003, 4.016292e+001
1.026264e+003, 4.047382e+001
1.026746e+003, 4.077577e+001
1.027228e+003, 4.084364e+001
1.027710e+003, 4.071861e+001
1.028192e+003, 4.045689e+001
1.028674e+003, 4.001234e+001
1.029156e+003, 3.983683e+001
1.029638e+003, 4.002367e+001
1.030120e+003, 4.016130e+001
1.030603e+003, 4.011867e+001
1.031085e+003, 4.006667e+001
1.031567e+003, 4.015537e+001
1.032049e+003, 4.031645e+001
1.032531e+003, 4.035746e+001
1.033013e+003, 4.023006e+001
1.033495e+003, 4.020724e+001
1.033977e+003, 4.034345e+001
1.034460e+003, 4.046506e+001
1.034942e+003, 4.048584e+001
1.035424e+003, 4.054535e+001
1.035906e+003, 4.079738e+001
1.036388e+003, 4.115548e+001
1.036870e+003, 4.137465e+001
1.037352e+003, 4.143864e+001
1.037834e+003, 4.141397e+001
1.038317e+003, 4.117178e+001
1.038799e+003, 4.104176e+001
1.039281e+003, 4.122926e+001
1.039763e+003, 4.142268e+001
1.040245e+003, 4.129113e+001
1.040727e+003, 4.099348e+001
1.041209e+003, 4.102635e+001
1.041691e+003, 4.160204e+001
1.042173e+003, 4.183060e+001
1.042656e+003, 4.128977e+001
1.043138e+003, 4.095225e+001
1.043620e+003, 4.126028e+001
1.044102e+003, 4.166423e+001
1.044584e+003, 4.176282e+001
1.045066e+003, 4.163181e+001
1.045548e+003, 4.145258e+001
1.046030e+003, 4.117083e+001
1.046512e+003, 4.110872e+001
1.046995e+003, 4.152271e+001
1.047477e+003, 4.186633e+001
1.047959e+003, 4.202348e+001
1.048441e+003, 4.201014e+001
1.048923e+003, 4.167688e+001
1.049405e+003, 4.122118e+001
1.049887e+003, 4.114625e+001
1.050369e+003, 4.161658e+001
1.050852e+003, 4.190504e+001
1.051334e+003, 4.166454e+001
1.051816e+003, 4.149617e+001
1.052298e+003, 4.163635e+001
1.052780e+003, 4.190314e+001
1.053262e+003, 4.217196e+001
1.053744e+003, 4.244071e+001
1.054226e+003, 4.276204e+001
1.054708e+003, 4.316945e+001
1.055191e+003, 4.342475e+001
1.055673e+003, 4.327198e+001
1.056155e+003, 4.320616e+001
1.056637e+003, 4.347603e+001
1.057119e+003, 4.385902e+001
1.057601e+003, 4.425898e+001
1.058083e+003, 4.459745e+001
1.058565e+003, 4.474085e+001
1.059047e+003, 4.465677e+001
1.059530e+003, 4.451311e+001
1.060012e+003, 4.415820e+001
1.060494e+003, 4.402355e+001
1.060976e+003, 4.460335e+001
1.061458e+003, 4.519244e+001
1.061940e+003, 4.510896e+001
1.062422e+003, 4.462827e+001
1.062904e+003, 4.435551e+001
1.063387e+003, 4.440704e+001
1.063869e+003, 4.449254e+001
1.064351e+003, 4.460514e+001
1.064833e+003, 4.459779e+001
1.065315e+003, 4.433599e+001
1.065797e+003, 4.399139e+001
1.066279e+003, 4.366576e+001
1.066761e+003, 4.338145e+001
1.067244e+003, 4.313205e+001
1.067726e+003, 4.292454e+001
1.068208e+003, 4.286012e+001
1.068690e+003, 4.314985e+001
1.069172e+003, 4.336272e+001
1.069654e+003, 4.320384e+001
1.070136e+003, 4.298473e+001
1.070618e+003, 4.284005e+001
1.071100e+003, 4.286808e+001
1.071583e+003, 4.331123e+001
1.072065e+003, 4.412893e+001
1.072547e+003, 4.472520e+001
1.073029e+003, 4.473407e+001
1.073511e+003, 4.469454e+001
1.073993e+003, 4.472290e+001
1.074475e+003, 4.493758e+001
1.074957e+003, 4.556956e+001
1.075439e+003, 4.636998e+001
1.075922e+003, 4.697546e+001
1.076404e+003, 4.736127e+001
1.076886e+003, 4.775401e+001
1.077368e+003, 4.820791e+001
1.077850e+003, 4.875030e+001
1.078332e+003, 4.942263e+001
1.078814e+003, 5.016502e+001
1.079297e+003, 5.100603e+001
1.079779e+003, 5.184340e+001
1.080261e+003, 5.252649e+001
1.080743e+003, 5.307310e+001
1.081225e+003, 5.359420e+001
1.081707e+003, 5.407492e+001
1.082189e+003, 5.470956e+001
1.082671e+003, 5.574244e+001
1.083153e+003, 5.678006e+001
1.083635e+003, 5.749324e+001
1.084118e+003, 5.811814e+001
1.084600e+003, 5.894608e+001
1.085082e+003, 5.995258e+001
1.085564e+003, 6.096794e+001
1.086046e+003, 6.197687e+001
1.086528e+003, 6.281139e+001
1.087010e+003, 6.336008e+001
1.087492e+003, 6.376321e+001
1.087975e+003, 6.399139e+001
1.088457e+003, 6.420274e+001
1.088939e+003, 6.473536e+001
1.089421e+003, 6.534441e+001
1.089903e+003, 6.543711e+001
1.090385e+003, 6.486615e+001
1.090867e+003, 6.393764e+001
1.091349e+003, 6.254176e+001
1.091832e+003, 6.110712e+001
1.092314e+003, 5.998448e+001
1.092796e+003, 5.877070e+001
1.093278e+003, 5.702586e+001
1.093760e+003, 5.497194e+001
1.094242e+003, 5.303197e+001
1.094724e+003, 5.128381e+001
1.095206e+003, 4.965532e+001
1.095688e+003, 4.816315e+001
1.096171e+003, 4.674237e+001
1.096653e+003, 4.531314e+001
1.097135e+003, 4.400883e+001
1.097617e+003, 4.290569e+001
1.098099e+003, 4.199085e+001
1.098581e+003, 4.125733e+001
1.099063e+003, 4.068781e+001
1.099545e+003, 4.016314e+001
1.100027e+003, 3.968084e+001
1.100510e+003, 3.918737e+001
1.100992e+003, 3.860308e+001
1.101474e+003, 3.807613e+001
1.101956e+003, 3.774854e+001
1.102438e+003, 3.747804e+001
1.102920e+003, 3.706156e+001
1.103402e+003, 3.653744e+001
1.103884e+003, 3.614742e+001
1.104367e+003, 3.594226e+001
1.104849e+003, 3.584029e+001
1.105331e+003, 3.593324e+001
1.105813e+003, 3.599462e+001
1.106295e+003, 3.598923e+001
1.106777e+003, 3.587040e+001
1.107259e+003, 3.553918e+001
1.107741e+003, 3.506984e+001
1.108224e+003, 3.464069e+001
1.108706e+003, 3.420977e+001
1.109188e+003, 3.405537e+001
1.109670e+003, 3.448255e+001
1.110152e+003, 3.480009e+001
1.110634e+003, 3.481252e+001
1.111116e+003, 3.470461e+001
1.111598e+003, 3.456521e+001
1.112080e+003, 3.440381e+001
1.112563e+003, 3.421751e+001
1.113045e+003, 3.399410e+001
1.113527e+003, 3.386506e+001
1.114009e+003, 3.390297e+001
1.114491e+003, 3.391599e+001
1.114973e+003, 3.384980e+001
1.115455e+003, 3.380554e+001
1.115937e+003, 3.385881e+001
1.116419e+003, 3.393494e+001
1.116902e+003, 3.391854e+001
1.117384e+003, 3.382410e+001
1.117866e+003, 3.383413e+001
1.118348e+003, 3.404730e+001
1.118830e+003, 3.412291e+001
1.119312e+003, 3.393311e+001
1.119794e+003, 3.385094e+001
1.120276e+003, 3.409999e+001
1.120759e+003, 3.435779e+001
1.121241e+003, 3.431268e+001
1.121723e+003, 3.403644e+001
1.122205e+003, 3.377407e+001
1.122687e+003, 3.350787e+001
1.123169e+003, 3.332649e+001
1.123651e+003, 3.321574e+001
1.124133e+003, 3.326311e+001
1.124615e+003, 3.356625e+001
1.125098e+003, 3.380163e+001
1.125580e+003, 3.372882e+001
1.126062e+003, 3.347540e+001
1.126544e+003, 3.325742e+001
1.127026e+003, 3.307949e+001
1.127508e+003, 3.319728e+001
1.127990e+003, 3.367783e+001
1.128472e+003, 3.385277e+001
1.128954e+003, 3.358853e+001
1.129437e+003, 3.324518e+001
1.129919e+003, 3.298771e+001
1.130401e+003, 3.277905e+001
1.130883e+003, 3.254990e+001
1.131365e+003, 3.235309e+001
1.131847e+003, 3.246667e+001
1.132329e+003, 3.286541e+001
1.132811e+003, 3.302960e+001
1.133294e+003, 3.292607e+001
1.133776e+003, 3.280544e+001
1.134258e+003, 3.275108e+001
1.134740e+003, 3.272215e+001
1.135222e+003, 3.267825e+001
1.135704e+003, 3.266505e+001
1.136186e+003, 3.282356e+001
1.136668e+003, 3.308660e+001
1.137151e+003, 3.317770e+001
1.137633e+003, 3.311495e+001
1.138115e+003, 3.298984e+001
1.138597e+003, 3.284021e+001
1.139079e+003, 3.277859e+001
1.139561e+003, 3.287063e+001
1.140043e+003, 3.297372e+001
1.140525e+003, 3.289023e+001
1.141007e+003, 3.272012e+001
1.141490e+003, 3.262741e+001
1.141972e+003, 3.260876e+001
1.142454e+003, 3.272807e+001
1.142936e+003, 3.291503e+001
1.143418e+003, 3.289938e+001
1.143900e+003, 3.260969e+001
1.144382e+003, 3.230213e+001
1.144864e+003, 3.213483e+001
1.145346e+003, 3.210705e+001
1.145829e+003, 3.233518e+001
1.146311e+003, 3.261000e+001
1.146793e+003, 3.266298e+001
1.147275e+003, 3.255198e+001
1.147757e+003, 3.239223e+001
1.148239e+003, 3.222762e+001
1.148721e+003, 3.210809e+001
1.149203e+003, 3.205917e+001
1.149686e+003, 3.204452e+001
1.150168e+003, 3.206129e+001
1.150650e+003, 3.208181e+001
1.151132e+003, 3.209011e+001
1.151614e+003, 3.208785e+001
1.152096e+003, 3.206498e+001
1.152578e+003, 3.203714e+001
1.153060e+003, 3.203932e+001
1.153542e+003, 3.207967e+001
1.154025e+003, 3.213581e+001
1.154507e+003, 3.220259e+001
1.154989e+003, 3.227987e+001
1.155471e+003, 3.231471e+001
1.155953e+003, 3.241594e+001
1.156435e+003, 3.279739e+001
1.156917e+003, 3.320242e+001
1.157399e+003, 3.324810e+001
1.157881e+003, 3.294801e+001
1.158364e+003, 3.265667e+001
1.158846e+003, 3.231857e+001
1.159328e+003, 3.216175e+001
1.159810e+003, 3.232320e+001
1.160292e+003, 3.250764e+001
1.160774e+003, 3.274315e+001
1.161256e+003, 3.284401e+001
1.161738e+003, 3.255366e+001
1.162221e+003, 3.207588e+001
1.162703e+003, 3.192071e+001
1.163185e+003, 3.213979e+001
1.163667e+003, 3.225728e+001
1.164149e+003, 3.225264e+001
1.164631e+003, 3.219352e+001
1.165113e+003, 3.205197e+001
1.165595e+003, 3.197428e+001
1.166078e+003, 3.205808e+001
1.166560e+003, 3.217533e+001
1.167042e+003, 3.215605e+001
1.167524e+003, 3.204219e+001
1.168006e+003, 3.202698e+001
1.168488e+003, 3.211172e+001
1.168970e+003, 3.229359e+001
1.169452e+003, 3.257969e+001
1.169934e+003, 3.273347e+001
1.170417e+003, 3.268745e+001
1.170899e+003, 3.246240e+001
1.171381e+003, 3.205072e+001
1.171863e+003, 3.161686e+001
1.172345e+003, 3.145315e+001
1.172827e+003, 3.149401e+001
1.173309e+003, 3.151554e+001
1.173791e+003, 3.153365e+001
1.174273e+003, 3.159717e+001
1.174756e+003, 3.172037e+001
1.175238e+003, 3.200374e+001
1.175720e+003, 3.246122e+001
1.176202e+003, 3.268972e+001
1.176684e+003, 3.219640e+001
1.177166e+003, 3.159010e+001
1.177648e+003, 3.170008e+001
1.178130e+003, 3.213892e+001
1.178613e+003, 3.245326e+001
1.179095e+003, 3.258782e+001
1.179577e+003, 3.243340e+001
1.180059e+003, 3.207022e+001
1.180541e+003, 3.187419e+001
1.181023e+003, 3.203233e+001
1.181505e+003, 3.221424e+001
1.181987e+003, 3.220336e+001
1.182469e+003, 3.216824e+001
1.182952e+003, 3.223477e+001
1.183434e+003, 3.231973e+001
1.183916e+003, 3.237405e+001
1.184398e+003, 3.236719e+001
1.184880e+003, 3.219350e+001
1.185362e+003, 3.185296e+001
1.185844e+003, 3.172185e+001
1.186326e+003, 3.212207e+001
1.186808e+003, 3.237363e+001
1.187291e+003, 3.222232e+001
1.187773e+003, 3.206902e+001
1.188255e+003, 3.211923e+001
1.188737e+003, 3.222027e+001
1.189219e+003, 3.220606e+001
1.189701e+003, 3.212830e+001
1.190183e+003, 3.216641e+001
1.190665e+003, 3.237956e+001
1.191148e+003, 3.237976e+001
1.191630e+003, 3.203814e+001
1.192112e+003, 3.185906e+001
1.192594e+003, 3.198492e+001
1.193076e+003, 3.211226e+001
1.193558e+003, 3.209016e+001
1.194040e+003, 3.196740e+001
1.194522e+003, 3.177566e+001
1.195005e+003, 3.156957e+001
1.195487e+003, 3.163817e+001
1.195969e+003, 3.196358e+001
1.196451e+003, 3.203298e+001
1.196933e+003, 3.183218e+001
1.197415e+003, 3.163291e+001
1.197897e+003, 3.151133e+001
1.198379e+003, 3.152778e+001
1.198861e+003, 3.172916e+001
1.199344e+003, 3.198179e+001
1.199826e+003, 3.211132e+001
1.200308e+003, 3.216063e+001
1.200790e+003, 3.221658e+001
1.201272e+003, 3.226420e+001
1.201754e+003, 3.230883e+001
1.202236e+003, 3.230928e+001
1.202718e+003, 3.208578e+001
1.203200e+003, 3.163775e+001
1.203683e+003, 3.135083e+001
1.204165e+003, 3.151085e+001
1.204647e+003, 3.174244e+001
1.205129e+003, 3.176469e+001
1.205611e+003, 3.173764e+001
1.206093e+003, 3.182599e+001
1.206575e+003, 3.192355e+001
1.207057e+003, 3.183284e+001
1.207540e+003, 3.164135e+001
1.208022e+003, 3.166501e+001
1.208504e+003, 3.199844e+001
1.208986e+003, 3.211961e+001
1.209468e+003, 3.161209e+001
1.209950e+003, 3.131815e+001
1.210432e+003, 3.162131e+001
1.210914e+003, 3.194420e+001
1.211396e+003, 3.197845e+001
1.211879e+003, 3.190229e+001
1.212361e+003, 3.188568e+001
1.212843e+003, 3.191743e+001
1.213325e+003, 3.195993e+001
1.213807e+003, 3.203062e+001
1.214289e+003, 3.201225e+001
1.214771e+003, 3.186136e+001
1.215253e+003, 3.181610e+001
1.215735e+003, 3.195566e+001
1.216218e+003, 3.203610e+001
1.216700e+003, 3.191253e+001
1.217182e+003, 3.174366e+001
1.217664e+003, 3.174823e+001
1.218146e+003, 3.182972e+001
1.218628e+003, 3.160271e+001
1.219110e+003, 3.116761e+001
1.219592e+003, 3.109306e+001
1.220075e+003, 3.133154e+001
1.220557e+003, 3.144666e+001
1.221039e+003, 3.136036e+001
1.221521e+003, 3.134644e+001
1.222003e+003, 3.156325e+001
1.222485e+003, 3.173031e+001
1.222967e+003, 3.142048e+001
1.223449e+003, 3.105477e+001
1.223932e+003, 3.123968e+001
1.224414e+003, 3.157102e+001
1.224896e+003, 3.143549e+001
1.225378e+003, 3.105062e+001
1.225860e+003, 3.094856e+001
1.226342e+003, 3.118701e+001
1.226824e+003, 3.145574e+001
1.227306e+003, 3.171620e+001
1.227788e+003, 3.180293e+001
1.228271e+003, 3.145893e+001
1.228753e+003, 3.119397e+001
1.229235e+003, 3.130002e+001
1.229717e+003, 3.149798e+001
1.230199e+003, 3.155412e+001
1.230681e+003, 3.155403e+001
1.231163e+003, 3.169838e+001
1.231645e+003, 3.197999e+001
1.232127e+003, 3.206639e+001
1.232610e+003, 3.190018e+001
1.233092e+003, 3.168284e+001
1.233574e+003, 3.134147e+001
1.234056e+003, 3.128580e+001
1.234538e+003, 3.171595e+001
1.235020e+003, 3.209996e+001
1.235502e+003, 3.203470e+001
1.235984e+003, 3.173298e+001
1.236467e+003, 3.150953e+001
1.236949e+003, 3.139199e+001
1.237431e+003, 3.157802e+001
1.237913e+003, 3.198156e+001
1.238395e+003, 3.227035e+001
1.238877e+003, 3.238496e+001
1.239359e+003, 3.217578e+001
1.239841e+003, 3.166152e+001
1.240323e+003, 3.130466e+001
1.240806e+003, 3.144332e+001
1.241288e+003, 3.162520e+001
1.241770e+003, 3.129243e+001
1.242252e+003, 3.092467e+001
1.242734e+003, 3.106284e+001
1.243216e+003, 3.139315e+001
1.243698e+003, 3.159385e+001
1.244180e+003, 3.162241e+001
1.244662e+003, 3.138809e+001
1.245145e+003, 3.092083e+001
1.245627e+003, 3.075957e+001
1.246109e+003, 3.128874e+001
1.246591e+003, 3.168175e+001
1.247073e+003, 3.172876e+001
1.247555e+003, 3.171238e+001
1.248037e+003, 3.169255e+001
1.248519e+003, 3.168455e+001
1.249002e+003, 3.171584e+001
1.249484e+003, 3.174930e+001
1.249966e+003, 3.171323e+001
1.250448e+003, 3.161176e+001
1.250930e+003, 3.150122e+001
1.251412e+003, 3.137185e+001
1.251894e+003, 3.135606e+001
1.252376e+003, 3.146810e+001
1.252859e+003, 3.157522e+001
1.253341e+003, 3.163659e+001
1.253823e+003, 3.163218e+001
1.254305e+003, 3.153973e+001
1.254787e+003, 3.146128e+001
1.255269e+003, 3.160286e+001
1.255751e+003, 3.180513e+001
1.256233e+003, 3.172872e+001
1.256715e+003, 3.151737e+001
1.257198e+003, 3.141166e+001
1.257680e+003, 3.141874e+001
1.258162e+003, 3.150120e+001
1.258644e+003, 3.163388e+001
1.259126e+003, 3.175535e+001
1.259608e+003, 3.184188e+001
1.260090e+003, 3.190492e+001
1.260572e+003, 3.197673e+001
1.261054e+003, 3.199125e+001
1.261537e+003, 3.188019e+001
1.262019e+003, 3.173723e+001
1.262501e+003, 3.160929e+001
1.262983e+003, 3.151044e+001
1.263465e+003, 3.144107e+001
1.263947e+003, 3.140981e+001
1.264429e+003, 3.150217e+001
1.264911e+003, 3.179887e+001
1.265394e+003, 3.192862e+001
1.265876e+003, 3.185184e+001
1.266358e+003, 3.177510e+001
1.266840e+003, 3.174221e+001
1.267322e+003, 3.172726e+001
1.267804e+003, 3.171531e+001
1.268286e+003, 3.172161e+001
1.268768e+003, 3.177285e+001
1.269250e+003, 3.183867e+001
1.269733e+003, 3.187919e+001
1.270215e+003, 3.186731e+001
1.270697e+003, 3.162722e+001
1.271179e+003, 3.130564e+001
1.271661e+003, 3.137746e+001
1.272143e+003, 3.178737e+001
1.272625e+003, 3.198053e+001
1.273107e+003, 3.174958e+001
1.273589e+003, 3.153802e+001
1.274072e+003, 3.163133e+001
1.274554e+003, 3.178144e+001
1.275036e+003, 3.193347e+001
1.275518e+003, 3.202347e+001
1.276000e+003, 3.195092e+001
1.276482e+003, 3.183868e+001
1.276964e+003, 3.181675e+001
1.277446e+003, 3.187842e+001
1.277929e+003, 3.197782e+001
1.278411e+003, 3.212600e+001
1.278893e+003, 3.219352e+001
1.279375e+003, 3.215680e+001
1.279857e+003, 3.211329e+001
1.280339e+003, 3.205070e+001
1.280821e+003, 3.194073e+001
1.281303e+003, 3.167074e+001
1.281786e+003, 3.228583e+001
1.282268e+003, 3.456948e+001
##END=



