##NAMES=Sazhinite-(La)
##RRUFFID=R120053
##IDEAL CHEMISTRY=Na_3_LaSi_6_O_15_&#183;2H_2_O
##LOCALITY=Aris quarry, near Windhoek, Namibia
##OWNER=RRUFF
##SOURCE=William W. Pinch
##DESCRIPTION=Thin platy white crystals, associated with reddish brown accicular tuperssuatsiate and colorless granular natrolite. Note that the b-cell edge is half of that reported.
##STATUS=The identification of this mineral has been confirmed only by single crystal X-ray diffraction.
##URL=rruff.info/R120053
8.758203e+001, 3.362396e+002
8.806415e+001, 3.359994e+002
8.854626e+001, 3.359774e+002
8.902838e+001, 3.364518e+002
8.951050e+001, 3.368348e+002
8.999261e+001, 3.367558e+002
9.047473e+001, 3.362751e+002
9.095685e+001, 3.358372e+002
9.143896e+001, 3.358808e+002
9.192108e+001, 3.364218e+002
9.240320e+001, 3.368728e+002
9.288531e+001, 3.331696e+002
9.336743e+001, 3.235620e+002
9.384955e+001, 3.100972e+002
9.433167e+001, 2.976945e+002
9.481378e+001, 2.855805e+002
9.529590e+001, 2.751852e+002
9.577802e+001, 2.662725e+002
9.626013e+001, 2.583828e+002
9.674225e+001, 2.511508e+002
9.722437e+001, 2.444604e+002
9.770648e+001, 2.385535e+002
9.818860e+001, 2.336277e+002
9.867072e+001, 2.291572e+002
9.915283e+001, 2.248897e+002
9.963495e+001, 2.207549e+002
1.001171e+002, 2.167975e+002
1.005992e+002, 2.130566e+002
1.010813e+002, 2.092572e+002
1.015634e+002, 2.061705e+002
1.020455e+002, 2.039674e+002
1.025277e+002, 2.020918e+002
1.030098e+002, 2.000984e+002
1.034919e+002, 1.977968e+002
1.039740e+002, 1.953111e+002
1.044561e+002, 1.930863e+002
1.049382e+002, 1.915130e+002
1.054204e+002, 1.897140e+002
1.059025e+002, 1.874960e+002
1.063846e+002, 1.849789e+002
1.068667e+002, 1.823465e+002
1.073488e+002, 1.796525e+002
1.078309e+002, 1.769546e+002
1.083131e+002, 1.746670e+002
1.087952e+002, 1.729891e+002
1.092773e+002, 1.714576e+002
1.097594e+002, 1.697433e+002
1.102415e+002, 1.678517e+002
1.107236e+002, 1.661780e+002
1.112058e+002, 1.651647e+002
1.116879e+002, 1.646396e+002
1.121700e+002, 1.640520e+002
1.126521e+002, 1.634232e+002
1.131342e+002, 1.626453e+002
1.136163e+002, 1.614503e+002
1.140985e+002, 1.596145e+002
1.145806e+002, 1.578174e+002
1.150627e+002, 1.565435e+002
1.155448e+002, 1.556534e+002
1.160269e+002, 1.548147e+002
1.165090e+002, 1.537198e+002
1.169912e+002, 1.523818e+002
1.174733e+002, 1.514071e+002
1.179554e+002, 1.511033e+002
1.184375e+002, 1.509556e+002
1.189196e+002, 1.509147e+002
1.194017e+002, 1.508951e+002
1.198839e+002, 1.507007e+002
1.203660e+002, 1.500030e+002
1.208481e+002, 1.483766e+002
1.213302e+002, 1.473232e+002
1.218123e+002, 1.473169e+002
1.222944e+002, 1.474289e+002
1.227766e+002, 1.470089e+002
1.232587e+002, 1.458946e+002
1.237408e+002, 1.444208e+002
1.242229e+002, 1.432265e+002
1.247050e+002, 1.425261e+002
1.251871e+002, 1.418495e+002
1.256693e+002, 1.410644e+002
1.261514e+002, 1.403307e+002
1.266335e+002, 1.399254e+002
1.271156e+002, 1.400143e+002
1.275977e+002, 1.403698e+002
1.280798e+002, 1.402877e+002
1.285620e+002, 1.396255e+002
1.290441e+002, 1.388892e+002
1.295262e+002, 1.382068e+002
1.300083e+002, 1.375919e+002
1.304904e+002, 1.371341e+002
1.309725e+002, 1.369940e+002
1.314547e+002, 1.369844e+002
1.319368e+002, 1.367141e+002
1.324189e+002, 1.360481e+002
1.329010e+002, 1.352595e+002
1.333831e+002, 1.345570e+002
1.338652e+002, 1.339187e+002
1.343474e+002, 1.334946e+002
1.348295e+002, 1.335405e+002
1.353116e+002, 1.337928e+002
1.357937e+002, 1.339685e+002
1.362758e+002, 1.339094e+002
1.367579e+002, 1.337419e+002
1.372401e+002, 1.338460e+002
1.377222e+002, 1.345443e+002
1.382043e+002, 1.350016e+002
1.386864e+002, 1.348092e+002
1.391685e+002, 1.342532e+002
1.396507e+002, 1.337719e+002
1.401328e+002, 1.336985e+002
1.406149e+002, 1.340109e+002
1.410970e+002, 1.340345e+002
1.415791e+002, 1.331218e+002
1.420612e+002, 1.325199e+002
1.425434e+002, 1.327854e+002
1.430255e+002, 1.336989e+002
1.435076e+002, 1.346519e+002
1.439897e+002, 1.350822e+002
1.444718e+002, 1.348841e+002
1.449539e+002, 1.347168e+002
1.454361e+002, 1.345022e+002
1.459182e+002, 1.343688e+002
1.464003e+002, 1.344230e+002
1.468824e+002, 1.346599e+002
1.473645e+002, 1.349579e+002
1.478466e+002, 1.351687e+002
1.483288e+002, 1.352401e+002
1.488109e+002, 1.354419e+002
1.492930e+002, 1.359496e+002
1.497751e+002, 1.365136e+002
1.502572e+002, 1.368922e+002
1.507393e+002, 1.370362e+002
1.512215e+002, 1.369745e+002
1.517036e+002, 1.365176e+002
1.521857e+002, 1.356442e+002
1.526678e+002, 1.352375e+002
1.531499e+002, 1.359771e+002
1.536320e+002, 1.374086e+002
1.541142e+002, 1.383726e+002
1.545963e+002, 1.384234e+002
1.550784e+002, 1.381485e+002
1.555605e+002, 1.383034e+002
1.560426e+002, 1.388887e+002
1.565247e+002, 1.392653e+002
1.570069e+002, 1.386736e+002
1.574890e+002, 1.371438e+002
1.579711e+002, 1.362821e+002
1.584532e+002, 1.369931e+002
1.589353e+002, 1.381137e+002
1.594174e+002, 1.389628e+002
1.598996e+002, 1.394454e+002
1.603817e+002, 1.397271e+002
1.608638e+002, 1.400333e+002
1.613459e+002, 1.404455e+002
1.618280e+002, 1.405885e+002
1.623102e+002, 1.401232e+002
1.627923e+002, 1.395716e+002
1.632744e+002, 1.393197e+002
1.637565e+002, 1.394683e+002
1.642386e+002, 1.397845e+002
1.647207e+002, 1.398212e+002
1.652029e+002, 1.393559e+002
1.656850e+002, 1.389499e+002
1.661671e+002, 1.386801e+002
1.666492e+002, 1.384649e+002
1.671313e+002, 1.381828e+002
1.676134e+002, 1.377862e+002
1.680956e+002, 1.373817e+002
1.685777e+002, 1.372835e+002
1.690598e+002, 1.378503e+002
1.695419e+002, 1.383312e+002
1.700240e+002, 1.387715e+002
1.705061e+002, 1.390762e+002
1.709883e+002, 1.390478e+002
1.714704e+002, 1.385469e+002
1.719525e+002, 1.377438e+002
1.724346e+002, 1.373856e+002
1.729167e+002, 1.379456e+002
1.733988e+002, 1.383229e+002
1.738810e+002, 1.380415e+002
1.743631e+002, 1.373024e+002
1.748452e+002, 1.366071e+002
1.753273e+002, 1.361926e+002
1.758094e+002, 1.360650e+002
1.762915e+002, 1.361648e+002
1.767737e+002, 1.368324e+002
1.772558e+002, 1.373403e+002
1.777379e+002, 1.370307e+002
1.782200e+002, 1.359886e+002
1.787021e+002, 1.351843e+002
1.791842e+002, 1.353900e+002
1.796664e+002, 1.361170e+002
1.801485e+002, 1.363775e+002
1.806306e+002, 1.358114e+002
1.811127e+002, 1.350224e+002
1.815948e+002, 1.346572e+002
1.820769e+002, 1.347647e+002
1.825591e+002, 1.350158e+002
1.830412e+002, 1.353067e+002
1.835233e+002, 1.356265e+002
1.840054e+002, 1.359966e+002
1.844875e+002, 1.364886e+002
1.849696e+002, 1.369538e+002
1.854518e+002, 1.370547e+002
1.859339e+002, 1.365768e+002
1.864160e+002, 1.362179e+002
1.868981e+002, 1.362358e+002
1.873802e+002, 1.364950e+002
1.878623e+002, 1.369044e+002
1.883445e+002, 1.374866e+002
1.888266e+002, 1.381078e+002
1.893087e+002, 1.382505e+002
1.897908e+002, 1.373354e+002
1.902729e+002, 1.367649e+002
1.907550e+002, 1.369621e+002
1.912372e+002, 1.376545e+002
1.917193e+002, 1.385165e+002
1.922014e+002, 1.393835e+002
1.926835e+002, 1.402302e+002
1.931656e+002, 1.408665e+002
1.936477e+002, 1.409824e+002
1.941299e+002, 1.411868e+002
1.946120e+002, 1.416939e+002
1.950941e+002, 1.423501e+002
1.955762e+002, 1.428651e+002
1.960583e+002, 1.430202e+002
1.965404e+002, 1.428511e+002
1.970226e+002, 1.430117e+002
1.975047e+002, 1.436902e+002
1.979868e+002, 1.444683e+002
1.984689e+002, 1.452736e+002
1.989510e+002, 1.460916e+002
1.994331e+002, 1.469249e+002
1.999153e+002, 1.477917e+002
2.003974e+002, 1.486852e+002
2.008795e+002, 1.494140e+002
2.013616e+002, 1.499604e+002
2.018437e+002, 1.504004e+002
2.023258e+002, 1.506691e+002
2.028080e+002, 1.508298e+002
2.032901e+002, 1.510957e+002
2.037722e+002, 1.516417e+002
2.042543e+002, 1.524541e+002
2.047364e+002, 1.532143e+002
2.052185e+002, 1.539519e+002
2.057007e+002, 1.546200e+002
2.061828e+002, 1.551271e+002
2.066649e+002, 1.554931e+002
2.071470e+002, 1.558992e+002
2.076291e+002, 1.564840e+002
2.081112e+002, 1.572246e+002
2.085934e+002, 1.579549e+002
2.090755e+002, 1.587064e+002
2.095576e+002, 1.594211e+002
2.100397e+002, 1.600423e+002
2.105218e+002, 1.605702e+002
2.110039e+002, 1.610391e+002
2.114861e+002, 1.614498e+002
2.119682e+002, 1.618183e+002
2.124503e+002, 1.621943e+002
2.129324e+002, 1.627467e+002
2.134145e+002, 1.631965e+002
2.138967e+002, 1.630184e+002
2.143788e+002, 1.620223e+002
2.148609e+002, 1.612935e+002
2.153430e+002, 1.618267e+002
2.158251e+002, 1.629299e+002
2.163072e+002, 1.637916e+002
2.167894e+002, 1.641472e+002
2.172715e+002, 1.641520e+002
2.177536e+002, 1.640300e+002
2.182357e+002, 1.637199e+002
2.187178e+002, 1.634521e+002
2.191999e+002, 1.635104e+002
2.196821e+002, 1.636080e+002
2.201642e+002, 1.633679e+002
2.206463e+002, 1.625499e+002
2.211284e+002, 1.614305e+002
2.216105e+002, 1.606418e+002
2.220926e+002, 1.603574e+002
2.225748e+002, 1.600735e+002
2.230569e+002, 1.595373e+002
2.235390e+002, 1.589533e+002
2.240211e+002, 1.585851e+002
2.245032e+002, 1.585914e+002
2.249853e+002, 1.587941e+002
2.254675e+002, 1.586772e+002
2.259496e+002, 1.580320e+002
2.264317e+002, 1.573812e+002
2.269138e+002, 1.567729e+002
2.273959e+002, 1.562432e+002
2.278780e+002, 1.559075e+002
2.283602e+002, 1.558456e+002
2.288423e+002, 1.558657e+002
2.293244e+002, 1.552929e+002
2.298065e+002, 1.532142e+002
2.302886e+002, 1.518113e+002
2.307707e+002, 1.516863e+002
2.312529e+002, 1.522109e+002
2.317350e+002, 1.527514e+002
2.322171e+002, 1.530093e+002
2.326992e+002, 1.529799e+002
2.331813e+002, 1.526414e+002
2.336634e+002, 1.514480e+002
2.341456e+002, 1.505880e+002
2.346277e+002, 1.503379e+002
2.351098e+002, 1.503934e+002
2.355919e+002, 1.504521e+002
2.360740e+002, 1.503781e+002
2.365561e+002, 1.501554e+002
2.370383e+002, 1.497313e+002
2.375204e+002, 1.486292e+002
2.380025e+002, 1.478940e+002
2.384846e+002, 1.478049e+002
2.389667e+002, 1.480447e+002
2.394488e+002, 1.482415e+002
2.399310e+002, 1.482405e+002
2.404131e+002, 1.481188e+002
2.408952e+002, 1.480694e+002
2.413773e+002, 1.481539e+002
2.418594e+002, 1.482280e+002
2.423415e+002, 1.481588e+002
2.428237e+002, 1.481090e+002
2.433058e+002, 1.483925e+002
2.437879e+002, 1.491567e+002
2.442700e+002, 1.500418e+002
2.447521e+002, 1.502049e+002
2.452342e+002, 1.490726e+002
2.457164e+002, 1.484075e+002
2.461985e+002, 1.487637e+002
2.466806e+002, 1.496475e+002
2.471627e+002, 1.503614e+002
2.476448e+002, 1.506620e+002
2.481269e+002, 1.508452e+002
2.486091e+002, 1.515119e+002
2.490912e+002, 1.528564e+002
2.495733e+002, 1.539292e+002
2.500554e+002, 1.543094e+002
2.505375e+002, 1.543774e+002
2.510196e+002, 1.547224e+002
2.515018e+002, 1.555263e+002
2.519839e+002, 1.565090e+002
2.524660e+002, 1.572367e+002
2.529481e+002, 1.576928e+002
2.534302e+002, 1.582630e+002
2.539123e+002, 1.590435e+002
2.543945e+002, 1.599965e+002
2.548766e+002, 1.611637e+002
2.553587e+002, 1.626350e+002
2.558408e+002, 1.640248e+002
2.563229e+002, 1.646019e+002
2.568051e+002, 1.644901e+002
2.572872e+002, 1.648353e+002
2.577693e+002, 1.662962e+002
2.582514e+002, 1.683202e+002
2.587335e+002, 1.699509e+002
2.592156e+002, 1.709444e+002
2.596978e+002, 1.719388e+002
2.601799e+002, 1.737610e+002
2.606620e+002, 1.761620e+002
2.611441e+002, 1.782793e+002
2.616262e+002, 1.797257e+002
2.621083e+002, 1.807683e+002
2.625905e+002, 1.818767e+002
2.630726e+002, 1.831273e+002
2.635547e+002, 1.842407e+002
2.640368e+002, 1.846821e+002
2.645189e+002, 1.848054e+002
2.650010e+002, 1.853640e+002
2.654832e+002, 1.870130e+002
2.659653e+002, 1.890766e+002
2.664474e+002, 1.904002e+002
2.669295e+002, 1.907893e+002
2.674116e+002, 1.911503e+002
2.678937e+002, 1.921871e+002
2.683759e+002, 1.935277e+002
2.688580e+002, 1.946649e+002
2.693401e+002, 1.953638e+002
2.698222e+002, 1.958570e+002
2.703043e+002, 1.964678e+002
2.707864e+002, 1.972083e+002
2.712686e+002, 1.980135e+002
2.717507e+002, 1.989086e+002
2.722328e+002, 1.998385e+002
2.727149e+002, 2.007346e+002
2.731970e+002, 2.015600e+002
2.736791e+002, 2.023918e+002
2.741613e+002, 2.033633e+002
2.746434e+002, 2.045265e+002
2.751255e+002, 2.055971e+002
2.756076e+002, 2.063006e+002
2.760897e+002, 2.069504e+002
2.765718e+002, 2.077897e+002
2.770540e+002, 2.088762e+002
2.775361e+002, 2.101462e+002
2.780182e+002, 2.115416e+002
2.785003e+002, 2.130591e+002
2.789824e+002, 2.147133e+002
2.794645e+002, 2.167336e+002
2.799467e+002, 2.187524e+002
2.804288e+002, 2.205693e+002
2.809109e+002, 2.221491e+002
2.813930e+002, 2.234395e+002
2.818751e+002, 2.242656e+002
2.823572e+002, 2.245755e+002
2.828394e+002, 2.250433e+002
2.833215e+002, 2.256815e+002
2.838036e+002, 2.266040e+002
2.842857e+002, 2.280364e+002
2.847678e+002, 2.299021e+002
2.852499e+002, 2.317605e+002
2.857321e+002, 2.331735e+002
2.862142e+002, 2.341229e+002
2.866963e+002, 2.351254e+002
2.871784e+002, 2.362747e+002
2.876605e+002, 2.373991e+002
2.881426e+002, 2.383133e+002
2.886248e+002, 2.391069e+002
2.891069e+002, 2.400585e+002
2.895890e+002, 2.414637e+002
2.900711e+002, 2.432773e+002
2.905532e+002, 2.448655e+002
2.910353e+002, 2.462210e+002
2.915175e+002, 2.473260e+002
2.919996e+002, 2.481061e+002
2.924817e+002, 2.486616e+002
2.929638e+002, 2.491491e+002
2.934459e+002, 2.496230e+002
2.939280e+002, 2.501228e+002
2.944102e+002, 2.508287e+002
2.948923e+002, 2.519106e+002
2.953744e+002, 2.529468e+002
2.958565e+002, 2.538866e+002
2.963386e+002, 2.546966e+002
2.968207e+002, 2.553331e+002
2.973029e+002, 2.557763e+002
2.977850e+002, 2.560339e+002
2.982671e+002, 2.560627e+002
2.987492e+002, 2.556394e+002
2.992313e+002, 2.554561e+002
2.997134e+002, 2.559978e+002
3.001956e+002, 2.566547e+002
3.006777e+002, 2.567350e+002
3.011598e+002, 2.559940e+002
3.016419e+002, 2.550368e+002
3.021240e+002, 2.550743e+002
3.026061e+002, 2.567492e+002
3.030883e+002, 2.575746e+002
3.035704e+002, 2.566029e+002
3.040525e+002, 2.551117e+002
3.045346e+002, 2.538159e+002
3.050167e+002, 2.528892e+002
3.054988e+002, 2.522304e+002
3.059810e+002, 2.517776e+002
3.064631e+002, 2.515929e+002
3.069452e+002, 2.513177e+002
3.074273e+002, 2.510486e+002
3.079094e+002, 2.505775e+002
3.083915e+002, 2.496388e+002
3.088737e+002, 2.483332e+002
3.093558e+002, 2.470728e+002
3.098379e+002, 2.463147e+002
3.103200e+002, 2.460906e+002
3.108021e+002, 2.456564e+002
3.112842e+002, 2.452221e+002
3.117664e+002, 2.443082e+002
3.122485e+002, 2.423550e+002
3.127306e+002, 2.397905e+002
3.132127e+002, 2.374804e+002
3.136948e+002, 2.360229e+002
3.141769e+002, 2.353280e+002
3.146591e+002, 2.348837e+002
3.151412e+002, 2.351271e+002
3.156233e+002, 2.349924e+002
3.161054e+002, 2.340420e+002
3.165875e+002, 2.326163e+002
3.170696e+002, 2.311230e+002
3.175518e+002, 2.297334e+002
3.180339e+002, 2.284752e+002
3.185160e+002, 2.274327e+002
3.189981e+002, 2.266193e+002
3.194802e+002, 2.260254e+002
3.199623e+002, 2.258769e+002
3.204445e+002, 2.257918e+002
3.209266e+002, 2.253517e+002
3.214087e+002, 2.244333e+002
3.218908e+002, 2.234286e+002
3.223729e+002, 2.229211e+002
3.228550e+002, 2.229821e+002
3.233372e+002, 2.232923e+002
3.238193e+002, 2.242253e+002
3.243014e+002, 2.250858e+002
3.247835e+002, 2.253448e+002
3.252656e+002, 2.250093e+002
3.257477e+002, 2.246184e+002
3.262299e+002, 2.247414e+002
3.267120e+002, 2.254266e+002
3.271941e+002, 2.260963e+002
3.276762e+002, 2.267370e+002
3.281583e+002, 2.273511e+002
3.286404e+002, 2.280399e+002
3.291226e+002, 2.287168e+002
3.296047e+002, 2.291344e+002
3.300868e+002, 2.289082e+002
3.305689e+002, 2.282239e+002
3.310510e+002, 2.284145e+002
3.315331e+002, 2.301487e+002
3.320153e+002, 2.317930e+002
3.324974e+002, 2.327471e+002
3.329795e+002, 2.332484e+002
3.334616e+002, 2.335975e+002
3.339437e+002, 2.338721e+002
3.344258e+002, 2.341983e+002
3.349080e+002, 2.349179e+002
3.353901e+002, 2.362396e+002
3.358722e+002, 2.374312e+002
3.363543e+002, 2.381159e+002
3.368365e+002, 2.386800e+002
3.373186e+002, 2.395497e+002
3.378007e+002, 2.408619e+002
3.382828e+002, 2.421319e+002
3.387649e+002, 2.426411e+002
3.392470e+002, 2.422569e+002
3.397292e+002, 2.420903e+002
3.402113e+002, 2.423491e+002
3.406934e+002, 2.429133e+002
3.411755e+002, 2.437894e+002
3.416576e+002, 2.449425e+002
3.421397e+002, 2.461803e+002
3.426219e+002, 2.475021e+002
3.431040e+002, 2.488550e+002
3.435861e+002, 2.496294e+002
3.440682e+002, 2.493080e+002
3.445503e+002, 2.490441e+002
3.450324e+002, 2.495851e+002
3.455146e+002, 2.506977e+002
3.459967e+002, 2.518120e+002
3.464788e+002, 2.527126e+002
3.469609e+002, 2.533820e+002
3.474430e+002, 2.537150e+002
3.479251e+002, 2.535969e+002
3.484073e+002, 2.534614e+002
3.488894e+002, 2.535476e+002
3.493715e+002, 2.537380e+002
3.498536e+002, 2.538617e+002
3.503357e+002, 2.537893e+002
3.508178e+002, 2.538158e+002
3.513000e+002, 2.544616e+002
3.517821e+002, 2.557759e+002
3.522642e+002, 2.567457e+002
3.527463e+002, 2.567687e+002
3.532284e+002, 2.564879e+002
3.537105e+002, 2.566196e+002
3.541927e+002, 2.572473e+002
3.546748e+002, 2.578599e+002
3.551569e+002, 2.578509e+002
3.556390e+002, 2.574582e+002
3.561211e+002, 2.578481e+002
3.566032e+002, 2.595726e+002
3.570854e+002, 2.615397e+002
3.575675e+002, 2.628579e+002
3.580496e+002, 2.636005e+002
3.585317e+002, 2.639147e+002
3.590138e+002, 2.634690e+002
3.594959e+002, 2.627681e+002
3.599781e+002, 2.625648e+002
3.604602e+002, 2.628981e+002
3.609423e+002, 2.637435e+002
3.614244e+002, 2.654527e+002
3.619065e+002, 2.676378e+002
3.623886e+002, 2.693094e+002
3.628708e+002, 2.698127e+002
3.633529e+002, 2.702949e+002
3.638350e+002, 2.718705e+002
3.643171e+002, 2.743682e+002
3.647992e+002, 2.766606e+002
3.652813e+002, 2.782607e+002
3.657635e+002, 2.793344e+002
3.662456e+002, 2.801306e+002
3.667277e+002, 2.803506e+002
3.672098e+002, 2.811592e+002
3.676919e+002, 2.836842e+002
3.681740e+002, 2.870089e+002
3.686562e+002, 2.892197e+002
3.691383e+002, 2.896978e+002
3.696204e+002, 2.897497e+002
3.701025e+002, 2.910252e+002
3.705846e+002, 2.935913e+002
3.710667e+002, 2.961103e+002
3.715489e+002, 2.984097e+002
3.720310e+002, 3.006131e+002
3.725131e+002, 3.028055e+002
3.729952e+002, 3.050053e+002
3.734773e+002, 3.071841e+002
3.739594e+002, 3.092866e+002
3.744416e+002, 3.113564e+002
3.749237e+002, 3.136300e+002
3.754058e+002, 3.160703e+002
3.758879e+002, 3.187246e+002
3.763700e+002, 3.216380e+002
3.768521e+002, 3.247835e+002
3.773343e+002, 3.280377e+002
3.778164e+002, 3.313268e+002
3.782985e+002, 3.347960e+002
3.787806e+002, 3.388448e+002
3.792627e+002, 3.443773e+002
3.797448e+002, 3.489455e+002
3.802270e+002, 3.515277e+002
3.807091e+002, 3.535317e+002
3.811912e+002, 3.562665e+002
3.816733e+002, 3.599961e+002
3.821554e+002, 3.642375e+002
3.826375e+002, 3.685785e+002
3.831197e+002, 3.731440e+002
3.836018e+002, 3.770770e+002
3.840839e+002, 3.793929e+002
3.845660e+002, 3.821275e+002
3.850481e+002, 3.864765e+002
3.855302e+002, 3.920336e+002
3.860124e+002, 3.977045e+002
3.864945e+002, 4.028179e+002
3.869766e+002, 4.073917e+002
3.874587e+002, 4.115676e+002
3.879408e+002, 4.148832e+002
3.884229e+002, 4.183452e+002
3.889051e+002, 4.222352e+002
3.893872e+002, 4.262260e+002
3.898693e+002, 4.299449e+002
3.903514e+002, 4.332746e+002
3.908335e+002, 4.364927e+002
3.913156e+002, 4.400851e+002
3.917978e+002, 4.443705e+002
3.922799e+002, 4.481684e+002
3.927620e+002, 4.515264e+002
3.932441e+002, 4.544044e+002
3.937262e+002, 4.565682e+002
3.942083e+002, 4.581896e+002
3.946905e+002, 4.597955e+002
3.951726e+002, 4.619200e+002
3.956547e+002, 4.644572e+002
3.961368e+002, 4.662675e+002
3.966189e+002, 4.668348e+002
3.971010e+002, 4.673701e+002
3.975832e+002, 4.685105e+002
3.980653e+002, 4.697667e+002
3.985474e+002, 4.704777e+002
3.990295e+002, 4.703592e+002
3.995116e+002, 4.697315e+002
3.999937e+002, 4.691675e+002
4.004759e+002, 4.687732e+002
4.009580e+002, 4.678902e+002
4.014401e+002, 4.657863e+002
4.019222e+002, 4.635507e+002
4.024043e+002, 4.620150e+002
4.028864e+002, 4.611978e+002
4.033686e+002, 4.604109e+002
4.038507e+002, 4.593970e+002
4.043328e+002, 4.580504e+002
4.048149e+002, 4.557555e+002
4.052970e+002, 4.520788e+002
4.057791e+002, 4.483066e+002
4.062613e+002, 4.454295e+002
4.067434e+002, 4.430865e+002
4.072255e+002, 4.405116e+002
4.077076e+002, 4.374024e+002
4.081897e+002, 4.340453e+002
4.086718e+002, 4.308020e+002
4.091540e+002, 4.276565e+002
4.096361e+002, 4.243301e+002
4.101182e+002, 4.205671e+002
4.106003e+002, 4.166898e+002
4.110824e+002, 4.132866e+002
4.115645e+002, 4.104633e+002
4.120467e+002, 4.076131e+002
4.125288e+002, 4.043522e+002
4.130109e+002, 4.009171e+002
4.134930e+002, 3.977852e+002
4.139751e+002, 3.950849e+002
4.144572e+002, 3.924001e+002
4.149394e+002, 3.891484e+002
4.154215e+002, 3.853089e+002
4.159036e+002, 3.823742e+002
4.163857e+002, 3.812225e+002
4.168678e+002, 3.803005e+002
4.173499e+002, 3.786674e+002
4.178321e+002, 3.764049e+002
4.183142e+002, 3.738664e+002
4.187963e+002, 3.711784e+002
4.192784e+002, 3.685083e+002
4.197605e+002, 3.664730e+002
4.202426e+002, 3.652388e+002
4.207248e+002, 3.643700e+002
4.212069e+002, 3.643506e+002
4.216890e+002, 3.644060e+002
4.221711e+002, 3.635399e+002
4.226532e+002, 3.616145e+002
4.231353e+002, 3.595243e+002
4.236175e+002, 3.583663e+002
4.240996e+002, 3.583692e+002
4.245817e+002, 3.581607e+002
4.250638e+002, 3.573204e+002
4.255459e+002, 3.567208e+002
4.260280e+002, 3.567421e+002
4.265102e+002, 3.572674e+002
4.269923e+002, 3.580455e+002
4.274744e+002, 3.589452e+002
4.279565e+002, 3.599293e+002
4.284386e+002, 3.608474e+002
4.289207e+002, 3.616278e+002
4.294029e+002, 3.624769e+002
4.298850e+002, 3.634729e+002
4.303671e+002, 3.644991e+002
4.308492e+002, 3.653976e+002
4.313313e+002, 3.661708e+002
4.318134e+002, 3.670186e+002
4.322956e+002, 3.680757e+002
4.327777e+002, 3.693367e+002
4.332598e+002, 3.710507e+002
4.337419e+002, 3.733250e+002
4.342241e+002, 3.759501e+002
4.347062e+002, 3.790636e+002
4.351883e+002, 3.823956e+002
4.356704e+002, 3.853879e+002
4.361525e+002, 3.876581e+002
4.366346e+002, 3.896718e+002
4.371168e+002, 3.921416e+002
4.375989e+002, 3.950854e+002
4.380810e+002, 3.982626e+002
4.385631e+002, 4.017464e+002
4.390452e+002, 4.052985e+002
4.395273e+002, 4.087331e+002
4.400095e+002, 4.120581e+002
4.404916e+002, 4.150898e+002
4.409737e+002, 4.175215e+002
4.414558e+002, 4.196344e+002
4.419379e+002, 4.219336e+002
4.424200e+002, 4.244751e+002
4.429022e+002, 4.273356e+002
4.433843e+002, 4.308003e+002
4.438664e+002, 4.347260e+002
4.443485e+002, 4.382646e+002
4.448306e+002, 4.411024e+002
4.453127e+002, 4.438168e+002
4.457949e+002, 4.468194e+002
4.462770e+002, 4.499752e+002
4.467591e+002, 4.528682e+002
4.472412e+002, 4.552991e+002
4.477233e+002, 4.575868e+002
4.482054e+002, 4.604066e+002
4.486876e+002, 4.643815e+002
4.491697e+002, 4.674774e+002
4.496518e+002, 4.690402e+002
4.501339e+002, 4.701043e+002
4.506160e+002, 4.713993e+002
4.510981e+002, 4.729737e+002
4.515803e+002, 4.745617e+002
4.520624e+002, 4.759537e+002
4.525445e+002, 4.771501e+002
4.530266e+002, 4.781102e+002
4.535087e+002, 4.790116e+002
4.539908e+002, 4.794240e+002
4.544730e+002, 4.788593e+002
4.549551e+002, 4.779520e+002
4.554372e+002, 4.775078e+002
4.559193e+002, 4.777415e+002
4.564014e+002, 4.780600e+002
4.568835e+002, 4.774059e+002
4.573657e+002, 4.753409e+002
4.578478e+002, 4.743246e+002
4.583299e+002, 4.764257e+002
4.588120e+002, 4.776458e+002
4.592941e+002, 4.757732e+002
4.597762e+002, 4.716933e+002
4.602584e+002, 4.676400e+002
4.607405e+002, 4.648105e+002
4.612226e+002, 4.627839e+002
4.617047e+002, 4.607221e+002
4.621868e+002, 4.586346e+002
4.626689e+002, 4.564468e+002
4.631511e+002, 4.544389e+002
4.636332e+002, 4.520862e+002
4.641153e+002, 4.486069e+002
4.645974e+002, 4.438474e+002
4.650795e+002, 4.393970e+002
4.655616e+002, 4.367090e+002
4.660438e+002, 4.349326e+002
4.665259e+002, 4.319856e+002
4.670080e+002, 4.275060e+002
4.674901e+002, 4.227074e+002
4.679722e+002, 4.185503e+002
4.684543e+002, 4.148732e+002
4.689365e+002, 4.108177e+002
4.694186e+002, 4.060260e+002
4.699007e+002, 4.011780e+002
4.703828e+002, 3.966766e+002
4.708649e+002, 3.924056e+002
4.713470e+002, 3.880801e+002
4.718292e+002, 3.835867e+002
4.723113e+002, 3.791281e+002
4.727934e+002, 3.750080e+002
4.732755e+002, 3.714543e+002
4.737576e+002, 3.676571e+002
4.742397e+002, 3.633860e+002
4.747219e+002, 3.590820e+002
4.752040e+002, 3.548453e+002
4.756861e+002, 3.507924e+002
4.761682e+002, 3.472318e+002
4.766503e+002, 3.444472e+002
4.771324e+002, 3.421014e+002
4.776146e+002, 3.388938e+002
4.780967e+002, 3.339683e+002
4.785788e+002, 3.295014e+002
4.790609e+002, 3.259476e+002
4.795430e+002, 3.227048e+002
4.800251e+002, 3.192409e+002
4.805073e+002, 3.155306e+002
4.809894e+002, 3.119185e+002
4.814715e+002, 3.087392e+002
4.819536e+002, 3.059791e+002
4.824357e+002, 3.034586e+002
4.829178e+002, 3.012607e+002
4.834000e+002, 2.991506e+002
4.838821e+002, 2.973186e+002
4.843642e+002, 2.954023e+002
4.848463e+002, 2.927329e+002
4.853284e+002, 2.888520e+002
4.858105e+002, 2.851037e+002
4.862927e+002, 2.831083e+002
4.867748e+002, 2.825362e+002
4.872569e+002, 2.813502e+002
4.877390e+002, 2.790031e+002
4.882211e+002, 2.761641e+002
4.887032e+002, 2.733553e+002
4.891854e+002, 2.705923e+002
4.896675e+002, 2.682129e+002
4.901496e+002, 2.665340e+002
4.906317e+002, 2.650549e+002
4.911138e+002, 2.633100e+002
4.915959e+002, 2.614145e+002
4.920781e+002, 2.598937e+002
4.925602e+002, 2.590759e+002
4.930423e+002, 2.585768e+002
4.935244e+002, 2.575396e+002
4.940065e+002, 2.557178e+002
4.944886e+002, 2.537997e+002
4.949708e+002, 2.515556e+002
4.954529e+002, 2.494128e+002
4.959350e+002, 2.477392e+002
4.964171e+002, 2.464910e+002
4.968992e+002, 2.453708e+002
4.973813e+002, 2.441852e+002
4.978635e+002, 2.429010e+002
4.983456e+002, 2.412594e+002
4.988277e+002, 2.387402e+002
4.993098e+002, 2.366324e+002
4.997919e+002, 2.355248e+002
5.002740e+002, 2.346141e+002
5.007562e+002, 2.330762e+002
5.012383e+002, 2.308221e+002
5.017204e+002, 2.285480e+002
5.022025e+002, 2.270496e+002
5.026846e+002, 2.262497e+002
5.031667e+002, 2.251870e+002
5.036489e+002, 2.237874e+002
5.041310e+002, 2.222547e+002
5.046131e+002, 2.206437e+002
5.050952e+002, 2.189979e+002
5.055773e+002, 2.172991e+002
5.060594e+002, 2.153689e+002
5.065416e+002, 2.138292e+002
5.070237e+002, 2.136784e+002
5.075058e+002, 2.144150e+002
5.079879e+002, 2.141270e+002
5.084700e+002, 2.121687e+002
5.089521e+002, 2.098704e+002
5.094343e+002, 2.086621e+002
5.099164e+002, 2.085598e+002
5.103985e+002, 2.082954e+002
5.108806e+002, 2.076240e+002
5.113627e+002, 2.069478e+002
5.118448e+002, 2.065038e+002
5.123270e+002, 2.062302e+002
5.128091e+002, 2.059876e+002
5.132912e+002, 2.057229e+002
5.137733e+002, 2.053894e+002
5.142554e+002, 2.048640e+002
5.147375e+002, 2.038841e+002
5.152197e+002, 2.033559e+002
5.157018e+002, 2.038045e+002
5.161839e+002, 2.041507e+002
5.166660e+002, 2.037508e+002
5.171481e+002, 2.027801e+002
5.176302e+002, 2.017262e+002
5.181124e+002, 2.008404e+002
5.185945e+002, 2.001662e+002
5.190766e+002, 1.999130e+002
5.195587e+002, 2.002837e+002
5.200408e+002, 2.003949e+002
5.205229e+002, 1.997996e+002
5.210051e+002, 1.990617e+002
5.214872e+002, 1.983976e+002
5.219693e+002, 1.978762e+002
5.224514e+002, 1.977334e+002
5.229335e+002, 1.984670e+002
5.234156e+002, 1.995505e+002
5.238978e+002, 1.999796e+002
5.243799e+002, 1.997259e+002
5.248620e+002, 1.992115e+002
5.253441e+002, 1.985007e+002
5.258262e+002, 1.977646e+002
5.263083e+002, 1.973620e+002
5.267905e+002, 1.973557e+002
5.272726e+002, 1.974455e+002
5.277547e+002, 1.977303e+002
5.282368e+002, 1.979664e+002
5.287189e+002, 1.977058e+002
5.292010e+002, 1.970098e+002
5.296832e+002, 1.965777e+002
5.301653e+002, 1.969914e+002
5.306474e+002, 1.980902e+002
5.311295e+002, 1.987950e+002
5.316116e+002, 1.985352e+002
5.320938e+002, 1.985784e+002
5.325759e+002, 1.993067e+002
5.330580e+002, 2.001983e+002
5.335401e+002, 2.008520e+002
5.340222e+002, 2.011685e+002
5.345043e+002, 2.011888e+002
5.349865e+002, 2.008352e+002
5.354686e+002, 2.001686e+002
5.359507e+002, 1.999491e+002
5.364328e+002, 2.004169e+002
5.369149e+002, 2.008853e+002
5.373970e+002, 2.010454e+002
5.378792e+002, 2.011107e+002
5.383613e+002, 2.012975e+002
5.388434e+002, 2.016532e+002
5.393255e+002, 2.020893e+002
5.398076e+002, 2.026792e+002
5.402897e+002, 2.032930e+002
5.407719e+002, 2.034992e+002
5.412540e+002, 2.031875e+002
5.417361e+002, 2.028823e+002
5.422182e+002, 2.029796e+002
5.427003e+002, 2.034064e+002
5.431824e+002, 2.037367e+002
5.436646e+002, 2.036574e+002
5.441467e+002, 2.038891e+002
5.446288e+002, 2.049134e+002
5.451109e+002, 2.062910e+002
5.455930e+002, 2.075021e+002
5.460751e+002, 2.084143e+002
5.465573e+002, 2.090470e+002
5.470394e+002, 2.093694e+002
5.475215e+002, 2.093636e+002
5.480036e+002, 2.096735e+002
5.484857e+002, 2.106820e+002
5.489678e+002, 2.115820e+002
5.494500e+002, 2.120646e+002
5.499321e+002, 2.124458e+002
5.504142e+002, 2.131662e+002
5.508963e+002, 2.143109e+002
5.513784e+002, 2.154241e+002
5.518605e+002, 2.158499e+002
5.523427e+002, 2.156611e+002
5.528248e+002, 2.160350e+002
5.533069e+002, 2.173177e+002
5.537890e+002, 2.185248e+002
5.542711e+002, 2.189275e+002
5.547532e+002, 2.189451e+002
5.552354e+002, 2.191494e+002
5.557175e+002, 2.196377e+002
5.561996e+002, 2.203115e+002
5.566817e+002, 2.212141e+002
5.571638e+002, 2.222359e+002
5.576459e+002, 2.232429e+002
5.581281e+002, 2.242121e+002
5.586102e+002, 2.248732e+002
5.590923e+002, 2.248817e+002
5.595744e+002, 2.242890e+002
5.600565e+002, 2.241946e+002
5.605386e+002, 2.249514e+002
5.610208e+002, 2.256820e+002
5.615029e+002, 2.262627e+002
5.619850e+002, 2.266735e+002
5.624671e+002, 2.268484e+002
5.629492e+002, 2.268041e+002
5.634313e+002, 2.267089e+002
5.639135e+002, 2.267473e+002
5.643956e+002, 2.269154e+002
5.648777e+002, 2.269937e+002
5.653598e+002, 2.268765e+002
5.658419e+002, 2.268398e+002
5.663240e+002, 2.271587e+002
5.668062e+002, 2.274936e+002
5.672883e+002, 2.274140e+002
5.677704e+002, 2.268227e+002
5.682525e+002, 2.262044e+002
5.687346e+002, 2.259935e+002
5.692167e+002, 2.260438e+002
5.696989e+002, 2.259575e+002
5.701810e+002, 2.256950e+002
5.706631e+002, 2.253414e+002
5.711452e+002, 2.249225e+002
5.716273e+002, 2.244598e+002
5.721094e+002, 2.240547e+002
5.725916e+002, 2.238592e+002
5.730737e+002, 2.234480e+002
5.735558e+002, 2.226227e+002
5.740379e+002, 2.215731e+002
5.745200e+002, 2.204190e+002
5.750021e+002, 2.192272e+002
5.754843e+002, 2.181417e+002
5.759664e+002, 2.172720e+002
5.764485e+002, 2.166198e+002
5.769306e+002, 2.162475e+002
5.774127e+002, 2.166257e+002
5.778948e+002, 2.165039e+002
5.783770e+002, 2.154522e+002
5.788591e+002, 2.140947e+002
5.793412e+002, 2.128895e+002
5.798233e+002, 2.118711e+002
5.803054e+002, 2.107822e+002
5.807875e+002, 2.093759e+002
5.812697e+002, 2.077930e+002
5.817518e+002, 2.063837e+002
5.822339e+002, 2.051458e+002
5.827161e+002, 2.041068e+002
5.831982e+002, 2.034843e+002
5.836803e+002, 2.028816e+002
5.841624e+002, 2.016285e+002
5.846445e+002, 1.996453e+002
5.851266e+002, 1.978091e+002
5.856088e+002, 1.964518e+002
5.860909e+002, 1.952593e+002
5.865730e+002, 1.939047e+002
5.870551e+002, 1.924595e+002
5.875372e+002, 1.912971e+002
5.880193e+002, 1.906605e+002
5.885015e+002, 1.901738e+002
5.889836e+002, 1.889335e+002
5.894657e+002, 1.862367e+002
5.899478e+002, 1.843359e+002
5.904299e+002, 1.838626e+002
5.909120e+002, 1.834751e+002
5.913942e+002, 1.824964e+002
5.918763e+002, 1.811044e+002
5.923584e+002, 1.798134e+002
5.928405e+002, 1.789089e+002
5.933226e+002, 1.780358e+002
5.938047e+002, 1.765621e+002
5.942869e+002, 1.744939e+002
5.947690e+002, 1.725782e+002
5.952511e+002, 1.708355e+002
5.957332e+002, 1.694507e+002
5.962153e+002, 1.688784e+002
5.966974e+002, 1.688500e+002
5.971796e+002, 1.684462e+002
5.976617e+002, 1.673914e+002
5.981438e+002, 1.660783e+002
5.986259e+002, 1.644713e+002
5.991080e+002, 1.628175e+002
5.995901e+002, 1.616701e+002
6.000723e+002, 1.611350e+002
6.005544e+002, 1.605950e+002
6.010365e+002, 1.593001e+002
6.015186e+002, 1.572145e+002
6.020007e+002, 1.559736e+002
6.024828e+002, 1.566898e+002
6.029650e+002, 1.569109e+002
6.034471e+002, 1.561228e+002
6.039292e+002, 1.547177e+002
6.044113e+002, 1.528500e+002
6.048934e+002, 1.506683e+002
6.053755e+002, 1.487573e+002
6.058577e+002, 1.477601e+002
6.063398e+002, 1.474569e+002
6.068219e+002, 1.469983e+002
6.073040e+002, 1.463254e+002
6.077861e+002, 1.458701e+002
6.082682e+002, 1.461694e+002
6.087504e+002, 1.465343e+002
6.092325e+002, 1.456259e+002
6.097146e+002, 1.431304e+002
6.101967e+002, 1.411314e+002
6.106788e+002, 1.405007e+002
6.111609e+002, 1.403360e+002
6.116431e+002, 1.399177e+002
6.121252e+002, 1.392396e+002
6.126073e+002, 1.385282e+002
6.130894e+002, 1.379033e+002
6.135715e+002, 1.373065e+002
6.140536e+002, 1.365875e+002
6.145358e+002, 1.356227e+002
6.150179e+002, 1.348537e+002
6.155000e+002, 1.344968e+002
6.159821e+002, 1.341224e+002
6.164642e+002, 1.335196e+002
6.169464e+002, 1.327729e+002
6.174285e+002, 1.320600e+002
6.179106e+002, 1.314514e+002
6.183927e+002, 1.308811e+002
6.188748e+002, 1.301031e+002
6.193569e+002, 1.292415e+002
6.198391e+002, 1.291283e+002
6.203212e+002, 1.301121e+002
6.208033e+002, 1.309304e+002
6.212854e+002, 1.303994e+002
6.217675e+002, 1.287902e+002
6.222496e+002, 1.278239e+002
6.227318e+002, 1.281054e+002
6.232139e+002, 1.282179e+002
6.236960e+002, 1.276264e+002
6.241781e+002, 1.267651e+002
6.246602e+002, 1.260641e+002
6.251423e+002, 1.255876e+002
6.256245e+002, 1.252270e+002
6.261066e+002, 1.249176e+002
6.265887e+002, 1.246255e+002
6.270708e+002, 1.241589e+002
6.275529e+002, 1.233835e+002
6.280350e+002, 1.227651e+002
6.285172e+002, 1.225498e+002
6.289993e+002, 1.224035e+002
6.294814e+002, 1.220399e+002
6.299635e+002, 1.215205e+002
6.304456e+002, 1.212092e+002
6.309277e+002, 1.215029e+002
6.314099e+002, 1.218806e+002
6.318920e+002, 1.217103e+002
6.323741e+002, 1.211073e+002
6.328562e+002, 1.205152e+002
6.333383e+002, 1.200608e+002
6.338204e+002, 1.197254e+002
6.343026e+002, 1.194984e+002
6.347847e+002, 1.193905e+002
6.352668e+002, 1.192955e+002
6.357489e+002, 1.192118e+002
6.362310e+002, 1.191385e+002
6.367131e+002, 1.192236e+002
6.371953e+002, 1.192418e+002
6.376774e+002, 1.187949e+002
6.381595e+002, 1.178763e+002
6.386416e+002, 1.170590e+002
6.391237e+002, 1.170151e+002
6.396058e+002, 1.175550e+002
6.400880e+002, 1.176635e+002
6.405701e+002, 1.172338e+002
6.410522e+002, 1.167871e+002
6.415343e+002, 1.164549e+002
6.420164e+002, 1.162646e+002
6.424985e+002, 1.163868e+002
6.429807e+002, 1.168792e+002
6.434628e+002, 1.168561e+002
6.439449e+002, 1.155163e+002
6.444270e+002, 1.140360e+002
6.449091e+002, 1.133997e+002
6.453912e+002, 1.134206e+002
6.458734e+002, 1.134906e+002
6.463555e+002, 1.133623e+002
6.468376e+002, 1.131961e+002
6.473197e+002, 1.132553e+002
6.478018e+002, 1.135956e+002
6.482839e+002, 1.138496e+002
6.487661e+002, 1.140748e+002
6.492482e+002, 1.141316e+002
6.497303e+002, 1.139806e+002
6.502124e+002, 1.136428e+002
6.506945e+002, 1.130358e+002
6.511766e+002, 1.121361e+002
6.516588e+002, 1.114267e+002
6.521409e+002, 1.114009e+002
6.526230e+002, 1.117911e+002
6.531051e+002, 1.120891e+002
6.535872e+002, 1.122634e+002
6.540693e+002, 1.123387e+002
6.545515e+002, 1.123053e+002
6.550336e+002, 1.122149e+002
6.555157e+002, 1.121730e+002
6.559978e+002, 1.121892e+002
6.564799e+002, 1.122393e+002
6.569620e+002, 1.123621e+002
6.574442e+002, 1.124798e+002
6.579263e+002, 1.125390e+002
6.584084e+002, 1.125650e+002
6.588905e+002, 1.126173e+002
6.593726e+002, 1.127191e+002
6.598547e+002, 1.128140e+002
6.603369e+002, 1.127995e+002
6.608190e+002, 1.126879e+002
6.613011e+002, 1.126498e+002
6.617832e+002, 1.126717e+002
6.622653e+002, 1.128370e+002
6.627474e+002, 1.132752e+002
6.632296e+002, 1.138568e+002
6.637117e+002, 1.143301e+002
6.641938e+002, 1.146920e+002
6.646759e+002, 1.149480e+002
6.651580e+002, 1.150499e+002
6.656401e+002, 1.150846e+002
6.661223e+002, 1.151054e+002
6.666044e+002, 1.151298e+002
6.670865e+002, 1.152009e+002
6.675686e+002, 1.153457e+002
6.680507e+002, 1.154843e+002
6.685328e+002, 1.154212e+002
6.690150e+002, 1.150567e+002
6.694971e+002, 1.149333e+002
6.699792e+002, 1.152772e+002
6.704613e+002, 1.155882e+002
6.709434e+002, 1.154882e+002
6.714255e+002, 1.152781e+002
6.719077e+002, 1.155224e+002
6.723898e+002, 1.164711e+002
6.728719e+002, 1.171786e+002
6.733540e+002, 1.166461e+002
6.738361e+002, 1.156783e+002
6.743182e+002, 1.155726e+002
6.748004e+002, 1.163588e+002
6.752825e+002, 1.173998e+002
6.757646e+002, 1.184110e+002
6.762467e+002, 1.192164e+002
6.767288e+002, 1.193743e+002
6.772109e+002, 1.184742e+002
6.776931e+002, 1.178821e+002
6.781752e+002, 1.177848e+002
6.786573e+002, 1.177692e+002
6.791394e+002, 1.176803e+002
6.796215e+002, 1.175472e+002
6.801036e+002, 1.174137e+002
6.805858e+002, 1.172875e+002
6.810679e+002, 1.172530e+002
6.815500e+002, 1.174529e+002
6.820321e+002, 1.178018e+002
6.825142e+002, 1.180713e+002
6.829963e+002, 1.182404e+002
6.834785e+002, 1.183337e+002
6.839606e+002, 1.183607e+002
6.844427e+002, 1.183257e+002
6.849248e+002, 1.182423e+002
6.854069e+002, 1.181311e+002
6.858890e+002, 1.179162e+002
6.863712e+002, 1.174698e+002
6.868533e+002, 1.170473e+002
6.873354e+002, 1.167546e+002
6.878175e+002, 1.165939e+002
6.882996e+002, 1.165271e+002
6.887817e+002, 1.165418e+002
6.892639e+002, 1.167144e+002
6.897460e+002, 1.173518e+002
6.902281e+002, 1.183156e+002
6.907102e+002, 1.184936e+002
6.911923e+002, 1.176594e+002
6.916744e+002, 1.168689e+002
6.921566e+002, 1.166151e+002
6.926387e+002, 1.167519e+002
6.931208e+002, 1.170770e+002
6.936029e+002, 1.177016e+002
6.940850e+002, 1.180145e+002
6.945671e+002, 1.176141e+002
6.950493e+002, 1.171595e+002
6.955314e+002, 1.171023e+002
6.960135e+002, 1.173042e+002
6.964956e+002, 1.174653e+002
6.969777e+002, 1.174711e+002
6.974598e+002, 1.173678e+002
6.979420e+002, 1.171503e+002
6.984241e+002, 1.168311e+002
6.989062e+002, 1.167811e+002
6.993883e+002, 1.171217e+002
6.998704e+002, 1.173867e+002
7.003525e+002, 1.172969e+002
7.008347e+002, 1.170839e+002
7.013168e+002, 1.170676e+002
7.017989e+002, 1.172659e+002
7.022810e+002, 1.174702e+002
7.027631e+002, 1.176776e+002
7.032452e+002, 1.178230e+002
7.037274e+002, 1.178027e+002
7.042095e+002, 1.176966e+002
7.046916e+002, 1.176305e+002
7.051737e+002, 1.176541e+002
7.056558e+002, 1.178221e+002
7.061379e+002, 1.182564e+002
7.066201e+002, 1.189288e+002
7.071022e+002, 1.193118e+002
7.075843e+002, 1.193537e+002
7.080664e+002, 1.192226e+002
7.085485e+002, 1.187399e+002
7.090306e+002, 1.182756e+002
7.095128e+002, 1.182425e+002
7.099949e+002, 1.186131e+002
7.104770e+002, 1.188886e+002
7.109591e+002, 1.188568e+002
7.114412e+002, 1.187284e+002
7.119233e+002, 1.185513e+002
7.124055e+002, 1.184166e+002
7.128876e+002, 1.184960e+002
7.133697e+002, 1.188292e+002
7.138518e+002, 1.193779e+002
7.143339e+002, 1.201879e+002
7.148160e+002, 1.211501e+002
7.152982e+002, 1.213552e+002
7.157803e+002, 1.203674e+002
7.162624e+002, 1.196474e+002
7.167445e+002, 1.198376e+002
7.172266e+002, 1.200914e+002
7.177087e+002, 1.197898e+002
7.181909e+002, 1.190284e+002
7.186730e+002, 1.182717e+002
7.191551e+002, 1.176030e+002
7.196372e+002, 1.170573e+002
7.201193e+002, 1.167085e+002
7.206014e+002, 1.164768e+002
7.210836e+002, 1.162354e+002
7.215657e+002, 1.159608e+002
7.220478e+002, 1.156749e+002
7.225299e+002, 1.153934e+002
7.230120e+002, 1.151145e+002
7.234941e+002, 1.148463e+002
7.239763e+002, 1.146122e+002
7.244584e+002, 1.143216e+002
7.249405e+002, 1.139573e+002
7.254226e+002, 1.135415e+002
7.259047e+002, 1.130450e+002
7.263868e+002, 1.125165e+002
7.268690e+002, 1.120518e+002
7.273511e+002, 1.116830e+002
7.278332e+002, 1.113605e+002
7.283153e+002, 1.110821e+002
7.287974e+002, 1.108211e+002
7.292795e+002, 1.104841e+002
7.297617e+002, 1.101083e+002
7.302438e+002, 1.099255e+002
7.307259e+002, 1.100791e+002
7.312080e+002, 1.103602e+002
7.316901e+002, 1.103381e+002
7.321722e+002, 1.099466e+002
7.326544e+002, 1.095236e+002
7.331365e+002, 1.090221e+002
7.336186e+002, 1.085505e+002
7.341007e+002, 1.081761e+002
7.345828e+002, 1.078444e+002
7.350649e+002, 1.074649e+002
7.355471e+002, 1.070153e+002
7.360292e+002, 1.066607e+002
7.365113e+002, 1.066087e+002
7.369934e+002, 1.065873e+002
7.374755e+002, 1.061974e+002
7.379576e+002, 1.056090e+002
7.384398e+002, 1.053581e+002
7.389219e+002, 1.056282e+002
7.394040e+002, 1.061088e+002
7.398861e+002, 1.064596e+002
7.403682e+002, 1.066788e+002
7.408503e+002, 1.065590e+002
7.413325e+002, 1.058254e+002
7.418146e+002, 1.053287e+002
7.422967e+002, 1.054599e+002
7.427788e+002, 1.058135e+002
7.432609e+002, 1.060896e+002
7.437430e+002, 1.062842e+002
7.442252e+002, 1.064717e+002
7.447073e+002, 1.066798e+002
7.451894e+002, 1.068835e+002
7.456715e+002, 1.070266e+002
7.461536e+002, 1.071699e+002
7.466357e+002, 1.074209e+002
7.471179e+002, 1.077893e+002
7.476000e+002, 1.081878e+002
7.480821e+002, 1.085509e+002
7.485642e+002, 1.089016e+002
7.490463e+002, 1.093427e+002
7.495284e+002, 1.099280e+002
7.500106e+002, 1.103656e+002
7.504927e+002, 1.105480e+002
7.509748e+002, 1.106756e+002
7.514569e+002, 1.107487e+002
7.519390e+002, 1.108858e+002
7.524211e+002, 1.113910e+002
7.529033e+002, 1.124561e+002
7.533854e+002, 1.135142e+002
7.538675e+002, 1.143157e+002
7.543496e+002, 1.150501e+002
7.548317e+002, 1.158952e+002
7.553138e+002, 1.168307e+002
7.557960e+002, 1.177860e+002
7.562781e+002, 1.187296e+002
7.567602e+002, 1.195676e+002
7.572423e+002, 1.201451e+002
7.577244e+002, 1.204656e+002
7.582065e+002, 1.206760e+002
7.586887e+002, 1.206212e+002
7.591708e+002, 1.210215e+002
7.596529e+002, 1.224614e+002
7.601350e+002, 1.242804e+002
7.606171e+002, 1.254731e+002
7.610992e+002, 1.260116e+002
7.615814e+002, 1.265680e+002
7.620635e+002, 1.270838e+002
7.625456e+002, 1.277928e+002
7.630277e+002, 1.291230e+002
7.635098e+002, 1.305483e+002
7.639919e+002, 1.313726e+002
7.644741e+002, 1.315126e+002
7.649562e+002, 1.313605e+002
7.654383e+002, 1.310813e+002
7.659204e+002, 1.308951e+002
7.664025e+002, 1.314252e+002
7.668846e+002, 1.326421e+002
7.673668e+002, 1.337309e+002
7.678489e+002, 1.345155e+002
7.683310e+002, 1.351683e+002
7.688131e+002, 1.358677e+002
7.692952e+002, 1.365570e+002
7.697773e+002, 1.369151e+002
7.702595e+002, 1.364500e+002
7.707416e+002, 1.363886e+002
7.712237e+002, 1.372663e+002
7.717058e+002, 1.381326e+002
7.721879e+002, 1.383581e+002
7.726700e+002, 1.381069e+002
7.731522e+002, 1.377948e+002
7.736343e+002, 1.375731e+002
7.741164e+002, 1.373425e+002
7.745985e+002, 1.369661e+002
7.750806e+002, 1.365240e+002
7.755627e+002, 1.361982e+002
7.760449e+002, 1.359946e+002
7.765270e+002, 1.358807e+002
7.770091e+002, 1.358748e+002
7.774912e+002, 1.358006e+002
7.779733e+002, 1.353623e+002
7.784554e+002, 1.344901e+002
7.789376e+002, 1.338144e+002
7.794197e+002, 1.334119e+002
7.799019e+002, 1.331070e+002
7.803840e+002, 1.330022e+002
7.808661e+002, 1.328706e+002
7.813482e+002, 1.324796e+002
7.818303e+002, 1.318513e+002
7.823124e+002, 1.312204e+002
7.827946e+002, 1.306014e+002
7.832767e+002, 1.301109e+002
7.837588e+002, 1.299893e+002
7.842409e+002, 1.300085e+002
7.847230e+002, 1.297865e+002
7.852051e+002, 1.292598e+002
7.856873e+002, 1.284828e+002
7.861694e+002, 1.274693e+002
7.866515e+002, 1.263336e+002
7.871336e+002, 1.253283e+002
7.876157e+002, 1.244276e+002
7.880978e+002, 1.238633e+002
7.885800e+002, 1.238580e+002
7.890621e+002, 1.238418e+002
7.895442e+002, 1.233626e+002
7.900263e+002, 1.227454e+002
7.905084e+002, 1.225122e+002
7.909905e+002, 1.227385e+002
7.914727e+002, 1.230794e+002
7.919548e+002, 1.238715e+002
7.924369e+002, 1.243290e+002
7.929190e+002, 1.237787e+002
7.934011e+002, 1.226162e+002
7.938832e+002, 1.213882e+002
7.943654e+002, 1.202935e+002
7.948475e+002, 1.194770e+002
7.953296e+002, 1.191812e+002
7.958117e+002, 1.191655e+002
7.962938e+002, 1.186585e+002
7.967759e+002, 1.176761e+002
7.972581e+002, 1.172122e+002
7.977402e+002, 1.175898e+002
7.982223e+002, 1.181891e+002
7.987044e+002, 1.185368e+002
7.991865e+002, 1.186423e+002
7.996686e+002, 1.185653e+002
8.001508e+002, 1.179689e+002
8.006329e+002, 1.176783e+002
8.011150e+002, 1.180708e+002
8.015971e+002, 1.184133e+002
8.020792e+002, 1.181149e+002
8.025613e+002, 1.175202e+002
8.030435e+002, 1.173339e+002
8.035256e+002, 1.177910e+002
8.040077e+002, 1.183010e+002
8.044898e+002, 1.184163e+002
8.049719e+002, 1.183309e+002
8.054540e+002, 1.183107e+002
8.059362e+002, 1.183498e+002
8.064183e+002, 1.183120e+002
8.069004e+002, 1.181509e+002
8.073825e+002, 1.181242e+002
8.078646e+002, 1.186137e+002
8.083467e+002, 1.195405e+002
8.088289e+002, 1.197799e+002
8.093110e+002, 1.188809e+002
8.097931e+002, 1.185380e+002
8.102752e+002, 1.194684e+002
8.107573e+002, 1.206752e+002
8.112394e+002, 1.213877e+002
8.117216e+002, 1.217231e+002
8.122037e+002, 1.220382e+002
8.126858e+002, 1.223127e+002
8.131679e+002, 1.226912e+002
8.136500e+002, 1.231891e+002
8.141321e+002, 1.238348e+002
8.146143e+002, 1.247787e+002
8.150964e+002, 1.258685e+002
8.155785e+002, 1.267457e+002
8.160606e+002, 1.272645e+002
8.165427e+002, 1.276962e+002
8.170248e+002, 1.283710e+002
8.175070e+002, 1.292114e+002
8.179891e+002, 1.298468e+002
8.184712e+002, 1.302766e+002
8.189533e+002, 1.311795e+002
8.194354e+002, 1.329318e+002
8.199175e+002, 1.346777e+002
8.203997e+002, 1.352990e+002
8.208818e+002, 1.348267e+002
8.213639e+002, 1.351477e+002
8.218460e+002, 1.372478e+002
8.223281e+002, 1.386725e+002
8.228102e+002, 1.384212e+002
8.232924e+002, 1.381318e+002
8.237745e+002, 1.391198e+002
8.242566e+002, 1.409146e+002
8.247387e+002, 1.421027e+002
8.252208e+002, 1.420480e+002
8.257029e+002, 1.421475e+002
8.261851e+002, 1.435427e+002
8.266672e+002, 1.453454e+002
8.271493e+002, 1.466451e+002
8.276314e+002, 1.474099e+002
8.281135e+002, 1.476507e+002
8.285956e+002, 1.474118e+002
8.290778e+002, 1.473441e+002
8.295599e+002, 1.484283e+002
8.300420e+002, 1.504066e+002
8.305241e+002, 1.514181e+002
8.310062e+002, 1.512758e+002
8.314883e+002, 1.513802e+002
8.319705e+002, 1.522090e+002
8.324526e+002, 1.531942e+002
8.329347e+002, 1.537899e+002
8.334168e+002, 1.540425e+002
8.338989e+002, 1.544020e+002
8.343810e+002, 1.550134e+002
8.348632e+002, 1.555105e+002
8.353453e+002, 1.558499e+002
8.358274e+002, 1.560780e+002
8.363095e+002, 1.561925e+002
8.367916e+002, 1.562276e+002
8.372737e+002, 1.562657e+002
8.377559e+002, 1.563382e+002
8.382380e+002, 1.562785e+002
8.387201e+002, 1.556940e+002
8.392022e+002, 1.550854e+002
8.396843e+002, 1.553812e+002
8.401664e+002, 1.562580e+002
8.406486e+002, 1.565826e+002
8.411307e+002, 1.560303e+002
8.416128e+002, 1.552128e+002
8.420949e+002, 1.547136e+002
8.425770e+002, 1.544841e+002
8.430591e+002, 1.543606e+002
8.435413e+002, 1.544067e+002
8.440234e+002, 1.542136e+002
8.445055e+002, 1.536470e+002
8.449876e+002, 1.529544e+002
8.454697e+002, 1.522331e+002
8.459518e+002, 1.515244e+002
8.464340e+002, 1.509401e+002
8.469161e+002, 1.504669e+002
8.473982e+002, 1.501484e+002
8.478803e+002, 1.504403e+002
8.483624e+002, 1.503972e+002
8.488445e+002, 1.491742e+002
8.493267e+002, 1.475149e+002
8.498088e+002, 1.464766e+002
8.502909e+002, 1.462023e+002
8.507730e+002, 1.460006e+002
8.512551e+002, 1.455861e+002
8.517372e+002, 1.448494e+002
8.522194e+002, 1.433905e+002
8.527015e+002, 1.415485e+002
8.531836e+002, 1.401554e+002
8.536657e+002, 1.393420e+002
8.541478e+002, 1.388378e+002
8.546299e+002, 1.384846e+002
8.551121e+002, 1.381913e+002
8.555942e+002, 1.378056e+002
8.560763e+002, 1.373684e+002
8.565584e+002, 1.364090e+002
8.570405e+002, 1.346495e+002
8.575226e+002, 1.330608e+002
8.580048e+002, 1.320742e+002
8.584869e+002, 1.314522e+002
8.589690e+002, 1.309716e+002
8.594511e+002, 1.306645e+002
8.599332e+002, 1.299463e+002
8.604153e+002, 1.282956e+002
8.608975e+002, 1.268719e+002
8.613796e+002, 1.261266e+002
8.618617e+002, 1.256269e+002
8.623438e+002, 1.251221e+002
8.628259e+002, 1.245138e+002
8.633080e+002, 1.236477e+002
8.637902e+002, 1.224095e+002
8.642723e+002, 1.211043e+002
8.647544e+002, 1.199935e+002
8.652365e+002, 1.189650e+002
8.657186e+002, 1.178858e+002
8.662007e+002, 1.167308e+002
8.666829e+002, 1.153758e+002
8.671650e+002, 1.137954e+002
8.676471e+002, 1.124249e+002
8.681292e+002, 1.118897e+002
8.686113e+002, 1.120061e+002
8.690934e+002, 1.116664e+002
8.695756e+002, 1.108243e+002
8.700577e+002, 1.098411e+002
8.705398e+002, 1.087159e+002
8.710219e+002, 1.076644e+002
8.715040e+002, 1.069341e+002
8.719861e+002, 1.063954e+002
8.724683e+002, 1.055193e+002
8.729504e+002, 1.037915e+002
8.734325e+002, 1.027045e+002
8.739146e+002, 1.028387e+002
8.743967e+002, 1.029736e+002
8.748788e+002, 1.026328e+002
8.753610e+002, 1.019731e+002
8.758431e+002, 1.011673e+002
8.763252e+002, 1.002587e+002
8.768073e+002, 9.938589e+001
8.772894e+002, 9.851814e+001
8.777715e+002, 9.780407e+001
8.782537e+002, 9.760488e+001
8.787358e+002, 9.751431e+001
8.792179e+002, 9.675973e+001
8.797000e+002, 9.542492e+001
8.801821e+002, 9.434504e+001
8.806642e+002, 9.400971e+001
8.811464e+002, 9.398016e+001
8.816285e+002, 9.356737e+001
8.821106e+002, 9.285650e+001
8.825927e+002, 9.236218e+001
8.830748e+002, 9.211657e+001
8.835569e+002, 9.176353e+001
8.840391e+002, 9.112831e+001
8.845212e+002, 9.050266e+001
8.850033e+002, 9.027754e+001
8.854854e+002, 9.041766e+001
8.859675e+002, 9.017046e+001
8.864496e+002, 8.928858e+001
8.869318e+002, 8.851318e+001
8.874139e+002, 8.800003e+001
8.878960e+002, 8.754936e+001
8.883781e+002, 8.695850e+001
8.888602e+002, 8.637291e+001
8.893423e+002, 8.614120e+001
8.898245e+002, 8.642464e+001
8.903066e+002, 8.650066e+001
8.907887e+002, 8.603753e+001
8.912708e+002, 8.545645e+001
8.917529e+002, 8.493969e+001
8.922350e+002, 8.449476e+001
8.927172e+002, 8.409306e+001
8.931993e+002, 8.374781e+001
8.936814e+002, 8.353915e+001
8.941635e+002, 8.355384e+001
8.946456e+002, 8.364697e+001
8.951277e+002, 8.364270e+001
8.956099e+002, 8.358442e+001
8.960920e+002, 8.360960e+001
8.965741e+002, 8.370109e+001
8.970562e+002, 8.364827e+001
8.975383e+002, 8.334469e+001
8.980204e+002, 8.297087e+001
8.985026e+002, 8.281548e+001
8.989847e+002, 8.284957e+001
8.994668e+002, 8.263491e+001
8.999489e+002, 8.206960e+001
9.004310e+002, 8.187485e+001
9.009131e+002, 8.241444e+001
9.013953e+002, 8.294728e+001
9.018774e+002, 8.274171e+001
9.023595e+002, 8.201738e+001
9.028416e+002, 8.179459e+001
9.033237e+002, 8.265757e+001
9.038058e+002, 8.295869e+001
9.042880e+002, 8.212370e+001
9.047701e+002, 8.141497e+001
9.052522e+002, 8.140572e+001
9.057343e+002, 8.176255e+001
9.062164e+002, 8.216134e+001
9.066985e+002, 8.254002e+001
9.071807e+002, 8.266689e+001
9.076628e+002, 8.205540e+001
9.081449e+002, 8.164668e+001
9.086270e+002, 8.223367e+001
9.091091e+002, 8.310653e+001
9.095912e+002, 8.346594e+001
9.100734e+002, 8.334715e+001
9.105555e+002, 8.316737e+001
9.110376e+002, 8.310681e+001
9.115197e+002, 8.311699e+001
9.120018e+002, 8.316843e+001
9.124839e+002, 8.324502e+001
9.129661e+002, 8.325952e+001
9.134482e+002, 8.325623e+001
9.139303e+002, 8.349874e+001
9.144124e+002, 8.405214e+001
9.148945e+002, 8.460327e+001
9.153766e+002, 8.487291e+001
9.158588e+002, 8.493977e+001
9.163409e+002, 8.504980e+001
9.168230e+002, 8.520956e+001
9.173051e+002, 8.531638e+001
9.177872e+002, 8.527862e+001
9.182693e+002, 8.549024e+001
9.187515e+002, 8.627689e+001
9.192336e+002, 8.724094e+001
9.197157e+002, 8.772562e+001
9.201978e+002, 8.766199e+001
9.206799e+002, 8.781893e+001
9.211620e+002, 8.838807e+001
9.216442e+002, 8.891317e+001
9.221263e+002, 8.942727e+001
9.226084e+002, 8.978995e+001
9.230905e+002, 8.974207e+001
9.235726e+002, 8.949993e+001
9.240547e+002, 8.960340e+001
9.245369e+002, 9.025607e+001
9.250190e+002, 9.081030e+001
9.255011e+002, 9.087085e+001
9.259832e+002, 9.093185e+001
9.264653e+002, 9.136745e+001
9.269474e+002, 9.199213e+001
9.274296e+002, 9.257227e+001
9.279117e+002, 9.304106e+001
9.283938e+002, 9.334716e+001
9.288759e+002, 9.336636e+001
9.293580e+002, 9.343674e+001
9.298401e+002, 9.409949e+001
9.303223e+002, 9.500620e+001
9.308044e+002, 9.546479e+001
9.312865e+002, 9.550152e+001
9.317686e+002, 9.551656e+001
9.322507e+002, 9.567000e+001
9.327328e+002, 9.582278e+001
9.332150e+002, 9.577498e+001
9.336971e+002, 9.562102e+001
9.341792e+002, 9.578946e+001
9.346613e+002, 9.627883e+001
9.351434e+002, 9.658526e+001
9.356255e+002, 9.658446e+001
9.361077e+002, 9.660611e+001
9.365898e+002, 9.686555e+001
9.370719e+002, 9.729456e+001
9.375540e+002, 9.777800e+001
9.380361e+002, 9.837438e+001
9.385182e+002, 9.867052e+001
9.390004e+002, 9.845435e+001
9.394825e+002, 9.834325e+001
9.399646e+002, 9.840091e+001
9.404467e+002, 9.873698e+001
9.409288e+002, 9.969930e+001
9.414109e+002, 1.010778e+002
9.418931e+002, 1.019012e+002
9.423752e+002, 1.018194e+002
9.428573e+002, 1.017698e+002
9.433394e+002, 1.017428e+002
9.438215e+002, 1.019039e+002
9.443036e+002, 1.024876e+002
9.447858e+002, 1.032263e+002
9.452679e+002, 1.037232e+002
9.457500e+002, 1.039633e+002
9.462321e+002, 1.043562e+002
9.467142e+002, 1.053741e+002
9.471964e+002, 1.062055e+002
9.476785e+002, 1.061855e+002
9.481606e+002, 1.058537e+002
9.486427e+002, 1.056738e+002
9.491248e+002, 1.057424e+002
9.496069e+002, 1.062157e+002
9.500891e+002, 1.071245e+002
9.505712e+002, 1.078986e+002
9.510533e+002, 1.079146e+002
9.515354e+002, 1.075261e+002
9.520175e+002, 1.071858e+002
9.524996e+002, 1.069457e+002
9.529818e+002, 1.070505e+002
9.534639e+002, 1.074820e+002
9.539460e+002, 1.077377e+002
9.544281e+002, 1.074761e+002
9.549102e+002, 1.070980e+002
9.553923e+002, 1.074833e+002
9.558745e+002, 1.084891e+002
9.563566e+002, 1.085549e+002
9.568387e+002, 1.076029e+002
9.573208e+002, 1.071141e+002
9.578029e+002, 1.076196e+002
9.582850e+002, 1.082142e+002
9.587672e+002, 1.079948e+002
9.592493e+002, 1.072511e+002
9.597314e+002, 1.072677e+002
9.602135e+002, 1.084780e+002
9.606956e+002, 1.087847e+002
9.611777e+002, 1.075565e+002
9.616599e+002, 1.065714e+002
9.621420e+002, 1.066967e+002
9.626241e+002, 1.073003e+002
9.631062e+002, 1.076780e+002
9.635883e+002, 1.078284e+002
9.640704e+002, 1.077702e+002
9.645526e+002, 1.073599e+002
9.650347e+002, 1.069620e+002
9.655168e+002, 1.064612e+002
9.659989e+002, 1.061342e+002
9.664810e+002, 1.062183e+002
9.669631e+002, 1.065334e+002
9.674453e+002, 1.068569e+002
9.679274e+002, 1.071693e+002
9.684095e+002, 1.072613e+002
9.688916e+002, 1.069214e+002
9.693737e+002, 1.065436e+002
9.698558e+002, 1.063574e+002
9.703380e+002, 1.061683e+002
9.708201e+002, 1.056605e+002
9.713022e+002, 1.050108e+002
9.717843e+002, 1.046996e+002
9.722664e+002, 1.049007e+002
9.727485e+002, 1.052029e+002
9.732307e+002, 1.054006e+002
9.737128e+002, 1.055071e+002
9.741949e+002, 1.054569e+002
9.746770e+002, 1.053600e+002
9.751591e+002, 1.055125e+002
9.756412e+002, 1.058436e+002
9.761234e+002, 1.058199e+002
9.766055e+002, 1.051042e+002
9.770876e+002, 1.042821e+002
9.775698e+002, 1.039583e+002
9.780519e+002, 1.040871e+002
9.785340e+002, 1.048072e+002
9.790161e+002, 1.059154e+002
9.794982e+002, 1.065559e+002
9.799803e+002, 1.065343e+002
9.804625e+002, 1.064348e+002
9.809446e+002, 1.067607e+002
9.814267e+002, 1.071786e+002
9.819088e+002, 1.068284e+002
9.823909e+002, 1.058182e+002
9.828730e+002, 1.052051e+002
9.833552e+002, 1.050590e+002
9.838373e+002, 1.051160e+002
9.843194e+002, 1.053086e+002
9.848015e+002, 1.054754e+002
9.852836e+002, 1.054205e+002
9.857657e+002, 1.052172e+002
9.862479e+002, 1.052502e+002
9.867300e+002, 1.055786e+002
9.872121e+002, 1.058207e+002
9.876942e+002, 1.058949e+002
9.881763e+002, 1.060438e+002
9.886584e+002, 1.063960e+002
9.891406e+002, 1.068556e+002
9.896227e+002, 1.073085e+002
9.901048e+002, 1.077573e+002
9.905869e+002, 1.081335e+002
9.910690e+002, 1.085265e+002
9.915511e+002, 1.086558e+002
9.920333e+002, 1.080454e+002
9.925154e+002, 1.077203e+002
9.929975e+002, 1.085301e+002
9.934796e+002, 1.098133e+002
9.939617e+002, 1.104931e+002
9.944438e+002, 1.104980e+002
9.949260e+002, 1.106580e+002
9.954081e+002, 1.110724e+002
9.958902e+002, 1.115793e+002
9.963723e+002, 1.124657e+002
9.968544e+002, 1.131228e+002
9.973365e+002, 1.128643e+002
9.978187e+002, 1.121669e+002
9.983008e+002, 1.120028e+002
9.987829e+002, 1.125663e+002
9.992650e+002, 1.131197e+002
9.997471e+002, 1.135333e+002
1.000229e+003, 1.137751e+002
1.000711e+003, 1.137499e+002
1.001193e+003, 1.136123e+002
1.001676e+003, 1.134394e+002
1.002158e+003, 1.132944e+002
1.002640e+003, 1.132766e+002
1.003122e+003, 1.134157e+002
1.003604e+003, 1.136847e+002
1.004086e+003, 1.141929e+002
1.004568e+003, 1.146979e+002
1.005050e+003, 1.150052e+002
1.005533e+003, 1.151870e+002
1.006015e+003, 1.153223e+002
1.006497e+003, 1.154395e+002
1.006979e+003, 1.156064e+002
1.007461e+003, 1.158730e+002
1.007943e+003, 1.159816e+002
1.008425e+003, 1.154451e+002
1.008907e+003, 1.148232e+002
1.009389e+003, 1.149175e+002
1.009872e+003, 1.154785e+002
1.010354e+003, 1.159385e+002
1.010836e+003, 1.162234e+002
1.011318e+003, 1.166135e+002
1.011800e+003, 1.172870e+002
1.012282e+003, 1.179797e+002
1.012764e+003, 1.183552e+002
1.013246e+003, 1.185148e+002
1.013729e+003, 1.185662e+002
1.014211e+003, 1.186030e+002
1.014693e+003, 1.190210e+002
1.015175e+003, 1.198599e+002
1.015657e+003, 1.206428e+002
1.016139e+003, 1.210426e+002
1.016621e+003, 1.211773e+002
1.017103e+003, 1.211371e+002
1.017585e+003, 1.210039e+002
1.018068e+003, 1.211599e+002
1.018550e+003, 1.215993e+002
1.019032e+003, 1.221526e+002
1.019514e+003, 1.227692e+002
1.019996e+003, 1.235284e+002
1.020478e+003, 1.245478e+002
1.020960e+003, 1.255481e+002
1.021442e+003, 1.256938e+002
1.021924e+003, 1.250378e+002
1.022407e+003, 1.251190e+002
1.022889e+003, 1.260407e+002
1.023371e+003, 1.266764e+002
1.023853e+003, 1.266215e+002
1.024335e+003, 1.265592e+002
1.024817e+003, 1.271274e+002
1.025299e+003, 1.281047e+002
1.025781e+003, 1.287683e+002
1.026264e+003, 1.290568e+002
1.026746e+003, 1.296087e+002
1.027228e+003, 1.305267e+002
1.027710e+003, 1.313065e+002
1.028192e+003, 1.317748e+002
1.028674e+003, 1.320539e+002
1.029156e+003, 1.322302e+002
1.029638e+003, 1.323352e+002
1.030120e+003, 1.324723e+002
1.030603e+003, 1.325686e+002
1.031085e+003, 1.329881e+002
1.031567e+003, 1.338487e+002
1.032049e+003, 1.347813e+002
1.032531e+003, 1.358261e+002
1.033013e+003, 1.366267e+002
1.033495e+003, 1.367461e+002
1.033977e+003, 1.363215e+002
1.034459e+003, 1.360407e+002
1.034942e+003, 1.359322e+002
1.035424e+003, 1.358898e+002
1.035906e+003, 1.358066e+002
1.036388e+003, 1.359786e+002
1.036870e+003, 1.366641e+002
1.037352e+003, 1.374866e+002
1.037834e+003, 1.381767e+002
1.038316e+003, 1.386992e+002
1.038799e+003, 1.388367e+002
1.039281e+003, 1.382642e+002
1.039763e+003, 1.379435e+002
1.040245e+003, 1.383161e+002
1.040727e+003, 1.383704e+002
1.041209e+003, 1.371969e+002
1.041691e+003, 1.360194e+002
1.042173e+003, 1.362034e+002
1.042656e+003, 1.374616e+002
1.043138e+003, 1.382672e+002
1.043620e+003, 1.382490e+002
1.044102e+003, 1.384112e+002
1.044584e+003, 1.392107e+002
1.045066e+003, 1.397048e+002
1.045548e+003, 1.392257e+002
1.046030e+003, 1.385329e+002
1.046512e+003, 1.383546e+002
1.046995e+003, 1.386333e+002
1.047477e+003, 1.389813e+002
1.047959e+003, 1.394596e+002
1.048441e+003, 1.397717e+002
1.048923e+003, 1.397154e+002
1.049405e+003, 1.396797e+002
1.049887e+003, 1.396734e+002
1.050369e+003, 1.398814e+002
1.050851e+003, 1.406799e+002
1.051334e+003, 1.418720e+002
1.051816e+003, 1.425984e+002
1.052298e+003, 1.423882e+002
1.052780e+003, 1.426301e+002
1.053262e+003, 1.443542e+002
1.053744e+003, 1.457354e+002
1.054226e+003, 1.455168e+002
1.054708e+003, 1.448662e+002
1.055191e+003, 1.449788e+002
1.055673e+003, 1.457514e+002
1.056155e+003, 1.464325e+002
1.056637e+003, 1.467702e+002
1.057119e+003, 1.473305e+002
1.057601e+003, 1.486428e+002
1.058083e+003, 1.497840e+002
1.058565e+003, 1.501693e+002
1.059047e+003, 1.502545e+002
1.059530e+003, 1.503638e+002
1.060012e+003, 1.506165e+002
1.060494e+003, 1.512553e+002
1.060976e+003, 1.524515e+002
1.061458e+003, 1.534817e+002
1.061940e+003, 1.540334e+002
1.062422e+003, 1.544351e+002
1.062904e+003, 1.547572e+002
1.063386e+003, 1.550975e+002
1.063869e+003, 1.555396e+002
1.064351e+003, 1.560805e+002
1.064833e+003, 1.566588e+002
1.065315e+003, 1.572385e+002
1.065797e+003, 1.580259e+002
1.066279e+003, 1.592607e+002
1.066761e+003, 1.605309e+002
1.067243e+003, 1.617154e+002
1.067726e+003, 1.627447e+002
1.068208e+003, 1.634622e+002
1.068690e+003, 1.639961e+002
1.069172e+003, 1.647614e+002
1.069654e+003, 1.658926e+002
1.070136e+003, 1.665493e+002
1.070618e+003, 1.657415e+002
1.071100e+003, 1.651403e+002
1.071583e+003, 1.656965e+002
1.072065e+003, 1.668089e+002
1.072547e+003, 1.680048e+002
1.073029e+003, 1.692507e+002
1.073511e+003, 1.707535e+002
1.073993e+003, 1.725435e+002
1.074475e+003, 1.738926e+002
1.074957e+003, 1.739504e+002
1.075439e+003, 1.741629e+002
1.075922e+003, 1.754731e+002
1.076404e+003, 1.770692e+002
1.076886e+003, 1.780840e+002
1.077368e+003, 1.788950e+002
1.077850e+003, 1.804632e+002
1.078332e+003, 1.828909e+002
1.078814e+003, 1.848991e+002
1.079296e+003, 1.855570e+002
1.079779e+003, 1.862019e+002
1.080261e+003, 1.874423e+002
1.080743e+003, 1.889523e+002
1.081225e+003, 1.906754e+002
1.081707e+003, 1.923649e+002
1.082189e+003, 1.934450e+002
1.082671e+003, 1.939999e+002
1.083153e+003, 1.953036e+002
1.083635e+003, 1.984043e+002
1.084118e+003, 2.012745e+002
1.084600e+003, 2.027676e+002
1.085082e+003, 2.039380e+002
1.085564e+003, 2.053264e+002
1.086046e+003, 2.070016e+002
1.086528e+003, 2.091864e+002
1.087010e+003, 2.117229e+002
1.087492e+003, 2.137899e+002
1.087974e+003, 2.148964e+002
1.088457e+003, 2.161363e+002
1.088939e+003, 2.177888e+002
1.089421e+003, 2.199274e+002
1.089903e+003, 2.232088e+002
1.090385e+003, 2.265766e+002
1.090867e+003, 2.287566e+002
1.091349e+003, 2.298765e+002
1.091831e+003, 2.308765e+002
1.092314e+003, 2.319474e+002
1.092796e+003, 2.331167e+002
1.093278e+003, 2.344790e+002
1.093760e+003, 2.358294e+002
1.094242e+003, 2.370272e+002
1.094724e+003, 2.381862e+002
1.095206e+003, 2.395383e+002
1.095688e+003, 2.409267e+002
1.096171e+003, 2.419800e+002
1.096653e+003, 2.426277e+002
1.097135e+003, 2.428980e+002
1.097617e+003, 2.422998e+002
1.098099e+003, 2.419836e+002
1.098581e+003, 2.426822e+002
1.099063e+003, 2.435748e+002
1.099545e+003, 2.440743e+002
1.100027e+003, 2.442558e+002
1.100510e+003, 2.443836e+002
1.100992e+003, 2.445018e+002
1.101474e+003, 2.442432e+002
1.101956e+003, 2.429147e+002
1.102438e+003, 2.420801e+002
1.102920e+003, 2.425122e+002
1.103402e+003, 2.431756e+002
1.103884e+003, 2.434077e+002
1.104366e+003, 2.434847e+002
1.104849e+003, 2.439007e+002
1.105331e+003, 2.446518e+002
1.105813e+003, 2.451811e+002
1.106295e+003, 2.451789e+002
1.106777e+003, 2.453067e+002
1.107259e+003, 2.457978e+002
1.107741e+003, 2.462586e+002
1.108223e+003, 2.463228e+002
1.108706e+003, 2.464055e+002
1.109188e+003, 2.471389e+002
1.109670e+003, 2.483423e+002
1.110152e+003, 2.489832e+002
1.110634e+003, 2.486965e+002
1.111116e+003, 2.485389e+002
1.111598e+003, 2.483562e+002
1.112080e+003, 2.485794e+002
1.112563e+003, 2.498228e+002
1.113045e+003, 2.510699e+002
1.113527e+003, 2.512751e+002
1.114009e+003, 2.509269e+002
1.114491e+003, 2.513754e+002
1.114973e+003, 2.528720e+002
1.115455e+003, 2.540609e+002
1.115937e+003, 2.540472e+002
1.116419e+003, 2.553889e+002
1.116901e+003, 2.602027e+002
1.117384e+003, 2.640738e+002
1.117866e+003, 2.637253e+002
1.118348e+003, 2.613432e+002
1.118830e+003, 2.605493e+002
1.119312e+003, 2.613814e+002
1.119794e+003, 2.623199e+002
1.120276e+003, 2.634333e+002
1.120758e+003, 2.644534e+002
1.121241e+003, 2.653705e+002
1.121723e+003, 2.661437e+002
1.122205e+003, 2.666819e+002
1.122687e+003, 2.671760e+002
1.123169e+003, 2.677765e+002
1.123651e+003, 2.685543e+002
1.124133e+003, 2.699912e+002
1.124615e+003, 2.723106e+002
1.125098e+003, 2.742400e+002
1.125580e+003, 2.757111e+002
1.126062e+003, 2.768644e+002
1.126544e+003, 2.776583e+002
1.127026e+003, 2.784857e+002
1.127508e+003, 2.797260e+002
1.127990e+003, 2.811558e+002
1.128472e+003, 2.821872e+002
1.128954e+003, 2.828112e+002
1.129437e+003, 2.835019e+002
1.129919e+003, 2.842575e+002
1.130401e+003, 2.850834e+002
1.130883e+003, 2.859612e+002
1.131365e+003, 2.872756e+002
1.131847e+003, 2.893010e+002
1.132329e+003, 2.915641e+002
1.132811e+003, 2.932966e+002
1.133293e+003, 2.946639e+002
1.133776e+003, 2.965237e+002
1.134258e+003, 2.987915e+002
1.134740e+003, 3.006387e+002
1.135222e+003, 3.020049e+002
1.135704e+003, 3.035689e+002
1.136186e+003, 3.055982e+002
1.136668e+003, 3.076592e+002
1.137150e+003, 3.092932e+002
1.137633e+003, 3.107434e+002
1.138115e+003, 3.125940e+002
1.138597e+003, 3.146501e+002
1.139079e+003, 3.163676e+002
1.139561e+003, 3.177367e+002
1.140043e+003, 3.186992e+002
1.140525e+003, 3.193738e+002
1.141007e+003, 3.206602e+002
1.141490e+003, 3.232197e+002
1.141972e+003, 3.259187e+002
1.142454e+003, 3.272740e+002
1.142936e+003, 3.279818e+002
1.143418e+003, 3.289435e+002
1.143900e+003, 3.302323e+002
1.144382e+003, 3.320594e+002
1.144864e+003, 3.343022e+002
1.145346e+003, 3.364489e+002
1.145828e+003, 3.382981e+002
1.146311e+003, 3.402134e+002
1.146793e+003, 3.425977e+002
1.147275e+003, 3.450323e+002
1.147757e+003, 3.467549e+002
1.148239e+003, 3.485791e+002
1.148721e+003, 3.519861e+002
1.149203e+003, 3.560525e+002
1.149685e+003, 3.588334e+002
1.150168e+003, 3.600527e+002
1.150650e+003, 3.610539e+002
1.151132e+003, 3.622054e+002
1.151614e+003, 3.637754e+002
1.152096e+003, 3.662447e+002
1.152578e+003, 3.688016e+002
1.153060e+003, 3.709442e+002
1.153542e+003, 3.728285e+002
1.154025e+003, 3.742720e+002
1.154507e+003, 3.756900e+002
1.154989e+003, 3.785341e+002
1.155471e+003, 3.835813e+002
1.155953e+003, 3.875616e+002
1.156435e+003, 3.888208e+002
1.156917e+003, 3.901686e+002
1.157399e+003, 3.927588e+002
1.157881e+003, 3.954781e+002
1.158364e+003, 3.974890e+002
1.158846e+003, 3.991530e+002
1.159328e+003, 4.010475e+002
1.159810e+003, 4.031905e+002
1.160292e+003, 4.056425e+002
1.160774e+003, 4.084083e+002
1.161256e+003, 4.114827e+002
1.161738e+003, 4.153008e+002
1.162220e+003, 4.187078e+002
1.162703e+003, 4.210419e+002
1.163185e+003, 4.231341e+002
1.163667e+003, 4.257331e+002
1.164149e+003, 4.287563e+002
1.164631e+003, 4.320021e+002
1.165113e+003, 4.355868e+002
1.165595e+003, 4.385783e+002
1.166077e+003, 4.407499e+002
1.166560e+003, 4.434616e+002
1.167042e+003, 4.471297e+002
1.167524e+003, 4.508195e+002
1.168006e+003, 4.540020e+002
1.168488e+003, 4.566714e+002
1.168970e+003, 4.584979e+002
1.169452e+003, 4.599440e+002
1.169934e+003, 4.637916e+002
1.170417e+003, 4.698101e+002
1.170899e+003, 4.745900e+002
1.171381e+003, 4.778492e+002
1.171863e+003, 4.806557e+002
1.172345e+003, 4.833812e+002
1.172827e+003, 4.859849e+002
1.173309e+003, 4.883654e+002
1.173791e+003, 4.909293e+002
1.174273e+003, 4.943886e+002
1.174755e+003, 4.985410e+002
1.175238e+003, 5.030294e+002
1.175720e+003, 5.078062e+002
1.176202e+003, 5.131538e+002
1.176684e+003, 5.187317e+002
1.177166e+003, 5.227220e+002
1.177648e+003, 5.244097e+002
1.178130e+003, 5.262629e+002
1.178612e+003, 5.310004e+002
1.179095e+003, 5.361965e+002
1.179577e+003, 5.390012e+002
1.180059e+003, 5.412179e+002
1.180541e+003, 5.449893e+002
1.181023e+003, 5.499604e+002
1.181505e+003, 5.553646e+002
1.181987e+003, 5.608496e+002
1.182469e+003, 5.657025e+002
1.182952e+003, 5.693370e+002
1.183434e+003, 5.730955e+002
1.183916e+003, 5.776533e+002
1.184398e+003, 5.823795e+002
1.184880e+003, 5.867466e+002
1.185362e+003, 5.912825e+002
1.185844e+003, 5.968843e+002
1.186326e+003, 6.029724e+002
1.186808e+003, 6.079669e+002
1.187291e+003, 6.115240e+002
1.187773e+003, 6.159489e+002
1.188255e+003, 6.220872e+002
1.188737e+003, 6.281707e+002
1.189219e+003, 6.342599e+002
1.189701e+003, 6.399362e+002
1.190183e+003, 6.446089e+002
1.190665e+003, 6.492448e+002
1.191147e+003, 6.548224e+002
1.191630e+003, 6.612432e+002
1.192112e+003, 6.680905e+002
1.192594e+003, 6.755880e+002
1.193076e+003, 6.824885e+002
1.193558e+003, 6.888862e+002
1.194040e+003, 6.938797e+002
1.194522e+003, 6.969149e+002
1.195004e+003, 7.005417e+002
1.195487e+003, 7.063286e+002
1.195969e+003, 7.133199e+002
1.196451e+003, 7.203555e+002
1.196933e+003, 7.274369e+002
1.197415e+003, 7.343411e+002
1.197897e+003, 7.412602e+002
1.198379e+003, 7.495863e+002
1.198861e+003, 7.590927e+002
1.199344e+003, 7.670684e+002
1.199826e+003, 7.729486e+002
1.200308e+003, 7.791174e+002
1.200790e+003, 7.873599e+002
1.201272e+003, 7.957886e+002
1.201754e+003, 8.012064e+002
1.202236e+003, 8.061879e+002
1.202718e+003, 8.150858e+002
1.203200e+003, 8.258027e+002
1.203682e+003, 8.344142e+002
1.204165e+003, 8.413348e+002
1.204647e+003, 8.491733e+002
1.205129e+003, 8.586213e+002
1.205611e+003, 8.683683e+002
1.206093e+003, 8.777193e+002
1.206575e+003, 8.870666e+002
1.207057e+003, 8.966913e+002
1.207539e+003, 9.062667e+002
1.208022e+003, 9.153126e+002
1.208504e+003, 9.244935e+002
1.208986e+003, 9.344506e+002
1.209468e+003, 9.453043e+002
1.209950e+003, 9.573118e+002
1.210432e+003, 9.711492e+002
1.210914e+003, 9.835939e+002
1.211396e+003, 9.924783e+002
1.211879e+003, 1.003093e+003
1.212361e+003, 1.017071e+003
1.212843e+003, 1.031520e+003
1.213325e+003, 1.045210e+003
1.213807e+003, 1.058250e+003
1.214289e+003, 1.070687e+003
1.214771e+003, 1.082708e+003
1.215253e+003, 1.095192e+003
1.215735e+003, 1.107922e+003
1.216218e+003, 1.123012e+003
1.216700e+003, 1.140815e+003
1.217182e+003, 1.156894e+003
1.217664e+003, 1.170283e+003
1.218146e+003, 1.183041e+003
1.218628e+003, 1.196403e+003
1.219110e+003, 1.210510e+003
1.219592e+003, 1.225327e+003
1.220074e+003, 1.241293e+003
1.220557e+003, 1.260815e+003
1.221039e+003, 1.281842e+003
1.221521e+003, 1.298337e+003
1.222003e+003, 1.311400e+003
1.222485e+003, 1.325996e+003
1.222967e+003, 1.343009e+003
1.223449e+003, 1.359335e+003
1.223931e+003, 1.372956e+003
1.224414e+003, 1.387138e+003
1.224896e+003, 1.404647e+003
1.225378e+003, 1.423390e+003
1.225860e+003, 1.443033e+003
1.226342e+003, 1.461745e+003
1.226824e+003, 1.476517e+003
1.227306e+003, 1.489383e+003
1.227788e+003, 1.504155e+003
1.228271e+003, 1.521434e+003
1.228753e+003, 1.539949e+003
1.229235e+003, 1.560895e+003
1.229717e+003, 1.580627e+003
1.230199e+003, 1.597899e+003
1.230681e+003, 1.614826e+003
1.231163e+003, 1.630654e+003
1.231645e+003, 1.648406e+003
1.232127e+003, 1.671703e+003
1.232609e+003, 1.697092e+003
1.233092e+003, 1.717486e+003
1.233574e+003, 1.733123e+003
1.234056e+003, 1.751181e+003
1.234538e+003, 1.771979e+003
1.235020e+003, 1.792357e+003
1.235502e+003, 1.811784e+003
1.235984e+003, 1.832555e+003
1.236466e+003, 1.855305e+003
1.236949e+003, 1.879072e+003
1.237431e+003, 1.903115e+003
1.237913e+003, 1.926747e+003
1.238395e+003, 1.948255e+003
1.238877e+003, 1.968743e+003
1.239359e+003, 1.991375e+003
1.239841e+003, 2.015206e+003
1.240323e+003, 2.038057e+003
1.240806e+003, 2.060089e+003
1.241288e+003, 2.082784e+003
1.241770e+003, 2.106577e+003
1.242252e+003, 2.130931e+003
1.242734e+003, 2.155872e+003
1.243216e+003, 2.180825e+003
1.243698e+003, 2.205865e+003
1.244180e+003, 2.230138e+003
1.244662e+003, 2.252120e+003
1.245145e+003, 2.273781e+003
1.245627e+003, 2.297635e+003
1.246109e+003, 2.322590e+003
1.246591e+003, 2.346034e+003
1.247073e+003, 2.367491e+003
1.247555e+003, 2.389384e+003
1.248037e+003, 2.412064e+003
1.248519e+003, 2.434445e+003
1.249001e+003, 2.456615e+003
1.249484e+003, 2.478239e+003
1.249966e+003, 2.498823e+003
1.250448e+003, 2.520113e+003
1.250930e+003, 2.543798e+003
1.251412e+003, 2.568503e+003
1.251894e+003, 2.591806e+003
1.252376e+003, 2.613677e+003
1.252858e+003, 2.632831e+003
1.253341e+003, 2.649516e+003
1.253823e+003, 2.666714e+003
1.254305e+003, 2.684524e+003
1.254787e+003, 2.700978e+003
1.255269e+003, 2.715688e+003
1.255751e+003, 2.731030e+003
1.256233e+003, 2.748967e+003
1.256715e+003, 2.766098e+003
1.257198e+003, 2.777601e+003
1.257680e+003, 2.787585e+003
1.258162e+003, 2.800793e+003
1.258644e+003, 2.815258e+003
1.259126e+003, 2.829135e+003
1.259608e+003, 2.841932e+003
1.260090e+003, 2.853512e+003
1.260572e+003, 2.863794e+003
1.261054e+003, 2.872331e+003
1.261536e+003, 2.878198e+003
1.262019e+003, 2.884143e+003
1.262501e+003, 2.891263e+003
1.262983e+003, 2.897654e+003
1.263465e+003, 2.902304e+003
1.263947e+003, 2.906516e+003
1.264429e+003, 2.911500e+003
1.264911e+003, 2.915901e+003
1.265393e+003, 2.917450e+003
1.265876e+003, 2.916629e+003
1.266358e+003, 2.917169e+003
1.266840e+003, 2.919210e+003
1.267322e+003, 2.919996e+003
1.267804e+003, 2.919433e+003
1.268286e+003, 2.918371e+003
1.268768e+003, 2.916954e+003
1.269250e+003, 2.912981e+003
1.269733e+003, 2.905199e+003
1.270215e+003, 2.898385e+003
1.270697e+003, 2.899527e+003
1.271179e+003, 2.901934e+003
1.271661e+003, 2.894120e+003
1.272143e+003, 2.882828e+003
1.272625e+003, 2.877849e+003
1.273107e+003, 2.876735e+003
1.273589e+003, 2.874468e+003
1.274072e+003, 2.870206e+003
1.274554e+003, 2.864453e+003
1.275036e+003, 2.857049e+003
1.275518e+003, 2.850335e+003
1.276000e+003, 2.846140e+003
1.276482e+003, 2.840895e+003
1.276964e+003, 2.832487e+003
1.277446e+003, 2.824906e+003
1.277929e+003, 2.819645e+003
1.278411e+003, 2.815311e+003
1.278893e+003, 2.811239e+003
1.279375e+003, 2.806658e+003
1.279857e+003, 2.798512e+003
1.280339e+003, 2.786723e+003
1.280821e+003, 2.781453e+003
1.281303e+003, 2.783208e+003
1.281786e+003, 2.782325e+003
1.282268e+003, 2.777364e+003
##END=



