##NAMES=Sulfoborite
##RRUFFID=R140689
##IDEAL CHEMISTRY=Mg_3_[B(OH)_4_]_2_(S^6+^O_4_)(OH,F)_2_
##LOCALITY=Gröna mine, Bernburg, Stassfurt Potash Deposit, Saxony-Anhalt, Germany
##OWNER=RRUFF
##SOURCE=Rock Currier
##DESCRIPTION=Colorless prismatic orthorhombic crystals. Locality is listed as 'Bernburg-Gröna, Bezirk Halle', 'Gröna Mine, Bernburg' is a guess.
##STATUS=The identification of this mineral has been confirmed only by single crystal X-ray diffraction.
##URL=rruff.info/R140689
8.813672e+001, 4.386846e+002
8.861884e+001, 4.426571e+002
8.910095e+001, 4.479785e+002
8.958307e+001, 4.555795e+002
9.006519e+001, 4.646068e+002
9.054730e+001, 4.741843e+002
9.102942e+001, 4.847629e+002
9.151154e+001, 4.950986e+002
9.199365e+001, 5.047138e+002
9.247577e+001, 5.134844e+002
9.295789e+001, 5.208265e+002
9.344000e+001, 5.256903e+002
9.392212e+001, 5.287283e+002
9.440424e+001, 5.323992e+002
9.488635e+001, 5.373594e+002
9.536847e+001, 5.429895e+002
9.585059e+001, 5.480112e+002
9.633270e+001, 5.524514e+002
9.681482e+001, 5.573490e+002
9.729694e+001, 5.630271e+002
9.777905e+001, 5.695014e+002
9.826117e+001, 5.771321e+002
9.874329e+001, 5.860268e+002
9.922540e+001, 5.958170e+002
9.970752e+001, 6.058301e+002
1.001896e+002, 6.158926e+002
1.006718e+002, 6.263088e+002
1.011539e+002, 6.369943e+002
1.016360e+002, 6.478088e+002
1.021181e+002, 6.596912e+002
1.026002e+002, 6.725771e+002
1.030823e+002, 6.865031e+002
1.035645e+002, 7.020941e+002
1.040466e+002, 7.205742e+002
1.045287e+002, 7.392818e+002
1.050108e+002, 7.563495e+002
1.054929e+002, 7.714896e+002
1.059750e+002, 7.855016e+002
1.064572e+002, 7.986204e+002
1.069393e+002, 8.110163e+002
1.074214e+002, 8.218572e+002
1.079035e+002, 8.322704e+002
1.083856e+002, 8.408306e+002
1.088677e+002, 8.458196e+002
1.093499e+002, 8.445526e+002
1.098320e+002, 8.425706e+002
1.103141e+002, 8.403066e+002
1.107962e+002, 8.364785e+002
1.112783e+002, 8.363258e+002
1.117604e+002, 8.411649e+002
1.122426e+002, 8.496553e+002
1.127247e+002, 8.597003e+002
1.132068e+002, 8.702121e+002
1.136889e+002, 8.828065e+002
1.141710e+002, 8.984473e+002
1.146531e+002, 9.191406e+002
1.151353e+002, 9.392167e+002
1.156174e+002, 9.588040e+002
1.160995e+002, 9.770284e+002
1.165816e+002, 9.919424e+002
1.170637e+002, 1.000890e+003
1.175458e+002, 1.007295e+003
1.180280e+002, 1.013307e+003
1.185101e+002, 1.017967e+003
1.189922e+002, 1.024193e+003
1.194743e+002, 1.033195e+003
1.199564e+002, 1.044971e+003
1.204385e+002, 1.059353e+003
1.209207e+002, 1.078425e+003
1.214028e+002, 1.099418e+003
1.218849e+002, 1.119130e+003
1.223670e+002, 1.136451e+003
1.228491e+002, 1.152372e+003
1.233312e+002, 1.168400e+003
1.238134e+002, 1.184424e+003
1.242955e+002, 1.197720e+003
1.247776e+002, 1.205951e+003
1.252597e+002, 1.209764e+003
1.257418e+002, 1.210546e+003
1.262239e+002, 1.207342e+003
1.267061e+002, 1.201710e+003
1.271882e+002, 1.196076e+003
1.276703e+002, 1.190369e+003
1.281524e+002, 1.184754e+003
1.286345e+002, 1.179303e+003
1.291166e+002, 1.174063e+003
1.295988e+002, 1.169230e+003
1.300809e+002, 1.164822e+003
1.305630e+002, 1.160907e+003
1.310451e+002, 1.157348e+003
1.315272e+002, 1.153896e+003
1.320093e+002, 1.151769e+003
1.324915e+002, 1.153080e+003
1.329736e+002, 1.157842e+003
1.334557e+002, 1.163938e+003
1.339378e+002, 1.171064e+003
1.344199e+002, 1.179048e+003
1.349020e+002, 1.184663e+003
1.353842e+002, 1.186937e+003
1.358663e+002, 1.187511e+003
1.363484e+002, 1.190132e+003
1.368305e+002, 1.195078e+003
1.373126e+002, 1.200601e+003
1.377947e+002, 1.205482e+003
1.382769e+002, 1.209539e+003
1.387590e+002, 1.214163e+003
1.392411e+002, 1.219673e+003
1.397232e+002, 1.225783e+003
1.402053e+002, 1.231096e+003
1.406874e+002, 1.235629e+003
1.411696e+002, 1.239535e+003
1.416517e+002, 1.242758e+003
1.421338e+002, 1.245019e+003
1.426159e+002, 1.247617e+003
1.430980e+002, 1.250830e+003
1.435801e+002, 1.254659e+003
1.440623e+002, 1.258806e+003
1.445444e+002, 1.263786e+003
1.450265e+002, 1.268651e+003
1.455086e+002, 1.272541e+003
1.459907e+002, 1.274961e+003
1.464728e+002, 1.277359e+003
1.469550e+002, 1.280401e+003
1.474371e+002, 1.284231e+003
1.479192e+002, 1.286126e+003
1.484013e+002, 1.285139e+003
1.488834e+002, 1.282773e+003
1.493655e+002, 1.280369e+003
1.498477e+002, 1.278001e+003
1.503298e+002, 1.275494e+003
1.508119e+002, 1.272736e+003
1.512940e+002, 1.269639e+003
1.517761e+002, 1.266721e+003
1.522583e+002, 1.263619e+003
1.527404e+002, 1.260877e+003
1.532225e+002, 1.259058e+003
1.537046e+002, 1.258653e+003
1.541867e+002, 1.258815e+003
1.546688e+002, 1.259355e+003
1.551510e+002, 1.260271e+003
1.556331e+002, 1.261634e+003
1.561152e+002, 1.263699e+003
1.565973e+002, 1.266189e+003
1.570794e+002, 1.268708e+003
1.575615e+002, 1.270600e+003
1.580437e+002, 1.273041e+003
1.585258e+002, 1.276296e+003
1.590079e+002, 1.280066e+003
1.594900e+002, 1.285696e+003
1.599721e+002, 1.293839e+003
1.604542e+002, 1.304070e+003
1.609364e+002, 1.315643e+003
1.614185e+002, 1.329108e+003
1.619006e+002, 1.343259e+003
1.623827e+002, 1.357294e+003
1.628648e+002, 1.370660e+003
1.633469e+002, 1.384841e+003
1.638291e+002, 1.402814e+003
1.643112e+002, 1.422196e+003
1.647933e+002, 1.437883e+003
1.652754e+002, 1.449399e+003
1.657575e+002, 1.455308e+003
1.662396e+002, 1.454142e+003
1.667218e+002, 1.444238e+003
1.672039e+002, 1.429917e+003
1.676860e+002, 1.410844e+003
1.681681e+002, 1.388906e+003
1.686502e+002, 1.369350e+003
1.691323e+002, 1.355627e+003
1.696145e+002, 1.345744e+003
1.700966e+002, 1.337762e+003
1.705787e+002, 1.330927e+003
1.710608e+002, 1.326329e+003
1.715429e+002, 1.326000e+003
1.720250e+002, 1.329211e+003
1.725072e+002, 1.332506e+003
1.729893e+002, 1.334343e+003
1.734714e+002, 1.334776e+003
1.739535e+002, 1.333798e+003
1.744356e+002, 1.330970e+003
1.749177e+002, 1.327203e+003
1.753999e+002, 1.323356e+003
1.758820e+002, 1.319363e+003
1.763641e+002, 1.315092e+003
1.768462e+002, 1.309369e+003
1.773283e+002, 1.303320e+003
1.778104e+002, 1.299058e+003
1.782926e+002, 1.297351e+003
1.787747e+002, 1.297651e+003
1.792568e+002, 1.299663e+003
1.797389e+002, 1.303331e+003
1.802210e+002, 1.307682e+003
1.807031e+002, 1.311818e+003
1.811853e+002, 1.315939e+003
1.816674e+002, 1.320534e+003
1.821495e+002, 1.326001e+003
1.826316e+002, 1.331855e+003
1.831137e+002, 1.336898e+003
1.835958e+002, 1.341152e+003
1.840780e+002, 1.345359e+003
1.845601e+002, 1.350708e+003
1.850422e+002, 1.356735e+003
1.855243e+002, 1.361886e+003
1.860064e+002, 1.365091e+003
1.864885e+002, 1.367219e+003
1.869707e+002, 1.370717e+003
1.874528e+002, 1.375759e+003
1.879349e+002, 1.380746e+003
1.884170e+002, 1.384426e+003
1.888991e+002, 1.386778e+003
1.893812e+002, 1.387605e+003
1.898634e+002, 1.387243e+003
1.903455e+002, 1.385310e+003
1.908276e+002, 1.379505e+003
1.913097e+002, 1.369193e+003
1.917918e+002, 1.358124e+003
1.922739e+002, 1.350259e+003
1.927561e+002, 1.345470e+003
1.932382e+002, 1.342335e+003
1.937203e+002, 1.340687e+003
1.942024e+002, 1.340306e+003
1.946845e+002, 1.339956e+003
1.951666e+002, 1.339529e+003
1.956488e+002, 1.339379e+003
1.961309e+002, 1.339968e+003
1.966130e+002, 1.341312e+003
1.970951e+002, 1.342948e+003
1.975772e+002, 1.344614e+003
1.980593e+002, 1.346375e+003
1.985415e+002, 1.349100e+003
1.990236e+002, 1.353002e+003
1.995057e+002, 1.357364e+003
1.999878e+002, 1.361044e+003
2.004699e+002, 1.363912e+003
2.009520e+002, 1.367437e+003
2.014342e+002, 1.372154e+003
2.019163e+002, 1.378095e+003
2.023984e+002, 1.384547e+003
2.028805e+002, 1.391539e+003
2.033626e+002, 1.399096e+003
2.038447e+002, 1.407332e+003
2.043269e+002, 1.416361e+003
2.048090e+002, 1.425695e+003
2.052911e+002, 1.435597e+003
2.057732e+002, 1.446172e+003
2.062553e+002, 1.454226e+003
2.067374e+002, 1.459361e+003
2.072196e+002, 1.462502e+003
2.077017e+002, 1.465139e+003
2.081838e+002, 1.467696e+003
2.086659e+002, 1.468033e+003
2.091480e+002, 1.465097e+003
2.096301e+002, 1.458629e+003
2.101123e+002, 1.451426e+003
2.105944e+002, 1.442927e+003
2.110765e+002, 1.434315e+003
2.115586e+002, 1.427320e+003
2.120407e+002, 1.422286e+003
2.125228e+002, 1.417838e+003
2.130050e+002, 1.413478e+003
2.134871e+002, 1.409113e+003
2.139692e+002, 1.405965e+003
2.144513e+002, 1.404500e+003
2.149334e+002, 1.403740e+003
2.154155e+002, 1.402140e+003
2.158977e+002, 1.399142e+003
2.163798e+002, 1.396672e+003
2.168619e+002, 1.395256e+003
2.173440e+002, 1.394896e+003
2.178261e+002, 1.395870e+003
2.183082e+002, 1.399059e+003
2.187904e+002, 1.402717e+003
2.192725e+002, 1.404101e+003
2.197546e+002, 1.401905e+003
2.202367e+002, 1.400376e+003
2.207188e+002, 1.401138e+003
2.212009e+002, 1.404761e+003
2.216831e+002, 1.406872e+003
2.221652e+002, 1.407071e+003
2.226473e+002, 1.406174e+003
2.231294e+002, 1.405252e+003
2.236115e+002, 1.404356e+003
2.240936e+002, 1.403320e+003
2.245758e+002, 1.401884e+003
2.250579e+002, 1.399855e+003
2.255400e+002, 1.398952e+003
2.260221e+002, 1.399545e+003
2.265042e+002, 1.400927e+003
2.269863e+002, 1.402125e+003
2.274685e+002, 1.402811e+003
2.279506e+002, 1.403917e+003
2.284327e+002, 1.405713e+003
2.289148e+002, 1.408277e+003
2.293969e+002, 1.410904e+003
2.298790e+002, 1.413487e+003
2.303612e+002, 1.416173e+003
2.308433e+002, 1.418982e+003
2.313254e+002, 1.421209e+003
2.318075e+002, 1.424900e+003
2.322896e+002, 1.431142e+003
2.327717e+002, 1.440373e+003
2.332539e+002, 1.447730e+003
2.337360e+002, 1.452693e+003
2.342181e+002, 1.456094e+003
2.347002e+002, 1.458629e+003
2.351823e+002, 1.459156e+003
2.356644e+002, 1.461010e+003
2.361466e+002, 1.465875e+003
2.366287e+002, 1.474312e+003
2.371108e+002, 1.479051e+003
2.375929e+002, 1.479183e+003
2.380750e+002, 1.476448e+003
2.385571e+002, 1.472474e+003
2.390393e+002, 1.466850e+003
2.395214e+002, 1.460759e+003
2.400035e+002, 1.453997e+003
2.404856e+002, 1.446371e+003
2.409677e+002, 1.440826e+003
2.414498e+002, 1.438228e+003
2.419320e+002, 1.436851e+003
2.424141e+002, 1.434982e+003
2.428962e+002, 1.432033e+003
2.433783e+002, 1.429567e+003
2.438604e+002, 1.427612e+003
2.443425e+002, 1.426136e+003
2.448247e+002, 1.426244e+003
2.453068e+002, 1.428889e+003
2.457889e+002, 1.432024e+003
2.462710e+002, 1.433724e+003
2.467531e+002, 1.432584e+003
2.472352e+002, 1.432790e+003
2.477174e+002, 1.435481e+003
2.481995e+002, 1.440469e+003
2.486816e+002, 1.444414e+003
2.491637e+002, 1.446914e+003
2.496458e+002, 1.448935e+003
2.501279e+002, 1.451262e+003
2.506101e+002, 1.454282e+003
2.510922e+002, 1.456937e+003
2.515743e+002, 1.458879e+003
2.520564e+002, 1.460293e+003
2.525385e+002, 1.462472e+003
2.530206e+002, 1.465826e+003
2.535028e+002, 1.469465e+003
2.539849e+002, 1.472709e+003
2.544670e+002, 1.475518e+003
2.549491e+002, 1.478028e+003
2.554312e+002, 1.480015e+003
2.559133e+002, 1.481608e+003
2.563955e+002, 1.483778e+003
2.568776e+002, 1.486748e+003
2.573597e+002, 1.489835e+003
2.578418e+002, 1.492600e+003
2.583239e+002, 1.494950e+003
2.588061e+002, 1.497091e+003
2.592882e+002, 1.498791e+003
2.597703e+002, 1.500322e+003
2.602524e+002, 1.502727e+003
2.607345e+002, 1.506332e+003
2.612166e+002, 1.510303e+003
2.616988e+002, 1.514158e+003
2.621809e+002, 1.517522e+003
2.626630e+002, 1.522000e+003
2.631451e+002, 1.528071e+003
2.636272e+002, 1.535170e+003
2.641093e+002, 1.541348e+003
2.645915e+002, 1.546082e+003
2.650736e+002, 1.551309e+003
2.655557e+002, 1.557818e+003
2.660378e+002, 1.565246e+003
2.665199e+002, 1.575189e+003
2.670020e+002, 1.588070e+003
2.674842e+002, 1.603123e+003
2.679663e+002, 1.618270e+003
2.684484e+002, 1.632922e+003
2.689305e+002, 1.649214e+003
2.694126e+002, 1.668287e+003
2.698947e+002, 1.690983e+003
2.703769e+002, 1.712615e+003
2.708590e+002, 1.732527e+003
2.713411e+002, 1.752312e+003
2.718232e+002, 1.774977e+003
2.723053e+002, 1.801657e+003
2.727874e+002, 1.826573e+003
2.732696e+002, 1.847955e+003
2.737517e+002, 1.865677e+003
2.742338e+002, 1.880900e+003
2.747159e+002, 1.894275e+003
2.751980e+002, 1.904061e+003
2.756801e+002, 1.907897e+003
2.761623e+002, 1.905758e+003
2.766444e+002, 1.897753e+003
2.771265e+002, 1.882930e+003
2.776086e+002, 1.861476e+003
2.780907e+002, 1.839685e+003
2.785728e+002, 1.817690e+003
2.790550e+002, 1.794794e+003
2.795371e+002, 1.769156e+003
2.800192e+002, 1.740401e+003
2.805013e+002, 1.714305e+003
2.809834e+002, 1.692713e+003
2.814655e+002, 1.675041e+003
2.819477e+002, 1.658270e+003
2.824298e+002, 1.642504e+003
2.829119e+002, 1.627873e+003
2.833940e+002, 1.614525e+003
2.838761e+002, 1.602448e+003
2.843582e+002, 1.591644e+003
2.848404e+002, 1.582094e+003
2.853225e+002, 1.573792e+003
2.858046e+002, 1.566866e+003
2.862867e+002, 1.561410e+003
2.867688e+002, 1.556832e+003
2.872509e+002, 1.553138e+003
2.877331e+002, 1.550169e+003
2.882152e+002, 1.546356e+003
2.886973e+002, 1.541009e+003
2.891794e+002, 1.535211e+003
2.896615e+002, 1.531506e+003
2.901436e+002, 1.529851e+003
2.906258e+002, 1.528752e+003
2.911079e+002, 1.527255e+003
2.915900e+002, 1.525479e+003
2.920721e+002, 1.523768e+003
2.925542e+002, 1.522011e+003
2.930363e+002, 1.520770e+003
2.935185e+002, 1.521665e+003
2.940006e+002, 1.524408e+003
2.944827e+002, 1.526245e+003
2.949648e+002, 1.524640e+003
2.954469e+002, 1.520985e+003
2.959290e+002, 1.519182e+003
2.964112e+002, 1.519675e+003
2.968933e+002, 1.521065e+003
2.973754e+002, 1.521758e+003
2.978575e+002, 1.521909e+003
2.983396e+002, 1.522109e+003
2.988217e+002, 1.522513e+003
2.993039e+002, 1.523174e+003
2.997860e+002, 1.524328e+003
3.002681e+002, 1.526016e+003
3.007502e+002, 1.527676e+003
3.012323e+002, 1.528573e+003
3.017144e+002, 1.529006e+003
3.021966e+002, 1.529661e+003
3.026787e+002, 1.531377e+003
3.031608e+002, 1.533162e+003
3.036429e+002, 1.533754e+003
3.041250e+002, 1.533185e+003
3.046071e+002, 1.532119e+003
3.050893e+002, 1.530154e+003
3.055714e+002, 1.528185e+003
3.060535e+002, 1.527813e+003
3.065356e+002, 1.530643e+003
3.070177e+002, 1.534049e+003
3.074998e+002, 1.535422e+003
3.079820e+002, 1.535099e+003
3.084641e+002, 1.534815e+003
3.089462e+002, 1.535778e+003
3.094283e+002, 1.537310e+003
3.099104e+002, 1.538584e+003
3.103925e+002, 1.538998e+003
3.108747e+002, 1.539812e+003
3.113568e+002, 1.542479e+003
3.118389e+002, 1.546325e+003
3.123210e+002, 1.549445e+003
3.128031e+002, 1.550305e+003
3.132852e+002, 1.550475e+003
3.137674e+002, 1.551092e+003
3.142495e+002, 1.552307e+003
3.147316e+002, 1.554075e+003
3.152137e+002, 1.556743e+003
3.156958e+002, 1.559906e+003
3.161779e+002, 1.562871e+003
3.166601e+002, 1.565026e+003
3.171422e+002, 1.567196e+003
3.176243e+002, 1.570083e+003
3.181064e+002, 1.573948e+003
3.185885e+002, 1.576965e+003
3.190706e+002, 1.577607e+003
3.195528e+002, 1.577378e+003
3.200349e+002, 1.577985e+003
3.205170e+002, 1.580625e+003
3.209991e+002, 1.583456e+003
3.214812e+002, 1.585595e+003
3.219633e+002, 1.587018e+003
3.224455e+002, 1.589428e+003
3.229276e+002, 1.595148e+003
3.234097e+002, 1.600902e+003
3.238918e+002, 1.604233e+003
3.243739e+002, 1.602583e+003
3.248560e+002, 1.600911e+003
3.253382e+002, 1.599948e+003
3.258203e+002, 1.599591e+003
3.263024e+002, 1.599172e+003
3.267845e+002, 1.598508e+003
3.272666e+002, 1.597841e+003
3.277487e+002, 1.597305e+003
3.282309e+002, 1.597762e+003
3.287130e+002, 1.597153e+003
3.291951e+002, 1.594819e+003
3.296772e+002, 1.591436e+003
3.301593e+002, 1.588646e+003
3.306414e+002, 1.586075e+003
3.311236e+002, 1.584588e+003
3.316057e+002, 1.584751e+003
3.320878e+002, 1.587488e+003
3.325699e+002, 1.589116e+003
3.330520e+002, 1.589409e+003
3.335341e+002, 1.588754e+003
3.340163e+002, 1.587399e+003
3.344984e+002, 1.584139e+003
3.349805e+002, 1.582673e+003
3.354626e+002, 1.584649e+003
3.359447e+002, 1.590305e+003
3.364268e+002, 1.593598e+003
3.369090e+002, 1.593384e+003
3.373911e+002, 1.592633e+003
3.378732e+002, 1.594435e+003
3.383553e+002, 1.599426e+003
3.388374e+002, 1.604343e+003
3.393195e+002, 1.608707e+003
3.398017e+002, 1.612513e+003
3.402838e+002, 1.616054e+003
3.407659e+002, 1.619421e+003
3.412480e+002, 1.622095e+003
3.417301e+002, 1.623087e+003
3.422122e+002, 1.622245e+003
3.426944e+002, 1.623261e+003
3.431765e+002, 1.626785e+003
3.436586e+002, 1.631901e+003
3.441407e+002, 1.636866e+003
3.446228e+002, 1.641663e+003
3.451049e+002, 1.646382e+003
3.455871e+002, 1.651013e+003
3.460692e+002, 1.655641e+003
3.465513e+002, 1.660211e+003
3.470334e+002, 1.664726e+003
3.475155e+002, 1.669394e+003
3.479977e+002, 1.674553e+003
3.484798e+002, 1.680148e+003
3.489619e+002, 1.685539e+003
3.494440e+002, 1.690077e+003
3.499261e+002, 1.694376e+003
3.504082e+002, 1.699631e+003
3.508904e+002, 1.705825e+003
3.513725e+002, 1.712624e+003
3.518546e+002, 1.720998e+003
3.523367e+002, 1.729703e+003
3.528188e+002, 1.736156e+003
3.533009e+002, 1.739014e+003
3.537831e+002, 1.740010e+003
3.542652e+002, 1.740818e+003
3.547473e+002, 1.741361e+003
3.552294e+002, 1.741343e+003
3.557115e+002, 1.739906e+003
3.561936e+002, 1.738131e+003
3.566758e+002, 1.737259e+003
3.571579e+002, 1.737712e+003
3.576400e+002, 1.738615e+003
3.581221e+002, 1.739661e+003
3.586042e+002, 1.740758e+003
3.590863e+002, 1.741696e+003
3.595685e+002, 1.741438e+003
3.600506e+002, 1.741750e+003
3.605327e+002, 1.744529e+003
3.610148e+002, 1.750342e+003
3.614969e+002, 1.754534e+003
3.619790e+002, 1.753153e+003
3.624612e+002, 1.749887e+003
3.629433e+002, 1.748660e+003
3.634254e+002, 1.752636e+003
3.639075e+002, 1.756652e+003
3.643896e+002, 1.759114e+003
3.648717e+002, 1.760056e+003
3.653539e+002, 1.760643e+003
3.658360e+002, 1.760447e+003
3.663181e+002, 1.760326e+003
3.668002e+002, 1.760802e+003
3.672823e+002, 1.763430e+003
3.677644e+002, 1.764693e+003
3.682466e+002, 1.763080e+003
3.687287e+002, 1.759840e+003
3.692108e+002, 1.758528e+003
3.696929e+002, 1.761413e+003
3.701750e+002, 1.763878e+003
3.706571e+002, 1.764482e+003
3.711393e+002, 1.763092e+003
3.716214e+002, 1.760210e+003
3.721035e+002, 1.754561e+003
3.725856e+002, 1.748373e+003
3.730677e+002, 1.744828e+003
3.735498e+002, 1.745484e+003
3.740320e+002, 1.745417e+003
3.745141e+002, 1.743331e+003
3.749962e+002, 1.739413e+003
3.754783e+002, 1.736065e+003
3.759604e+002, 1.733682e+003
3.764425e+002, 1.731147e+003
3.769247e+002, 1.727417e+003
3.774068e+002, 1.722363e+003
3.778889e+002, 1.717413e+003
3.783710e+002, 1.712748e+003
3.788531e+002, 1.708357e+003
3.793352e+002, 1.703996e+003
3.798174e+002, 1.699645e+003
3.802995e+002, 1.695844e+003
3.807816e+002, 1.693355e+003
3.812637e+002, 1.691856e+003
3.817458e+002, 1.689212e+003
3.822279e+002, 1.684990e+003
3.827101e+002, 1.680723e+003
3.831922e+002, 1.678445e+003
3.836743e+002, 1.677795e+003
3.841564e+002, 1.677234e+003
3.846385e+002, 1.676014e+003
3.851206e+002, 1.674551e+003
3.856028e+002, 1.673667e+003
3.860849e+002, 1.673338e+003
3.865670e+002, 1.673096e+003
3.870491e+002, 1.672827e+003
3.875312e+002, 1.672369e+003
3.880133e+002, 1.671369e+003
3.884955e+002, 1.669450e+003
3.889776e+002, 1.667560e+003
3.894597e+002, 1.666980e+003
3.899418e+002, 1.667226e+003
3.904239e+002, 1.666878e+003
3.909060e+002, 1.665138e+003
3.913882e+002, 1.662566e+003
3.918703e+002, 1.659200e+003
3.923524e+002, 1.654704e+003
3.928345e+002, 1.651181e+003
3.933166e+002, 1.649979e+003
3.937987e+002, 1.650219e+003
3.942809e+002, 1.650797e+003
3.947630e+002, 1.652215e+003
3.952451e+002, 1.653080e+003
3.957272e+002, 1.652251e+003
3.962093e+002, 1.649884e+003
3.966914e+002, 1.648887e+003
3.971736e+002, 1.651292e+003
3.976557e+002, 1.654286e+003
3.981378e+002, 1.656155e+003
3.986199e+002, 1.655920e+003
3.991020e+002, 1.655537e+003
3.995841e+002, 1.654964e+003
4.000663e+002, 1.654282e+003
4.005484e+002, 1.653676e+003
4.010305e+002, 1.653040e+003
4.015126e+002, 1.652622e+003
4.019947e+002, 1.652703e+003
4.024768e+002, 1.653577e+003
4.029590e+002, 1.653180e+003
4.034411e+002, 1.650596e+003
4.039232e+002, 1.647800e+003
4.044053e+002, 1.647473e+003
4.048874e+002, 1.650825e+003
4.053695e+002, 1.652440e+003
4.058517e+002, 1.650894e+003
4.063338e+002, 1.646907e+003
4.068159e+002, 1.643104e+003
4.072980e+002, 1.639266e+003
4.077801e+002, 1.636721e+003
4.082622e+002, 1.637368e+003
4.087444e+002, 1.640876e+003
4.092265e+002, 1.642228e+003
4.097086e+002, 1.640567e+003
4.101907e+002, 1.637649e+003
4.106728e+002, 1.635924e+003
4.111549e+002, 1.635279e+003
4.116371e+002, 1.635134e+003
4.121192e+002, 1.635581e+003
4.126013e+002, 1.636224e+003
4.130834e+002, 1.636160e+003
4.135655e+002, 1.635368e+003
4.140476e+002, 1.634509e+003
4.145298e+002, 1.634315e+003
4.150119e+002, 1.634371e+003
4.154940e+002, 1.633931e+003
4.159761e+002, 1.632426e+003
4.164582e+002, 1.630943e+003
4.169403e+002, 1.630817e+003
4.174225e+002, 1.631560e+003
4.179046e+002, 1.631747e+003
4.183867e+002, 1.630069e+003
4.188688e+002, 1.628013e+003
4.193509e+002, 1.626767e+003
4.198330e+002, 1.626682e+003
4.203152e+002, 1.626328e+003
4.207973e+002, 1.624792e+003
4.212794e+002, 1.622836e+003
4.217615e+002, 1.621334e+003
4.222436e+002, 1.620714e+003
4.227257e+002, 1.620355e+003
4.232079e+002, 1.620121e+003
4.236900e+002, 1.620010e+003
4.241721e+002, 1.620071e+003
4.246542e+002, 1.619769e+003
4.251363e+002, 1.620026e+003
4.256184e+002, 1.621340e+003
4.261006e+002, 1.624343e+003
4.265827e+002, 1.627204e+003
4.270648e+002, 1.630240e+003
4.275469e+002, 1.632951e+003
4.280290e+002, 1.634251e+003
4.285111e+002, 1.633475e+003
4.289933e+002, 1.632759e+003
4.294754e+002, 1.632791e+003
4.299575e+002, 1.633541e+003
4.304396e+002, 1.633975e+003
4.309217e+002, 1.634012e+003
4.314038e+002, 1.633974e+003
4.318860e+002, 1.634115e+003
4.323681e+002, 1.634445e+003
4.328502e+002, 1.634895e+003
4.333323e+002, 1.635364e+003
4.338144e+002, 1.636114e+003
4.342965e+002, 1.638066e+003
4.347787e+002, 1.641092e+003
4.352608e+002, 1.643543e+003
4.357429e+002, 1.644226e+003
4.362250e+002, 1.643718e+003
4.367071e+002, 1.642943e+003
4.371892e+002, 1.641863e+003
4.376714e+002, 1.641647e+003
4.381535e+002, 1.644358e+003
4.386356e+002, 1.648555e+003
4.391177e+002, 1.651711e+003
4.395998e+002, 1.652796e+003
4.400819e+002, 1.652841e+003
4.405641e+002, 1.651833e+003
4.410462e+002, 1.650272e+003
4.415283e+002, 1.649928e+003
4.420104e+002, 1.652829e+003
4.424925e+002, 1.656514e+003
4.429746e+002, 1.659244e+003
4.434568e+002, 1.660576e+003
4.439389e+002, 1.661859e+003
4.444210e+002, 1.663275e+003
4.449031e+002, 1.664921e+003
4.453852e+002, 1.666916e+003
4.458673e+002, 1.669675e+003
4.463495e+002, 1.672245e+003
4.468316e+002, 1.674199e+003
4.473137e+002, 1.675582e+003
4.477958e+002, 1.677495e+003
4.482779e+002, 1.680780e+003
4.487600e+002, 1.683686e+003
4.492422e+002, 1.685170e+003
4.497243e+002, 1.684100e+003
4.502064e+002, 1.684482e+003
4.506885e+002, 1.686992e+003
4.511706e+002, 1.690406e+003
4.516527e+002, 1.692552e+003
4.521349e+002, 1.693122e+003
4.526170e+002, 1.694043e+003
4.530991e+002, 1.696111e+003
4.535812e+002, 1.699107e+003
4.540633e+002, 1.700921e+003
4.545454e+002, 1.701330e+003
4.550276e+002, 1.702748e+003
4.555097e+002, 1.707955e+003
4.559918e+002, 1.716145e+003
4.564739e+002, 1.723020e+003
4.569560e+002, 1.727802e+003
4.574381e+002, 1.731757e+003
4.579203e+002, 1.736253e+003
4.584024e+002, 1.741251e+003
4.588845e+002, 1.746817e+003
4.593666e+002, 1.752872e+003
4.598488e+002, 1.759466e+003
4.603309e+002, 1.767078e+003
4.608130e+002, 1.775538e+003
4.612951e+002, 1.783212e+003
4.617772e+002, 1.788415e+003
4.622593e+002, 1.792462e+003
4.627415e+002, 1.796327e+003
4.632236e+002, 1.799311e+003
4.637057e+002, 1.803840e+003
4.641878e+002, 1.812269e+003
4.646699e+002, 1.822766e+003
4.651520e+002, 1.831949e+003
4.656342e+002, 1.837211e+003
4.661163e+002, 1.842531e+003
4.665984e+002, 1.849376e+003
4.670805e+002, 1.857989e+003
4.675626e+002, 1.866348e+003
4.680447e+002, 1.873816e+003
4.685269e+002, 1.881432e+003
4.690090e+002, 1.890033e+003
4.694911e+002, 1.900108e+003
4.699732e+002, 1.910046e+003
4.704553e+002, 1.919704e+003
4.709374e+002, 1.929192e+003
4.714196e+002, 1.939157e+003
4.719017e+002, 1.949890e+003
4.723838e+002, 1.959781e+003
4.728659e+002, 1.967993e+003
4.733480e+002, 1.974719e+003
4.738301e+002, 1.981548e+003
4.743123e+002, 1.988537e+003
4.747944e+002, 1.995557e+003
4.752765e+002, 2.003059e+003
4.757586e+002, 2.010663e+003
4.762407e+002, 2.016897e+003
4.767228e+002, 2.021861e+003
4.772050e+002, 2.024541e+003
4.776871e+002, 2.022872e+003
4.781692e+002, 2.017609e+003
4.786513e+002, 2.011122e+003
4.791334e+002, 2.005418e+003
4.796155e+002, 1.998575e+003
4.800977e+002, 1.988405e+003
4.805798e+002, 1.974859e+003
4.810619e+002, 1.959958e+003
4.815440e+002, 1.944102e+003
4.820261e+002, 1.928000e+003
4.825082e+002, 1.912091e+003
4.829904e+002, 1.895790e+003
4.834725e+002, 1.880776e+003
4.839546e+002, 1.867658e+003
4.844367e+002, 1.856109e+003
4.849188e+002, 1.845631e+003
4.854009e+002, 1.837340e+003
4.858831e+002, 1.828832e+003
4.863652e+002, 1.818862e+003
4.868473e+002, 1.807299e+003
4.873294e+002, 1.797834e+003
4.878115e+002, 1.790982e+003
4.882936e+002, 1.785629e+003
4.887758e+002, 1.781219e+003
4.892579e+002, 1.778275e+003
4.897400e+002, 1.773921e+003
4.902221e+002, 1.766887e+003
4.907042e+002, 1.759601e+003
4.911863e+002, 1.757958e+003
4.916685e+002, 1.762326e+003
4.921506e+002, 1.765647e+003
4.926327e+002, 1.764389e+003
4.931148e+002, 1.759981e+003
4.935969e+002, 1.757172e+003
4.940790e+002, 1.755914e+003
4.945612e+002, 1.755642e+003
4.950433e+002, 1.756290e+003
4.955254e+002, 1.757508e+003
4.960075e+002, 1.758739e+003
4.964896e+002, 1.759976e+003
4.969717e+002, 1.760861e+003
4.974539e+002, 1.760670e+003
4.979360e+002, 1.759911e+003
4.984181e+002, 1.759526e+003
4.989002e+002, 1.760340e+003
4.993823e+002, 1.761231e+003
4.998644e+002, 1.761471e+003
5.003466e+002, 1.761131e+003
5.008287e+002, 1.761055e+003
5.013108e+002, 1.762108e+003
5.017929e+002, 1.763078e+003
5.022750e+002, 1.763372e+003
5.027571e+002, 1.763450e+003
5.032393e+002, 1.761791e+003
5.037214e+002, 1.756771e+003
5.042035e+002, 1.750868e+003
5.046856e+002, 1.747469e+003
5.051677e+002, 1.748246e+003
5.056498e+002, 1.748145e+003
5.061320e+002, 1.745743e+003
5.066141e+002, 1.741639e+003
5.070962e+002, 1.739406e+003
5.075783e+002, 1.739421e+003
5.080604e+002, 1.739654e+003
5.085425e+002, 1.739017e+003
5.090247e+002, 1.737517e+003
5.095068e+002, 1.735234e+003
5.099889e+002, 1.732051e+003
5.104710e+002, 1.728656e+003
5.109531e+002, 1.725506e+003
5.114352e+002, 1.722760e+003
5.119174e+002, 1.720993e+003
5.123995e+002, 1.721001e+003
5.128816e+002, 1.721256e+003
5.133637e+002, 1.720003e+003
5.138458e+002, 1.717605e+003
5.143279e+002, 1.715196e+003
5.148101e+002, 1.713398e+003
5.152922e+002, 1.711838e+003
5.157743e+002, 1.710061e+003
5.162564e+002, 1.707959e+003
5.167385e+002, 1.706735e+003
5.172206e+002, 1.707909e+003
5.177028e+002, 1.709548e+003
5.181849e+002, 1.710084e+003
5.186670e+002, 1.706812e+003
5.191491e+002, 1.705522e+003
5.196312e+002, 1.707665e+003
5.201133e+002, 1.711748e+003
5.205955e+002, 1.714705e+003
5.210776e+002, 1.716331e+003
5.215597e+002, 1.717029e+003
5.220418e+002, 1.716403e+003
5.225239e+002, 1.714559e+003
5.230060e+002, 1.714644e+003
5.234882e+002, 1.717012e+003
5.239703e+002, 1.719907e+003
5.244524e+002, 1.722141e+003
5.249345e+002, 1.723695e+003
5.254166e+002, 1.724467e+003
5.258987e+002, 1.724269e+003
5.263809e+002, 1.723922e+003
5.268630e+002, 1.724849e+003
5.273451e+002, 1.726576e+003
5.278272e+002, 1.727566e+003
5.283093e+002, 1.726182e+003
5.287914e+002, 1.724701e+003
5.292736e+002, 1.726228e+003
5.297557e+002, 1.730059e+003
5.302378e+002, 1.732885e+003
5.307199e+002, 1.732371e+003
5.312020e+002, 1.730745e+003
5.316841e+002, 1.729393e+003
5.321663e+002, 1.728429e+003
5.326484e+002, 1.728068e+003
5.331305e+002, 1.727908e+003
5.336126e+002, 1.728591e+003
5.340947e+002, 1.730756e+003
5.345768e+002, 1.736823e+003
5.350590e+002, 1.741141e+003
5.355411e+002, 1.742544e+003
5.360232e+002, 1.742030e+003
5.365053e+002, 1.742188e+003
5.369874e+002, 1.742895e+003
5.374695e+002, 1.744495e+003
5.379517e+002, 1.747507e+003
5.384338e+002, 1.751744e+003
5.389159e+002, 1.754413e+003
5.393980e+002, 1.755334e+003
5.398801e+002, 1.755643e+003
5.403622e+002, 1.756149e+003
5.408444e+002, 1.756830e+003
5.413265e+002, 1.757570e+003
5.418086e+002, 1.758339e+003
5.422907e+002, 1.759328e+003
5.427728e+002, 1.761042e+003
5.432549e+002, 1.763158e+003
5.437371e+002, 1.764926e+003
5.442192e+002, 1.766406e+003
5.447013e+002, 1.767152e+003
5.451834e+002, 1.766042e+003
5.456655e+002, 1.763713e+003
5.461476e+002, 1.762720e+003
5.466298e+002, 1.765693e+003
5.471119e+002, 1.769004e+003
5.475940e+002, 1.770661e+003
5.480761e+002, 1.770066e+003
5.485582e+002, 1.769473e+003
5.490403e+002, 1.768992e+003
5.495225e+002, 1.768617e+003
5.500046e+002, 1.768244e+003
5.504867e+002, 1.767301e+003
5.509688e+002, 1.767675e+003
5.514509e+002, 1.770111e+003
5.519330e+002, 1.773467e+003
5.524152e+002, 1.775167e+003
5.528973e+002, 1.775040e+003
5.533794e+002, 1.774477e+003
5.538615e+002, 1.773611e+003
5.543436e+002, 1.772780e+003
5.548257e+002, 1.773424e+003
5.553079e+002, 1.775510e+003
5.557900e+002, 1.777828e+003
5.562721e+002, 1.779656e+003
5.567542e+002, 1.781055e+003
5.572363e+002, 1.781995e+003
5.577184e+002, 1.782418e+003
5.582006e+002, 1.782865e+003
5.586827e+002, 1.782997e+003
5.591648e+002, 1.783660e+003
5.596469e+002, 1.785934e+003
5.601290e+002, 1.792603e+003
5.606111e+002, 1.798291e+003
5.610933e+002, 1.800463e+003
5.615754e+002, 1.800279e+003
5.620575e+002, 1.800876e+003
5.625396e+002, 1.804242e+003
5.630217e+002, 1.806758e+003
5.635038e+002, 1.806816e+003
5.639860e+002, 1.804240e+003
5.644681e+002, 1.804286e+003
5.649502e+002, 1.808075e+003
5.654323e+002, 1.812396e+003
5.659144e+002, 1.814723e+003
5.663965e+002, 1.814888e+003
5.668787e+002, 1.815917e+003
5.673608e+002, 1.818104e+003
5.678429e+002, 1.820833e+003
5.683250e+002, 1.823291e+003
5.688071e+002, 1.825537e+003
5.692892e+002, 1.827699e+003
5.697714e+002, 1.829651e+003
5.702535e+002, 1.831735e+003
5.707356e+002, 1.834508e+003
5.712177e+002, 1.837799e+003
5.716998e+002, 1.840894e+003
5.721819e+002, 1.843139e+003
5.726641e+002, 1.845328e+003
5.731462e+002, 1.848040e+003
5.736283e+002, 1.851332e+003
5.741104e+002, 1.854626e+003
5.745925e+002, 1.858160e+003
5.750746e+002, 1.861377e+003
5.755568e+002, 1.863854e+003
5.760389e+002, 1.864327e+003
5.765210e+002, 1.866339e+003
5.770031e+002, 1.871018e+003
5.774852e+002, 1.876470e+003
5.779673e+002, 1.880156e+003
5.784495e+002, 1.881755e+003
5.789316e+002, 1.882888e+003
5.794137e+002, 1.883750e+003
5.798958e+002, 1.884506e+003
5.803779e+002, 1.885641e+003
5.808600e+002, 1.887156e+003
5.813422e+002, 1.888761e+003
5.818243e+002, 1.890183e+003
5.823064e+002, 1.891597e+003
5.827885e+002, 1.893608e+003
5.832706e+002, 1.896170e+003
5.837527e+002, 1.898203e+003
5.842349e+002, 1.899225e+003
5.847170e+002, 1.899125e+003
5.851991e+002, 1.897857e+003
5.856812e+002, 1.895483e+003
5.861633e+002, 1.891541e+003
5.866454e+002, 1.884188e+003
5.871276e+002, 1.875699e+003
5.876097e+002, 1.868955e+003
5.880918e+002, 1.866492e+003
5.885739e+002, 1.863305e+003
5.890560e+002, 1.858807e+003
5.895381e+002, 1.853207e+003
5.900203e+002, 1.846762e+003
5.905024e+002, 1.838526e+003
5.909845e+002, 1.831664e+003
5.914666e+002, 1.827346e+003
5.919487e+002, 1.825466e+003
5.924308e+002, 1.826078e+003
5.929130e+002, 1.829636e+003
5.933951e+002, 1.832162e+003
5.938772e+002, 1.829089e+003
5.943593e+002, 1.822506e+003
5.948414e+002, 1.818796e+003
5.953235e+002, 1.818843e+003
5.958057e+002, 1.819806e+003
5.962878e+002, 1.818654e+003
5.967699e+002, 1.816807e+003
5.972520e+002, 1.816523e+003
5.977341e+002, 1.819646e+003
5.982162e+002, 1.822685e+003
5.986984e+002, 1.824195e+003
5.991805e+002, 1.824398e+003
5.996626e+002, 1.823854e+003
6.001447e+002, 1.820616e+003
6.006268e+002, 1.818894e+003
6.011089e+002, 1.820681e+003
6.015911e+002, 1.825521e+003
6.020732e+002, 1.828220e+003
6.025553e+002, 1.827618e+003
6.030374e+002, 1.827029e+003
6.035195e+002, 1.828555e+003
6.040016e+002, 1.832336e+003
6.044838e+002, 1.834145e+003
6.049659e+002, 1.833556e+003
6.054480e+002, 1.832988e+003
6.059301e+002, 1.834909e+003
6.064122e+002, 1.838905e+003
6.068943e+002, 1.843651e+003
6.073765e+002, 1.848990e+003
6.078586e+002, 1.854640e+003
6.083407e+002, 1.860728e+003
6.088228e+002, 1.866821e+003
6.093049e+002, 1.871997e+003
6.097870e+002, 1.874458e+003
6.102692e+002, 1.877389e+003
6.107513e+002, 1.882720e+003
6.112334e+002, 1.889832e+003
6.117155e+002, 1.896449e+003
6.121976e+002, 1.901736e+003
6.126797e+002, 1.906891e+003
6.131619e+002, 1.912180e+003
6.136440e+002, 1.917628e+003
6.141261e+002, 1.923541e+003
6.146082e+002, 1.930363e+003
6.150903e+002, 1.936937e+003
6.155724e+002, 1.942368e+003
6.160546e+002, 1.946606e+003
6.165367e+002, 1.951360e+003
6.170188e+002, 1.956799e+003
6.175009e+002, 1.962241e+003
6.179830e+002, 1.966311e+003
6.184651e+002, 1.969717e+003
6.189473e+002, 1.974809e+003
6.194294e+002, 1.983176e+003
6.199115e+002, 1.991345e+003
6.203936e+002, 1.996257e+003
6.208757e+002, 1.998684e+003
6.213578e+002, 2.000234e+003
6.218400e+002, 2.001754e+003
6.223221e+002, 2.002355e+003
6.228042e+002, 2.002197e+003
6.232863e+002, 2.001032e+003
6.237684e+002, 1.997207e+003
6.242505e+002, 1.989191e+003
6.247327e+002, 1.980015e+003
6.252148e+002, 1.970763e+003
6.256969e+002, 1.961500e+003
6.261790e+002, 1.950756e+003
6.266611e+002, 1.937759e+003
6.271432e+002, 1.925485e+003
6.276254e+002, 1.917348e+003
6.281075e+002, 1.912830e+003
6.285896e+002, 1.905392e+003
6.290717e+002, 1.894028e+003
6.295538e+002, 1.882510e+003
6.300359e+002, 1.875714e+003
6.305181e+002, 1.871975e+003
6.310002e+002, 1.867563e+003
6.314823e+002, 1.860817e+003
6.319644e+002, 1.854147e+003
6.324465e+002, 1.848629e+003
6.329286e+002, 1.844464e+003
6.334108e+002, 1.842090e+003
6.338929e+002, 1.843500e+003
6.343750e+002, 1.844730e+003
6.348571e+002, 1.843788e+003
6.353392e+002, 1.841157e+003
6.358214e+002, 1.840851e+003
6.363035e+002, 1.844701e+003
6.367856e+002, 1.847711e+003
6.372677e+002, 1.847102e+003
6.377498e+002, 1.842839e+003
6.382319e+002, 1.842063e+003
6.387141e+002, 1.845457e+003
6.391962e+002, 1.848475e+003
6.396783e+002, 1.846197e+003
6.401604e+002, 1.840406e+003
6.406425e+002, 1.837550e+003
6.411246e+002, 1.838644e+003
6.416068e+002, 1.840408e+003
6.420889e+002, 1.839626e+003
6.425710e+002, 1.837741e+003
6.430531e+002, 1.836770e+003
6.435352e+002, 1.837692e+003
6.440173e+002, 1.839015e+003
6.444995e+002, 1.839820e+003
6.449816e+002, 1.840707e+003
6.454637e+002, 1.842743e+003
6.459458e+002, 1.848601e+003
6.464279e+002, 1.852322e+003
6.469100e+002, 1.851539e+003
6.473922e+002, 1.847838e+003
6.478743e+002, 1.847900e+003
6.483564e+002, 1.852505e+003
6.488385e+002, 1.858007e+003
6.493206e+002, 1.863417e+003
6.498027e+002, 1.868446e+003
6.502849e+002, 1.870887e+003
6.507670e+002, 1.870809e+003
6.512491e+002, 1.870662e+003
6.517312e+002, 1.872250e+003
6.522133e+002, 1.874971e+003
6.526954e+002, 1.878020e+003
6.531776e+002, 1.881339e+003
6.536597e+002, 1.885099e+003
6.541418e+002, 1.889486e+003
6.546239e+002, 1.894420e+003
6.551060e+002, 1.899877e+003
6.555881e+002, 1.906143e+003
6.560703e+002, 1.912371e+003
6.565524e+002, 1.919121e+003
6.570345e+002, 1.925365e+003
6.575166e+002, 1.929771e+003
6.579987e+002, 1.932000e+003
6.584808e+002, 1.933343e+003
6.589630e+002, 1.934284e+003
6.594451e+002, 1.934070e+003
6.599272e+002, 1.930860e+003
6.604093e+002, 1.924716e+003
6.608914e+002, 1.917187e+003
6.613735e+002, 1.908151e+003
6.618557e+002, 1.898783e+003
6.623378e+002, 1.890558e+003
6.628199e+002, 1.883522e+003
6.633020e+002, 1.877717e+003
6.637841e+002, 1.873633e+003
6.642662e+002, 1.870507e+003
6.647484e+002, 1.867969e+003
6.652305e+002, 1.866031e+003
6.657126e+002, 1.864290e+003
6.661947e+002, 1.862504e+003
6.666768e+002, 1.861006e+003
6.671589e+002, 1.859918e+003
6.676411e+002, 1.859211e+003
6.681232e+002, 1.858792e+003
6.686053e+002, 1.858670e+003
6.690874e+002, 1.858578e+003
6.695695e+002, 1.858009e+003
6.700516e+002, 1.856938e+003
6.705338e+002, 1.856880e+003
6.710159e+002, 1.858177e+003
6.714980e+002, 1.859633e+003
6.719801e+002, 1.859813e+003
6.724622e+002, 1.858997e+003
6.729443e+002, 1.857805e+003
6.734265e+002, 1.856258e+003
6.739086e+002, 1.854764e+003
6.743907e+002, 1.854144e+003
6.748728e+002, 1.853781e+003
6.753549e+002, 1.852480e+003
6.758370e+002, 1.848486e+003
6.763192e+002, 1.845274e+003
6.768013e+002, 1.844145e+003
6.772834e+002, 1.844653e+003
6.777655e+002, 1.845192e+003
6.782476e+002, 1.845672e+003
6.787297e+002, 1.846500e+003
6.792119e+002, 1.847957e+003
6.796940e+002, 1.849879e+003
6.801761e+002, 1.851461e+003
6.806582e+002, 1.852661e+003
6.811403e+002, 1.853179e+003
6.816224e+002, 1.851645e+003
6.821046e+002, 1.849598e+003
6.825867e+002, 1.850294e+003
6.830688e+002, 1.853840e+003
6.835509e+002, 1.856925e+003
6.840330e+002, 1.856969e+003
6.845151e+002, 1.855880e+003
6.849973e+002, 1.855144e+003
6.854794e+002, 1.854840e+003
6.859615e+002, 1.855327e+003
6.864436e+002, 1.857638e+003
6.869257e+002, 1.860180e+003
6.874078e+002, 1.861670e+003
6.878900e+002, 1.861829e+003
6.883721e+002, 1.861839e+003
6.888542e+002, 1.861654e+003
6.893363e+002, 1.861677e+003
6.898184e+002, 1.863073e+003
6.903005e+002, 1.865569e+003
6.907827e+002, 1.866421e+003
6.912648e+002, 1.864107e+003
6.917469e+002, 1.861363e+003
6.922290e+002, 1.862426e+003
6.927111e+002, 1.865757e+003
6.931932e+002, 1.867898e+003
6.936754e+002, 1.864886e+003
6.941575e+002, 1.862692e+003
6.946396e+002, 1.865302e+003
6.951217e+002, 1.871316e+003
6.956038e+002, 1.875552e+003
6.960859e+002, 1.876486e+003
6.965681e+002, 1.876230e+003
6.970502e+002, 1.874511e+003
6.975323e+002, 1.871726e+003
6.980144e+002, 1.872319e+003
6.984965e+002, 1.877178e+003
6.989786e+002, 1.881614e+003
6.994608e+002, 1.882500e+003
6.999429e+002, 1.880745e+003
7.004250e+002, 1.879875e+003
7.009071e+002, 1.879891e+003
7.013892e+002, 1.880077e+003
7.018713e+002, 1.879934e+003
7.023535e+002, 1.879667e+003
7.028356e+002, 1.879334e+003
7.033177e+002, 1.878851e+003
7.037998e+002, 1.879044e+003
7.042819e+002, 1.880574e+003
7.047640e+002, 1.882650e+003
7.052462e+002, 1.884733e+003
7.057283e+002, 1.887135e+003
7.062104e+002, 1.888534e+003
7.066925e+002, 1.888358e+003
7.071746e+002, 1.887777e+003
7.076567e+002, 1.888175e+003
7.081389e+002, 1.889567e+003
7.086210e+002, 1.890706e+003
7.091031e+002, 1.891391e+003
7.095852e+002, 1.891782e+003
7.100673e+002, 1.892069e+003
7.105494e+002, 1.892239e+003
7.110316e+002, 1.892286e+003
7.115137e+002, 1.892384e+003
7.119958e+002, 1.892138e+003
7.124779e+002, 1.890768e+003
7.129600e+002, 1.888992e+003
7.134421e+002, 1.888148e+003
7.139243e+002, 1.889516e+003
7.144064e+002, 1.890856e+003
7.148885e+002, 1.892069e+003
7.153706e+002, 1.892932e+003
7.158527e+002, 1.892224e+003
7.163348e+002, 1.889039e+003
7.168170e+002, 1.887559e+003
7.172991e+002, 1.889877e+003
7.177812e+002, 1.894615e+003
7.182633e+002, 1.897226e+003
7.187454e+002, 1.897881e+003
7.192275e+002, 1.898245e+003
7.197097e+002, 1.899297e+003
7.201918e+002, 1.900541e+003
7.206739e+002, 1.901412e+003
7.211560e+002, 1.901917e+003
7.216381e+002, 1.902433e+003
7.221202e+002, 1.903638e+003
7.226024e+002, 1.904466e+003
7.230845e+002, 1.903863e+003
7.235666e+002, 1.901432e+003
7.240487e+002, 1.901067e+003
7.245308e+002, 1.903845e+003
7.250129e+002, 1.907095e+003
7.254951e+002, 1.909216e+003
7.259772e+002, 1.910202e+003
7.264593e+002, 1.911244e+003
7.269414e+002, 1.912372e+003
7.274235e+002, 1.913449e+003
7.279056e+002, 1.914509e+003
7.283878e+002, 1.915387e+003
7.288699e+002, 1.915348e+003
7.293520e+002, 1.913990e+003
7.298341e+002, 1.913816e+003
7.303162e+002, 1.917839e+003
7.307983e+002, 1.923085e+003
7.312805e+002, 1.926743e+003
7.317626e+002, 1.927638e+003
7.322447e+002, 1.927990e+003
7.327268e+002, 1.927066e+003
7.332089e+002, 1.926356e+003
7.336910e+002, 1.927604e+003
7.341732e+002, 1.931110e+003
7.346553e+002, 1.935143e+003
7.351374e+002, 1.939690e+003
7.356195e+002, 1.944055e+003
7.361016e+002, 1.947449e+003
7.365837e+002, 1.949769e+003
7.370659e+002, 1.950386e+003
7.375480e+002, 1.947858e+003
7.380301e+002, 1.945880e+003
7.385122e+002, 1.949368e+003
7.389943e+002, 1.955299e+003
7.394764e+002, 1.958477e+003
7.399586e+002, 1.953980e+003
7.404407e+002, 1.950391e+003
7.409228e+002, 1.950533e+003
7.414049e+002, 1.952931e+003
7.418870e+002, 1.954341e+003
7.423691e+002, 1.954303e+003
7.428513e+002, 1.954762e+003
7.433334e+002, 1.956332e+003
7.438155e+002, 1.958703e+003
7.442976e+002, 1.961025e+003
7.447797e+002, 1.963359e+003
7.452618e+002, 1.965985e+003
7.457440e+002, 1.969932e+003
7.462261e+002, 1.973631e+003
7.467082e+002, 1.974532e+003
7.471903e+002, 1.973511e+003
7.476724e+002, 1.973874e+003
7.481545e+002, 1.978062e+003
7.486367e+002, 1.982833e+003
7.491188e+002, 1.986936e+003
7.496009e+002, 1.990386e+003
7.500830e+002, 1.993701e+003
7.505651e+002, 1.996911e+003
7.510472e+002, 1.999958e+003
7.515294e+002, 2.002484e+003
7.520115e+002, 2.004755e+003
7.524936e+002, 2.008551e+003
7.529757e+002, 2.013886e+003
7.534578e+002, 2.019870e+003
7.539399e+002, 2.026677e+003
7.544221e+002, 2.033271e+003
7.549042e+002, 2.037578e+003
7.553863e+002, 2.039713e+003
7.558684e+002, 2.042316e+003
7.563505e+002, 2.046753e+003
7.568326e+002, 2.052046e+003
7.573148e+002, 2.057555e+003
7.577969e+002, 2.063133e+003
7.582790e+002, 2.069501e+003
7.587611e+002, 2.076647e+003
7.592432e+002, 2.084640e+003
7.597253e+002, 2.093935e+003
7.602075e+002, 2.104596e+003
7.606896e+002, 2.113468e+003
7.611717e+002, 2.120407e+003
7.616538e+002, 2.127800e+003
7.621359e+002, 2.138554e+003
7.626180e+002, 2.151021e+003
7.631002e+002, 2.162148e+003
7.635823e+002, 2.171397e+003
7.640644e+002, 2.181342e+003
7.645465e+002, 2.193555e+003
7.650286e+002, 2.207117e+003
7.655107e+002, 2.221056e+003
7.659929e+002, 2.234679e+003
7.664750e+002, 2.250609e+003
7.669571e+002, 2.269924e+003
7.674392e+002, 2.290389e+003
7.679213e+002, 2.309683e+003
7.684034e+002, 2.327750e+003
7.688856e+002, 2.347698e+003
7.693677e+002, 2.369467e+003
7.698498e+002, 2.393624e+003
7.703319e+002, 2.422666e+003
7.708140e+002, 2.454177e+003
7.712961e+002, 2.483739e+003
7.717783e+002, 2.509596e+003
7.722604e+002, 2.536298e+003
7.727425e+002, 2.566809e+003
7.732246e+002, 2.599032e+003
7.737067e+002, 2.631261e+003
7.741888e+002, 2.666419e+003
7.746710e+002, 2.696573e+003
7.751531e+002, 2.721218e+003
7.756352e+002, 2.741483e+003
7.761173e+002, 2.759615e+003
7.765994e+002, 2.775538e+003
7.770815e+002, 2.784407e+003
7.775637e+002, 2.785720e+003
7.780458e+002, 2.779473e+003
7.785279e+002, 2.764972e+003
7.790100e+002, 2.743052e+003
7.794921e+002, 2.714767e+003
7.799742e+002, 2.679124e+003
7.804564e+002, 2.640227e+003
7.809385e+002, 2.597425e+003
7.814206e+002, 2.553053e+003
7.819027e+002, 2.510085e+003
7.823848e+002, 2.468561e+003
7.828669e+002, 2.429320e+003
7.833491e+002, 2.392945e+003
7.838312e+002, 2.358080e+003
7.843133e+002, 2.321892e+003
7.847954e+002, 2.284796e+003
7.852775e+002, 2.252500e+003
7.857596e+002, 2.227259e+003
7.862418e+002, 2.205689e+003
7.867239e+002, 2.183642e+003
7.872060e+002, 2.162529e+003
7.876881e+002, 2.144414e+003
7.881702e+002, 2.131777e+003
7.886523e+002, 2.120560e+003
7.891345e+002, 2.110179e+003
7.896166e+002, 2.100255e+003
7.900987e+002, 2.089725e+003
7.905808e+002, 2.077647e+003
7.910629e+002, 2.067275e+003
7.915450e+002, 2.059162e+003
7.920272e+002, 2.052962e+003
7.925093e+002, 2.048857e+003
7.929914e+002, 2.046544e+003
7.934735e+002, 2.043987e+003
7.939556e+002, 2.040361e+003
7.944377e+002, 2.036623e+003
7.949199e+002, 2.033680e+003
7.954020e+002, 2.031323e+003
7.958841e+002, 2.029291e+003
7.963662e+002, 2.027398e+003
7.968483e+002, 2.025770e+003
7.973304e+002, 2.024406e+003
7.978126e+002, 2.023260e+003
7.982947e+002, 2.022354e+003
7.987768e+002, 2.021740e+003
7.992589e+002, 2.020926e+003
7.997410e+002, 2.019447e+003
8.002231e+002, 2.018343e+003
8.007053e+002, 2.021169e+003
8.011874e+002, 2.026516e+003
8.016695e+002, 2.028115e+003
8.021516e+002, 2.021747e+003
8.026337e+002, 2.014460e+003
8.031158e+002, 2.012653e+003
8.035980e+002, 2.014141e+003
8.040801e+002, 2.015018e+003
8.045622e+002, 2.013005e+003
8.050443e+002, 2.011944e+003
8.055264e+002, 2.012951e+003
8.060085e+002, 2.014979e+003
8.064907e+002, 2.016045e+003
8.069728e+002, 2.015952e+003
8.074549e+002, 2.015897e+003
8.079370e+002, 2.016015e+003
8.084191e+002, 2.016396e+003
8.089012e+002, 2.017211e+003
8.093834e+002, 2.018382e+003
8.098655e+002, 2.019807e+003
8.103476e+002, 2.021689e+003
8.108297e+002, 2.023391e+003
8.113118e+002, 2.025110e+003
8.117939e+002, 2.026236e+003
8.122761e+002, 2.025661e+003
8.127582e+002, 2.021672e+003
8.132403e+002, 2.018476e+003
8.137224e+002, 2.017078e+003
8.142045e+002, 2.016196e+003
8.146866e+002, 2.012908e+003
8.151688e+002, 2.007363e+003
8.156509e+002, 2.003295e+003
8.161330e+002, 2.001890e+003
8.166151e+002, 2.001723e+003
8.170972e+002, 2.000890e+003
8.175793e+002, 2.000004e+003
8.180615e+002, 2.000274e+003
8.185436e+002, 2.004424e+003
8.190257e+002, 2.006629e+003
8.195078e+002, 2.003181e+003
8.199899e+002, 1.997179e+003
8.204720e+002, 1.993448e+003
8.209542e+002, 1.992858e+003
8.214363e+002, 1.992261e+003
8.219184e+002, 1.991226e+003
8.224005e+002, 1.990079e+003
8.228826e+002, 1.989525e+003
8.233647e+002, 1.989365e+003
8.238469e+002, 1.988563e+003
8.243290e+002, 1.986467e+003
8.248111e+002, 1.984832e+003
8.252932e+002, 1.985811e+003
8.257753e+002, 1.987995e+003
8.262574e+002, 1.989441e+003
8.267396e+002, 1.989921e+003
8.272217e+002, 1.989315e+003
8.277038e+002, 1.986671e+003
8.281859e+002, 1.983835e+003
8.286681e+002, 1.983146e+003
8.291502e+002, 1.984865e+003
8.296323e+002, 1.986562e+003
8.301144e+002, 1.987986e+003
8.305966e+002, 1.988952e+003
8.310787e+002, 1.988858e+003
8.315608e+002, 1.988179e+003
8.320429e+002, 1.987865e+003
8.325250e+002, 1.988113e+003
8.330071e+002, 1.988611e+003
8.334893e+002, 1.989018e+003
8.339714e+002, 1.989633e+003
8.344535e+002, 1.990936e+003
8.349356e+002, 1.994281e+003
8.354177e+002, 1.995355e+003
8.358998e+002, 1.993561e+003
8.363820e+002, 1.990689e+003
8.368641e+002, 1.988272e+003
8.373462e+002, 1.986408e+003
8.378283e+002, 1.985660e+003
8.383104e+002, 1.986264e+003
8.387925e+002, 1.986870e+003
8.392747e+002, 1.985543e+003
8.397568e+002, 1.983997e+003
8.402389e+002, 1.984253e+003
8.407210e+002, 1.987133e+003
8.412031e+002, 1.989980e+003
8.416852e+002, 1.993068e+003
8.421674e+002, 1.995054e+003
8.426495e+002, 1.994645e+003
8.431316e+002, 1.991253e+003
8.436137e+002, 1.989062e+003
8.440958e+002, 1.988130e+003
8.445779e+002, 1.987715e+003
8.450601e+002, 1.987489e+003
8.455422e+002, 1.987227e+003
8.460243e+002, 1.986575e+003
8.465064e+002, 1.985533e+003
8.469885e+002, 1.984033e+003
8.474706e+002, 1.981543e+003
8.479528e+002, 1.979089e+003
8.484349e+002, 1.977378e+003
8.489170e+002, 1.976535e+003
8.493991e+002, 1.976164e+003
8.498812e+002, 1.976637e+003
8.503633e+002, 1.976786e+003
8.508455e+002, 1.975228e+003
8.513276e+002, 1.972588e+003
8.518097e+002, 1.972664e+003
8.522918e+002, 1.975259e+003
8.527739e+002, 1.978227e+003
8.532560e+002, 1.980328e+003
8.537382e+002, 1.981961e+003
8.542203e+002, 1.983637e+003
8.547024e+002, 1.985264e+003
8.551845e+002, 1.985881e+003
8.556666e+002, 1.983667e+003
8.561487e+002, 1.982466e+003
8.566309e+002, 1.984537e+003
8.571130e+002, 1.988690e+003
8.575951e+002, 1.987360e+003
8.580772e+002, 1.980384e+003
8.585593e+002, 1.974578e+003
8.590414e+002, 1.974005e+003
8.595236e+002, 1.976047e+003
8.600057e+002, 1.977207e+003
8.604878e+002, 1.977837e+003
8.609699e+002, 1.978975e+003
8.614520e+002, 1.982406e+003
8.619341e+002, 1.984980e+003
8.624163e+002, 1.984784e+003
8.628984e+002, 1.982975e+003
8.633805e+002, 1.982634e+003
8.638626e+002, 1.984281e+003
8.643447e+002, 1.985160e+003
8.648268e+002, 1.984304e+003
8.653090e+002, 1.982660e+003
8.657911e+002, 1.981947e+003
8.662732e+002, 1.981920e+003
8.667553e+002, 1.981893e+003
8.672374e+002, 1.981145e+003
8.677195e+002, 1.980997e+003
8.682017e+002, 1.983566e+003
8.686838e+002, 1.986822e+003
8.691659e+002, 1.987189e+003
8.696480e+002, 1.982121e+003
8.701301e+002, 1.979072e+003
8.706122e+002, 1.979175e+003
8.710944e+002, 1.980753e+003
8.715765e+002, 1.981918e+003
8.720586e+002, 1.982597e+003
8.725407e+002, 1.981912e+003
8.730228e+002, 1.979322e+003
8.735049e+002, 1.977318e+003
8.739871e+002, 1.979238e+003
8.744692e+002, 1.982366e+003
8.749513e+002, 1.983479e+003
8.754334e+002, 1.980694e+003
8.759155e+002, 1.979034e+003
8.763976e+002, 1.979382e+003
8.768798e+002, 1.980358e+003
8.773619e+002, 1.980964e+003
8.778440e+002, 1.981181e+003
8.783261e+002, 1.981316e+003
8.788082e+002, 1.981351e+003
8.792903e+002, 1.981584e+003
8.797725e+002, 1.982844e+003
8.802546e+002, 1.984134e+003
8.807367e+002, 1.983796e+003
8.812188e+002, 1.981650e+003
8.817009e+002, 1.980367e+003
8.821830e+002, 1.981057e+003
8.826652e+002, 1.982721e+003
8.831473e+002, 1.985043e+003
8.836294e+002, 1.987999e+003
8.841115e+002, 1.990599e+003
8.845936e+002, 1.992844e+003
8.850757e+002, 1.994719e+003
8.855579e+002, 1.996143e+003
8.860400e+002, 1.997222e+003
8.865221e+002, 1.997801e+003
8.870042e+002, 1.998100e+003
8.874863e+002, 1.999096e+003
8.879684e+002, 2.002702e+003
8.884506e+002, 2.005580e+003
8.889327e+002, 2.005700e+003
8.894148e+002, 2.003906e+003
8.898969e+002, 2.003009e+003
8.903790e+002, 2.003235e+003
8.908611e+002, 2.003610e+003
8.913433e+002, 2.003929e+003
8.918254e+002, 2.004212e+003
8.923075e+002, 2.004492e+003
8.927896e+002, 2.004788e+003
8.932717e+002, 2.005129e+003
8.937538e+002, 2.005639e+003
8.942360e+002, 2.006093e+003
8.947181e+002, 2.005822e+003
8.952002e+002, 2.005650e+003
8.956823e+002, 2.006946e+003
8.961644e+002, 2.010918e+003
8.966465e+002, 2.013657e+003
8.971287e+002, 2.014689e+003
8.976108e+002, 2.014922e+003
8.980929e+002, 2.015491e+003
8.985750e+002, 2.016216e+003
8.990571e+002, 2.016160e+003
8.995392e+002, 2.015020e+003
9.000214e+002, 2.014368e+003
9.005035e+002, 2.015553e+003
9.009856e+002, 2.017582e+003
9.014677e+002, 2.019704e+003
9.019498e+002, 2.021872e+003
9.024319e+002, 2.023590e+003
9.029141e+002, 2.024630e+003
9.033962e+002, 2.025572e+003
9.038783e+002, 2.026991e+003
9.043604e+002, 2.028713e+003
9.048425e+002, 2.029203e+003
9.053246e+002, 2.028547e+003
9.058068e+002, 2.028171e+003
9.062889e+002, 2.030301e+003
9.067710e+002, 2.032090e+003
9.072531e+002, 2.030627e+003
9.077352e+002, 2.026336e+003
9.082173e+002, 2.023313e+003
9.086995e+002, 2.022548e+003
9.091816e+002, 2.022465e+003
9.096637e+002, 2.022821e+003
9.101458e+002, 2.023511e+003
9.106279e+002, 2.024053e+003
9.111100e+002, 2.024521e+003
9.115922e+002, 2.025601e+003
9.120743e+002, 2.028028e+003
9.125564e+002, 2.030479e+003
9.130385e+002, 2.031525e+003
9.135206e+002, 2.031757e+003
9.140027e+002, 2.032209e+003
9.144849e+002, 2.033185e+003
9.149670e+002, 2.034310e+003
9.154491e+002, 2.035474e+003
9.159312e+002, 2.036826e+003
9.164133e+002, 2.039201e+003
9.168954e+002, 2.042415e+003
9.173776e+002, 2.042769e+003
9.178597e+002, 2.039513e+003
9.183418e+002, 2.035541e+003
9.188239e+002, 2.032285e+003
9.193060e+002, 2.030495e+003
9.197881e+002, 2.031511e+003
9.202703e+002, 2.036295e+003
9.207524e+002, 2.039996e+003
9.212345e+002, 2.041767e+003
9.217166e+002, 2.042499e+003
9.221987e+002, 2.042382e+003
9.226808e+002, 2.041502e+003
9.231630e+002, 2.041422e+003
9.236451e+002, 2.042160e+003
9.241272e+002, 2.042568e+003
9.246093e+002, 2.040837e+003
9.250914e+002, 2.039244e+003
9.255735e+002, 2.041029e+003
9.260557e+002, 2.045313e+003
9.265378e+002, 2.047832e+003
9.270199e+002, 2.044880e+003
9.275020e+002, 2.043283e+003
9.279841e+002, 2.044883e+003
9.284662e+002, 2.048522e+003
9.289484e+002, 2.051445e+003
9.294305e+002, 2.053651e+003
9.299126e+002, 2.055146e+003
9.303947e+002, 2.055474e+003
9.308768e+002, 2.055983e+003
9.313589e+002, 2.058924e+003
9.318411e+002, 2.062669e+003
9.323232e+002, 2.064775e+003
9.328053e+002, 2.063049e+003
9.332874e+002, 2.062359e+003
9.337695e+002, 2.063889e+003
9.342516e+002, 2.065651e+003
9.347338e+002, 2.065504e+003
9.352159e+002, 2.063552e+003
9.356980e+002, 2.062302e+003
9.361801e+002, 2.061926e+003
9.366622e+002, 2.062079e+003
9.371443e+002, 2.062807e+003
9.376265e+002, 2.063685e+003
9.381086e+002, 2.064284e+003
9.385907e+002, 2.064553e+003
9.390728e+002, 2.064648e+003
9.395549e+002, 2.064154e+003
9.400370e+002, 2.064069e+003
9.405192e+002, 2.064983e+003
9.410013e+002, 2.066526e+003
9.414834e+002, 2.066809e+003
9.419655e+002, 2.065972e+003
9.424476e+002, 2.065610e+003
9.429297e+002, 2.067862e+003
9.434119e+002, 2.069479e+003
9.438940e+002, 2.066396e+003
9.443761e+002, 2.060818e+003
9.448582e+002, 2.057257e+003
9.453403e+002, 2.058109e+003
9.458224e+002, 2.058979e+003
9.463046e+002, 2.059469e+003
9.467867e+002, 2.059966e+003
9.472688e+002, 2.061350e+003
9.477509e+002, 2.063345e+003
9.482330e+002, 2.064140e+003
9.487151e+002, 2.063347e+003
9.491973e+002, 2.062053e+003
9.496794e+002, 2.060218e+003
9.501615e+002, 2.058854e+003
9.506436e+002, 2.059114e+003
9.511257e+002, 2.061608e+003
9.516078e+002, 2.063435e+003
9.520900e+002, 2.064752e+003
9.525721e+002, 2.064946e+003
9.530542e+002, 2.063283e+003
9.535363e+002, 2.060266e+003
9.540184e+002, 2.057483e+003
9.545005e+002, 2.055138e+003
9.549827e+002, 2.054220e+003
9.554648e+002, 2.057155e+003
9.559469e+002, 2.059920e+003
9.564290e+002, 2.059246e+003
9.569111e+002, 2.056484e+003
9.573932e+002, 2.055917e+003
9.578754e+002, 2.058539e+003
9.583575e+002, 2.061081e+003
9.588396e+002, 2.063002e+003
9.593217e+002, 2.064460e+003
9.598038e+002, 2.065544e+003
9.602859e+002, 2.066328e+003
9.607681e+002, 2.066958e+003
9.612502e+002, 2.067330e+003
9.617323e+002, 2.068015e+003
9.622144e+002, 2.069992e+003
9.626965e+002, 2.071920e+003
9.631786e+002, 2.072597e+003
9.636608e+002, 2.071801e+003
9.641429e+002, 2.070843e+003
9.646250e+002, 2.069464e+003
9.651071e+002, 2.069252e+003
9.655892e+002, 2.072908e+003
9.660714e+002, 2.077860e+003
9.665535e+002, 2.078764e+003
9.670356e+002, 2.076230e+003
9.675177e+002, 2.073775e+003
9.679998e+002, 2.073042e+003
9.684819e+002, 2.072605e+003
9.689641e+002, 2.071254e+003
9.694462e+002, 2.069982e+003
9.699283e+002, 2.071815e+003
9.704104e+002, 2.077140e+003
9.708925e+002, 2.081263e+003
9.713746e+002, 2.083137e+003
9.718568e+002, 2.083443e+003
9.723389e+002, 2.081619e+003
9.728210e+002, 2.079343e+003
9.733031e+002, 2.079459e+003
9.737852e+002, 2.083910e+003
9.742673e+002, 2.087060e+003
9.747495e+002, 2.086744e+003
9.752316e+002, 2.086052e+003
9.757137e+002, 2.086792e+003
9.761958e+002, 2.088959e+003
9.766779e+002, 2.093202e+003
9.771600e+002, 2.099489e+003
9.776422e+002, 2.103988e+003
9.781243e+002, 2.102396e+003
9.786064e+002, 2.099267e+003
9.790885e+002, 2.098679e+003
9.795706e+002, 2.100252e+003
9.800527e+002, 2.101613e+003
9.805349e+002, 2.102315e+003
9.810170e+002, 2.102964e+003
9.814991e+002, 2.103745e+003
9.819812e+002, 2.104502e+003
9.824633e+002, 2.104426e+003
9.829454e+002, 2.103968e+003
9.834276e+002, 2.105178e+003
9.839097e+002, 2.109099e+003
9.843918e+002, 2.113050e+003
9.848739e+002, 2.115153e+003
9.853560e+002, 2.116478e+003
9.858381e+002, 2.117937e+003
9.863203e+002, 2.119438e+003
9.868024e+002, 2.121777e+003
9.872845e+002, 2.125080e+003
9.877666e+002, 2.128787e+003
9.882487e+002, 2.132888e+003
9.887308e+002, 2.136970e+003
9.892130e+002, 2.139408e+003
9.896951e+002, 2.140754e+003
9.901772e+002, 2.143863e+003
9.906593e+002, 2.151639e+003
9.911414e+002, 2.159712e+003
9.916235e+002, 2.166706e+003
9.921057e+002, 2.172733e+003
9.925878e+002, 2.177734e+003
9.930699e+002, 2.181496e+003
9.935520e+002, 2.186764e+003
9.940341e+002, 2.194284e+003
9.945162e+002, 2.202756e+003
9.949984e+002, 2.210410e+003
9.954805e+002, 2.218178e+003
9.959626e+002, 2.227377e+003
9.964447e+002, 2.238465e+003
9.969268e+002, 2.250315e+003
9.974089e+002, 2.262764e+003
9.978911e+002, 2.275667e+003
9.983732e+002, 2.288388e+003
9.988553e+002, 2.301284e+003
9.993374e+002, 2.317369e+003
9.998195e+002, 2.336724e+003
1.000302e+003, 2.360345e+003
1.000784e+003, 2.389878e+003
1.001266e+003, 2.423109e+003
1.001748e+003, 2.458938e+003
1.002230e+003, 2.497705e+003
1.002712e+003, 2.539505e+003
1.003194e+003, 2.582115e+003
1.003676e+003, 2.632065e+003
1.004159e+003, 2.690144e+003
1.004641e+003, 2.756840e+003
1.005123e+003, 2.831847e+003
1.005605e+003, 2.917106e+003
1.006087e+003, 3.015696e+003
1.006569e+003, 3.128659e+003
1.007051e+003, 3.261848e+003
1.007533e+003, 3.420388e+003
1.008016e+003, 3.601699e+003
1.008498e+003, 3.805793e+003
1.008980e+003, 4.031290e+003
1.009462e+003, 4.277337e+003
1.009944e+003, 4.547848e+003
1.010426e+003, 4.810094e+003
1.010908e+003, 5.067635e+003
1.011390e+003, 5.282590e+003
1.011872e+003, 5.434009e+003
1.012355e+003, 5.505305e+003
1.012837e+003, 5.465501e+003
1.013319e+003, 5.254585e+003
1.013801e+003, 4.993505e+003
1.014283e+003, 4.669916e+003
1.014765e+003, 4.333471e+003
1.015247e+003, 4.027235e+003
1.015729e+003, 3.749985e+003
1.016211e+003, 3.511224e+003
1.016694e+003, 3.311505e+003
1.017176e+003, 3.141698e+003
1.017658e+003, 3.000326e+003
1.018140e+003, 2.882554e+003
1.018622e+003, 2.788184e+003
1.019104e+003, 2.715326e+003
1.019586e+003, 2.649833e+003
1.020068e+003, 2.591621e+003
1.020551e+003, 2.541268e+003
1.021033e+003, 2.499688e+003
1.021515e+003, 2.464566e+003
1.021997e+003, 2.434068e+003
1.022479e+003, 2.407208e+003
1.022961e+003, 2.382522e+003
1.023443e+003, 2.360327e+003
1.023925e+003, 2.338626e+003
1.024407e+003, 2.315396e+003
1.024890e+003, 2.293975e+003
1.025372e+003, 2.277508e+003
1.025854e+003, 2.266103e+003
1.026336e+003, 2.252503e+003
1.026818e+003, 2.236724e+003
1.027300e+003, 2.222460e+003
1.027782e+003, 2.212634e+003
1.028264e+003, 2.204769e+003
1.028746e+003, 2.197495e+003
1.029229e+003, 2.190596e+003
1.029711e+003, 2.183254e+003
1.030193e+003, 2.174620e+003
1.030675e+003, 2.167524e+003
1.031157e+003, 2.162579e+003
1.031639e+003, 2.159019e+003
1.032121e+003, 2.156447e+003
1.032603e+003, 2.154153e+003
1.033086e+003, 2.150260e+003
1.033568e+003, 2.144095e+003
1.034050e+003, 2.138738e+003
1.034532e+003, 2.136208e+003
1.035014e+003, 2.134282e+003
1.035496e+003, 2.131547e+003
1.035978e+003, 2.128194e+003
1.036460e+003, 2.126655e+003
1.036943e+003, 2.126907e+003
1.037425e+003, 2.126294e+003
1.037907e+003, 2.122809e+003
1.038389e+003, 2.118868e+003
1.038871e+003, 2.116886e+003
1.039353e+003, 2.116094e+003
1.039835e+003, 2.115222e+003
1.040317e+003, 2.114375e+003
1.040799e+003, 2.112778e+003
1.041281e+003, 2.110146e+003
1.041764e+003, 2.107344e+003
1.042246e+003, 2.104776e+003
1.042728e+003, 2.102763e+003
1.043210e+003, 2.102831e+003
1.043692e+003, 2.104829e+003
1.044174e+003, 2.106008e+003
1.044656e+003, 2.104643e+003
1.045138e+003, 2.102465e+003
1.045621e+003, 2.099552e+003
1.046103e+003, 2.096605e+003
1.046585e+003, 2.096290e+003
1.047067e+003, 2.098706e+003
1.047549e+003, 2.098330e+003
1.048031e+003, 2.092918e+003
1.048513e+003, 2.087617e+003
1.048995e+003, 2.088809e+003
1.049478e+003, 2.092483e+003
1.049960e+003, 2.093921e+003
1.050442e+003, 2.091406e+003
1.050924e+003, 2.090564e+003
1.051406e+003, 2.091612e+003
1.051888e+003, 2.093963e+003
1.052370e+003, 2.097138e+003
1.052852e+003, 2.101424e+003
1.053334e+003, 2.110049e+003
1.053817e+003, 2.120753e+003
1.054299e+003, 2.126099e+003
1.054781e+003, 2.118333e+003
1.055263e+003, 2.110012e+003
1.055745e+003, 2.103477e+003
1.056227e+003, 2.099147e+003
1.056709e+003, 2.098198e+003
1.057191e+003, 2.100669e+003
1.057673e+003, 2.103087e+003
1.058156e+003, 2.105266e+003
1.058638e+003, 2.106176e+003
1.059120e+003, 2.103632e+003
1.059602e+003, 2.100617e+003
1.060084e+003, 2.099994e+003
1.060566e+003, 2.101628e+003
1.061048e+003, 2.102208e+003
1.061530e+003, 2.101336e+003
1.062013e+003, 2.100515e+003
1.062495e+003, 2.100387e+003
1.062977e+003, 2.100051e+003
1.063459e+003, 2.096616e+003
1.063941e+003, 2.092246e+003
1.064423e+003, 2.091377e+003
1.064905e+003, 2.095877e+003
1.065387e+003, 2.100615e+003
1.065870e+003, 2.104763e+003
1.066352e+003, 2.107814e+003
1.066834e+003, 2.109244e+003
1.067316e+003, 2.109231e+003
1.067798e+003, 2.109356e+003
1.068280e+003, 2.109555e+003
1.068762e+003, 2.109437e+003
1.069244e+003, 2.107473e+003
1.069726e+003, 2.106524e+003
1.070208e+003, 2.109759e+003
1.070691e+003, 2.114709e+003
1.071173e+003, 2.117256e+003
1.071655e+003, 2.116581e+003
1.072137e+003, 2.116358e+003
1.072619e+003, 2.116818e+003
1.073101e+003, 2.117521e+003
1.073583e+003, 2.117811e+003
1.074065e+003, 2.118269e+003
1.074548e+003, 2.119874e+003
1.075030e+003, 2.122508e+003
1.075512e+003, 2.124991e+003
1.075994e+003, 2.127170e+003
1.076476e+003, 2.128992e+003
1.076958e+003, 2.130620e+003
1.077440e+003, 2.131616e+003
1.077922e+003, 2.130831e+003
1.078405e+003, 2.128726e+003
1.078887e+003, 2.126496e+003
1.079369e+003, 2.124131e+003
1.079851e+003, 2.123162e+003
1.080333e+003, 2.124595e+003
1.080815e+003, 2.127683e+003
1.081297e+003, 2.132569e+003
1.081779e+003, 2.138846e+003
1.082261e+003, 2.141715e+003
1.082744e+003, 2.141213e+003
1.083226e+003, 2.139950e+003
1.083708e+003, 2.138709e+003
1.084190e+003, 2.137699e+003
1.084672e+003, 2.136783e+003
1.085154e+003, 2.136330e+003
1.085636e+003, 2.137000e+003
1.086118e+003, 2.139414e+003
1.086601e+003, 2.141740e+003
1.087083e+003, 2.144319e+003
1.087565e+003, 2.145624e+003
1.088047e+003, 2.143385e+003
1.088529e+003, 2.139623e+003
1.089011e+003, 2.138229e+003
1.089493e+003, 2.138660e+003
1.089975e+003, 2.138230e+003
1.090458e+003, 2.134191e+003
1.090940e+003, 2.131845e+003
1.091422e+003, 2.132953e+003
1.091904e+003, 2.135148e+003
1.092386e+003, 2.134285e+003
1.092868e+003, 2.131329e+003
1.093350e+003, 2.130682e+003
1.093832e+003, 2.132931e+003
1.094314e+003, 2.135768e+003
1.094797e+003, 2.138747e+003
1.095279e+003, 2.140899e+003
1.095761e+003, 2.141563e+003
1.096243e+003, 2.140925e+003
1.096725e+003, 2.139138e+003
1.097207e+003, 2.136132e+003
1.097689e+003, 2.134542e+003
1.098171e+003, 2.135136e+003
1.098653e+003, 2.137415e+003
1.099136e+003, 2.142589e+003
1.099618e+003, 2.148184e+003
1.100100e+003, 2.151072e+003
1.100582e+003, 2.149941e+003
1.101064e+003, 2.150663e+003
1.101546e+003, 2.153718e+003
1.102028e+003, 2.156817e+003
1.102510e+003, 2.158750e+003
1.102993e+003, 2.159936e+003
1.103475e+003, 2.161068e+003
1.103957e+003, 2.162079e+003
1.104439e+003, 2.162819e+003
1.104921e+003, 2.162354e+003
1.105403e+003, 2.163082e+003
1.105885e+003, 2.165898e+003
1.106367e+003, 2.168838e+003
1.106849e+003, 2.169984e+003
1.107332e+003, 2.169693e+003
1.107814e+003, 2.169241e+003
1.108296e+003, 2.168693e+003
1.108778e+003, 2.168020e+003
1.109260e+003, 2.167225e+003
1.109742e+003, 2.166340e+003
1.110224e+003, 2.165273e+003
1.110706e+003, 2.164245e+003
1.111188e+003, 2.164003e+003
1.111671e+003, 2.164487e+003
1.112153e+003, 2.162716e+003
1.112635e+003, 2.158038e+003
1.113117e+003, 2.154130e+003
1.113599e+003, 2.154641e+003
1.114081e+003, 2.156622e+003
1.114563e+003, 2.157744e+003
1.115045e+003, 2.158073e+003
1.115528e+003, 2.159205e+003
1.116010e+003, 2.161259e+003
1.116492e+003, 2.163216e+003
1.116974e+003, 2.164647e+003
1.117456e+003, 2.166028e+003
1.117938e+003, 2.168238e+003
1.118420e+003, 2.170539e+003
1.118902e+003, 2.171773e+003
1.119385e+003, 2.171161e+003
1.119867e+003, 2.171755e+003
1.120349e+003, 2.174056e+003
1.120831e+003, 2.176256e+003
1.121313e+003, 2.177271e+003
1.121795e+003, 2.177658e+003
1.122277e+003, 2.178390e+003
1.122759e+003, 2.179556e+003
1.123241e+003, 2.181429e+003
1.123724e+003, 2.185858e+003
1.124206e+003, 2.188142e+003
1.124688e+003, 2.187089e+003
1.125170e+003, 2.184929e+003
1.125652e+003, 2.182982e+003
1.126134e+003, 2.181524e+003
1.126616e+003, 2.182276e+003
1.127098e+003, 2.184938e+003
1.127580e+003, 2.187352e+003
1.128063e+003, 2.187968e+003
1.128545e+003, 2.188625e+003
1.129027e+003, 2.190091e+003
1.129509e+003, 2.191969e+003
1.129991e+003, 2.193572e+003
1.130473e+003, 2.194896e+003
1.130955e+003, 2.197441e+003
1.131437e+003, 2.201331e+003
1.131920e+003, 2.204868e+003
1.132402e+003, 2.206621e+003
1.132884e+003, 2.207689e+003
1.133366e+003, 2.208981e+003
1.133848e+003, 2.210187e+003
1.134330e+003, 2.210119e+003
1.134812e+003, 2.208615e+003
1.135294e+003, 2.206897e+003
1.135776e+003, 2.205024e+003
1.136259e+003, 2.203909e+003
1.136741e+003, 2.205180e+003
1.137223e+003, 2.207222e+003
1.137705e+003, 2.208406e+003
1.138187e+003, 2.208485e+003
1.138669e+003, 2.208768e+003
1.139151e+003, 2.209801e+003
1.139633e+003, 2.208936e+003
1.140115e+003, 2.204558e+003
1.140598e+003, 2.199259e+003
1.141080e+003, 2.196689e+003
1.141562e+003, 2.195862e+003
1.142044e+003, 2.195325e+003
1.142526e+003, 2.195044e+003
1.143008e+003, 2.194125e+003
1.143490e+003, 2.192444e+003
1.143972e+003, 2.190366e+003
1.144455e+003, 2.187719e+003
1.144937e+003, 2.185115e+003
1.145419e+003, 2.184421e+003
1.145901e+003, 2.184920e+003
1.146383e+003, 2.184698e+003
1.146865e+003, 2.181980e+003
1.147347e+003, 2.180352e+003
1.147829e+003, 2.180698e+003
1.148312e+003, 2.181639e+003
1.148794e+003, 2.182144e+003
1.149276e+003, 2.182313e+003
1.149758e+003, 2.182703e+003
1.150240e+003, 2.183233e+003
1.150722e+003, 2.183444e+003
1.151204e+003, 2.183486e+003
1.151686e+003, 2.182609e+003
1.152168e+003, 2.179046e+003
1.152651e+003, 2.175794e+003
1.153133e+003, 2.177089e+003
1.153615e+003, 2.182376e+003
1.154097e+003, 2.186078e+003
1.154579e+003, 2.187804e+003
1.155061e+003, 2.188601e+003
1.155543e+003, 2.187929e+003
1.156025e+003, 2.187728e+003
1.156507e+003, 2.189834e+003
1.156990e+003, 2.192861e+003
1.157472e+003, 2.194020e+003
1.157954e+003, 2.193288e+003
1.158436e+003, 2.192963e+003
1.158918e+003, 2.193320e+003
1.159400e+003, 2.194572e+003
1.159882e+003, 2.197481e+003
1.160364e+003, 2.200846e+003
1.160847e+003, 2.203759e+003
1.161329e+003, 2.206305e+003
1.161811e+003, 2.209351e+003
1.162293e+003, 2.213034e+003
1.162775e+003, 2.215299e+003
1.163257e+003, 2.215392e+003
1.163739e+003, 2.214989e+003
1.164221e+003, 2.215769e+003
1.164703e+003, 2.216949e+003
1.165186e+003, 2.217422e+003
1.165668e+003, 2.217067e+003
1.166150e+003, 2.219012e+003
1.166632e+003, 2.223831e+003
1.167114e+003, 2.227518e+003
1.167596e+003, 2.228028e+003
1.168078e+003, 2.228043e+003
1.168560e+003, 2.231301e+003
1.169042e+003, 2.236066e+003
1.169525e+003, 2.240158e+003
1.170007e+003, 2.243411e+003
1.170489e+003, 2.244469e+003
1.170971e+003, 2.242431e+003
1.171453e+003, 2.241523e+003
1.171935e+003, 2.244535e+003
1.172417e+003, 2.249159e+003
1.172899e+003, 2.251950e+003
1.173382e+003, 2.253611e+003
1.173864e+003, 2.255409e+003
1.174346e+003, 2.257943e+003
1.174828e+003, 2.260036e+003
1.175310e+003, 2.262086e+003
1.175792e+003, 2.262464e+003
1.176274e+003, 2.258826e+003
1.176756e+003, 2.253377e+003
1.177239e+003, 2.250181e+003
1.177721e+003, 2.248692e+003
1.178203e+003, 2.247396e+003
1.178685e+003, 2.247456e+003
1.179167e+003, 2.244958e+003
1.179649e+003, 2.238692e+003
1.180131e+003, 2.232211e+003
1.180613e+003, 2.228750e+003
1.181095e+003, 2.227542e+003
1.181578e+003, 2.227735e+003
1.182060e+003, 2.228747e+003
1.182542e+003, 2.228242e+003
1.183024e+003, 2.222988e+003
1.183506e+003, 2.219604e+003
1.183988e+003, 2.219180e+003
1.184470e+003, 2.220536e+003
1.184952e+003, 2.223294e+003
1.185434e+003, 2.226481e+003
1.185917e+003, 2.227377e+003
1.186399e+003, 2.225992e+003
1.186881e+003, 2.224331e+003
1.187363e+003, 2.221825e+003
1.187845e+003, 2.221052e+003
1.188327e+003, 2.222923e+003
1.188809e+003, 2.226023e+003
1.189291e+003, 2.228858e+003
1.189774e+003, 2.231090e+003
1.190256e+003, 2.231288e+003
1.190738e+003, 2.229328e+003
1.191220e+003, 2.228012e+003
1.191702e+003, 2.228991e+003
1.192184e+003, 2.230424e+003
1.192666e+003, 2.232276e+003
1.193148e+003, 2.233676e+003
1.193630e+003, 2.232328e+003
1.194113e+003, 2.229065e+003
1.194595e+003, 2.226308e+003
1.195077e+003, 2.224460e+003
1.195559e+003, 2.224177e+003
1.196041e+003, 2.228232e+003
1.196523e+003, 2.230965e+003
1.197005e+003, 2.229496e+003
1.197487e+003, 2.225858e+003
1.197969e+003, 2.225526e+003
1.198452e+003, 2.227808e+003
1.198934e+003, 2.230347e+003
1.199416e+003, 2.232655e+003
1.199898e+003, 2.234479e+003
1.200380e+003, 2.235047e+003
1.200862e+003, 2.235730e+003
1.201344e+003, 2.237242e+003
1.201826e+003, 2.239293e+003
1.202309e+003, 2.240636e+003
1.202791e+003, 2.241560e+003
1.203273e+003, 2.243595e+003
1.203755e+003, 2.248359e+003
1.204237e+003, 2.250727e+003
1.204719e+003, 2.246051e+003
1.205201e+003, 2.240621e+003
1.205683e+003, 2.237527e+003
1.206166e+003, 2.236699e+003
1.206648e+003, 2.238623e+003
1.207130e+003, 2.242438e+003
1.207612e+003, 2.244212e+003
1.208094e+003, 2.240948e+003
1.208576e+003, 2.238869e+003
1.209058e+003, 2.242671e+003
1.209540e+003, 2.246487e+003
1.210022e+003, 2.246016e+003
1.210505e+003, 2.242254e+003
1.210987e+003, 2.241904e+003
1.211469e+003, 2.244278e+003
1.211951e+003, 2.246200e+003
1.212433e+003, 2.245471e+003
1.212915e+003, 2.245390e+003
1.213397e+003, 2.248123e+003
1.213879e+003, 2.251035e+003
1.214361e+003, 2.252222e+003
1.214844e+003, 2.251844e+003
1.215326e+003, 2.250702e+003
1.215808e+003, 2.249024e+003
1.216290e+003, 2.247984e+003
1.216772e+003, 2.248793e+003
1.217254e+003, 2.249446e+003
1.217736e+003, 2.248821e+003
1.218218e+003, 2.248329e+003
1.218701e+003, 2.249834e+003
1.219183e+003, 2.252721e+003
1.219665e+003, 2.252229e+003
1.220147e+003, 2.248982e+003
1.220629e+003, 2.246604e+003
1.221111e+003, 2.247922e+003
1.221593e+003, 2.248995e+003
1.222075e+003, 2.248653e+003
1.222557e+003, 2.247787e+003
1.223040e+003, 2.247178e+003
1.223522e+003, 2.246830e+003
1.224004e+003, 2.246509e+003
1.224486e+003, 2.246327e+003
1.224968e+003, 2.246899e+003
1.225450e+003, 2.250532e+003
1.225932e+003, 2.252023e+003
1.226414e+003, 2.248876e+003
1.226896e+003, 2.245043e+003
1.227379e+003, 2.245441e+003
1.227861e+003, 2.248945e+003
1.228343e+003, 2.251946e+003
1.228825e+003, 2.254193e+003
1.229307e+003, 2.255555e+003
1.229789e+003, 2.254790e+003
1.230271e+003, 2.254748e+003
1.230753e+003, 2.256271e+003
1.231236e+003, 2.258391e+003
1.231718e+003, 2.260139e+003
1.232200e+003, 2.261427e+003
1.232682e+003, 2.261574e+003
1.233164e+003, 2.260756e+003
1.233646e+003, 2.260540e+003
1.234128e+003, 2.261863e+003
1.234610e+003, 2.263713e+003
1.235093e+003, 2.266427e+003
1.235575e+003, 2.268618e+003
1.236057e+003, 2.267780e+003
1.236539e+003, 2.265172e+003
1.237021e+003, 2.263216e+003
1.237503e+003, 2.262196e+003
1.237985e+003, 2.262530e+003
1.238467e+003, 2.265953e+003
1.238949e+003, 2.268367e+003
1.239432e+003, 2.269204e+003
1.239914e+003, 2.268529e+003
1.240396e+003, 2.265124e+003
1.240878e+003, 2.260812e+003
1.241360e+003, 2.259546e+003
1.241842e+003, 2.261368e+003
1.242324e+003, 2.262070e+003
1.242806e+003, 2.260345e+003
1.243288e+003, 2.258319e+003
1.243771e+003, 2.256151e+003
1.244253e+003, 2.254390e+003
1.244735e+003, 2.254771e+003
1.245217e+003, 2.255447e+003
1.245699e+003, 2.252712e+003
1.246181e+003, 2.246585e+003
1.246663e+003, 2.243512e+003
1.247145e+003, 2.244674e+003
1.247628e+003, 2.246997e+003
1.248110e+003, 2.250231e+003
1.248592e+003, 2.253097e+003
1.249074e+003, 2.253910e+003
1.249556e+003, 2.253450e+003
1.250038e+003, 2.252755e+003
1.250520e+003, 2.251821e+003
1.251002e+003, 2.249282e+003
1.251484e+003, 2.244483e+003
1.251967e+003, 2.241075e+003
1.252449e+003, 2.240053e+003
1.252931e+003, 2.240027e+003
1.253413e+003, 2.239213e+003
1.253895e+003, 2.238774e+003
1.254377e+003, 2.240381e+003
1.254859e+003, 2.243849e+003
1.255341e+003, 2.246119e+003
1.255823e+003, 2.247184e+003
1.256306e+003, 2.246563e+003
1.256788e+003, 2.243761e+003
1.257270e+003, 2.241197e+003
1.257752e+003, 2.241156e+003
1.258234e+003, 2.242310e+003
1.258716e+003, 2.243724e+003
1.259198e+003, 2.245321e+003
1.259680e+003, 2.247467e+003
1.260163e+003, 2.250187e+003
1.260645e+003, 2.251013e+003
1.261127e+003, 2.249394e+003
1.261609e+003, 2.246042e+003
1.262091e+003, 2.238191e+003
1.262573e+003, 2.232134e+003
1.263055e+003, 2.233195e+003
1.263537e+003, 2.239131e+003
1.264020e+003, 2.241583e+003
1.264502e+003, 2.241238e+003
1.264984e+003, 2.244285e+003
1.265466e+003, 2.253070e+003
1.265948e+003, 2.258251e+003
1.266430e+003, 2.250754e+003
1.266912e+003, 2.241843e+003
1.267394e+003, 2.236416e+003
1.267876e+003, 2.234289e+003
1.268359e+003, 2.236431e+003
1.268841e+003, 2.241301e+003
1.269323e+003, 2.242761e+003
1.269805e+003, 2.239021e+003
1.270287e+003, 2.235952e+003
1.270769e+003, 2.237312e+003
1.271251e+003, 2.238028e+003
1.271733e+003, 2.235850e+003
1.272215e+003, 2.232736e+003
1.272698e+003, 2.233366e+003
1.273180e+003, 2.236332e+003
1.273662e+003, 2.238588e+003
1.274144e+003, 2.239631e+003
1.274626e+003, 2.239883e+003
1.275108e+003, 2.239119e+003
1.275590e+003, 2.238469e+003
1.276072e+003, 2.238329e+003
1.276555e+003, 2.238448e+003
1.277037e+003, 2.237617e+003
1.277519e+003, 2.237116e+003
1.278001e+003, 2.239534e+003
1.278483e+003, 2.245500e+003
1.278965e+003, 2.249430e+003
1.279447e+003, 2.250579e+003
1.279929e+003, 2.251088e+003
1.280411e+003, 2.251424e+003
1.280894e+003, 2.251753e+003
1.281376e+003, 2.252702e+003
1.281858e+003, 2.253459e+003
1.282340e+003, 2.252766e+003
1.282822e+003, 2.250618e+003
1.283304e+003, 2.249723e+003
1.283786e+003, 2.250211e+003
1.284268e+003, 2.250651e+003
1.284750e+003, 2.250649e+003
1.285233e+003, 2.250653e+003
1.285715e+003, 2.251911e+003
1.286197e+003, 2.252672e+003
1.286679e+003, 2.250912e+003
1.287161e+003, 2.247435e+003
1.287643e+003, 2.245356e+003
1.288125e+003, 2.244693e+003
1.288607e+003, 2.245841e+003
1.289090e+003, 2.249315e+003
1.289572e+003, 2.251862e+003
1.290054e+003, 2.250585e+003
1.290536e+003, 2.248755e+003
1.291018e+003, 2.248137e+003
1.291500e+003, 2.248266e+003
1.291982e+003, 2.247531e+003
1.292464e+003, 2.246422e+003
1.292947e+003, 2.246732e+003
1.293429e+003, 2.248844e+003
1.293911e+003, 2.251810e+003
1.294393e+003, 2.256408e+003
1.294875e+003, 2.260150e+003
1.295357e+003, 2.261948e+003
1.295839e+003, 2.262727e+003
1.296321e+003, 2.264630e+003
1.296803e+003, 2.267077e+003
1.297286e+003, 2.268887e+003
1.297768e+003, 2.269848e+003
1.298250e+003, 2.270100e+003
1.298732e+003, 2.269485e+003
1.299214e+003, 2.268628e+003
1.299696e+003, 2.267577e+003
1.300178e+003, 2.267068e+003
1.300660e+003, 2.268545e+003
##END=



