##NAMES=Takedaite
##RRUFFID=R140795
##IDEAL CHEMISTRY=Ca_3_B_2_O_6_
##LOCALITY=Fuka mine, Bitchu-cho-fuka, Takahashi City, Okayama Prefecture, Chugoku Region, Honshu Island, Japan
##OWNER=RRUFF
##SOURCE=Rock Currier
##DESCRIPTION=Gray-white granular associated with nifontovite
##STATUS=The identification of this mineral has been confirmed by single-crystal X-ray diffraction.
##URL=rruff.info/R140795
8.758203e+001, 4.538737e+002
8.806415e+001, 4.578680e+002
8.854626e+001, 4.586088e+002
8.902838e+001, 4.545498e+002
8.951050e+001, 4.495737e+002
8.999261e+001, 4.451356e+002
9.047473e+001, 4.412679e+002
9.095685e+001, 4.373727e+002
9.143896e+001, 4.327818e+002
9.192108e+001, 4.274904e+002
9.240320e+001, 4.227922e+002
9.288531e+001, 4.143116e+002
9.336743e+001, 3.992511e+002
9.384955e+001, 3.793160e+002
9.433167e+001, 3.604482e+002
9.481378e+001, 3.421441e+002
9.529590e+001, 3.260799e+002
9.577802e+001, 3.120028e+002
9.626013e+001, 3.000672e+002
9.674225e+001, 2.906630e+002
9.722437e+001, 2.834371e+002
9.770648e+001, 2.764687e+002
9.818860e+001, 2.693654e+002
9.867072e+001, 2.623625e+002
9.915283e+001, 2.553996e+002
9.963495e+001, 2.484723e+002
1.001171e+002, 2.418874e+002
1.005992e+002, 2.361009e+002
1.010813e+002, 2.310835e+002
1.015634e+002, 2.266997e+002
1.020455e+002, 2.227160e+002
1.025277e+002, 2.191153e+002
1.030098e+002, 2.158229e+002
1.034919e+002, 2.127922e+002
1.039740e+002, 2.101035e+002
1.044561e+002, 2.081075e+002
1.049382e+002, 2.082566e+002
1.054204e+002, 2.074182e+002
1.059025e+002, 2.049421e+002
1.063846e+002, 2.012569e+002
1.068667e+002, 1.969863e+002
1.073488e+002, 1.923488e+002
1.078309e+002, 1.875033e+002
1.083131e+002, 1.836227e+002
1.087952e+002, 1.809482e+002
1.092773e+002, 1.788158e+002
1.097594e+002, 1.770883e+002
1.102415e+002, 1.757196e+002
1.107236e+002, 1.742701e+002
1.112058e+002, 1.721717e+002
1.116879e+002, 1.696951e+002
1.121700e+002, 1.677307e+002
1.126521e+002, 1.668663e+002
1.131342e+002, 1.665162e+002
1.136163e+002, 1.656646e+002
1.140985e+002, 1.640540e+002
1.145806e+002, 1.623959e+002
1.150627e+002, 1.613723e+002
1.155448e+002, 1.607117e+002
1.160269e+002, 1.597289e+002
1.165090e+002, 1.577349e+002
1.169912e+002, 1.547618e+002
1.174733e+002, 1.522668e+002
1.179554e+002, 1.504542e+002
1.184375e+002, 1.490422e+002
1.189196e+002, 1.480098e+002
1.194017e+002, 1.473103e+002
1.198839e+002, 1.468335e+002
1.203660e+002, 1.465061e+002
1.208481e+002, 1.464971e+002
1.213302e+002, 1.461888e+002
1.218123e+002, 1.455909e+002
1.222944e+002, 1.447604e+002
1.227766e+002, 1.436666e+002
1.232587e+002, 1.423221e+002
1.237408e+002, 1.408271e+002
1.242229e+002, 1.393797e+002
1.247050e+002, 1.379053e+002
1.251871e+002, 1.365862e+002
1.256693e+002, 1.352479e+002
1.261514e+002, 1.341098e+002
1.266335e+002, 1.335775e+002
1.271156e+002, 1.339053e+002
1.275977e+002, 1.347174e+002
1.280798e+002, 1.348723e+002
1.285620e+002, 1.342623e+002
1.290441e+002, 1.333945e+002
1.295262e+002, 1.324052e+002
1.300083e+002, 1.313033e+002
1.304904e+002, 1.301124e+002
1.309725e+002, 1.287241e+002
1.314547e+002, 1.273316e+002
1.319368e+002, 1.263032e+002
1.324189e+002, 1.257655e+002
1.329010e+002, 1.254673e+002
1.333831e+002, 1.252143e+002
1.338652e+002, 1.250262e+002
1.343474e+002, 1.247806e+002
1.348295e+002, 1.243293e+002
1.353116e+002, 1.238115e+002
1.357937e+002, 1.233710e+002
1.362758e+002, 1.230621e+002
1.367579e+002, 1.228650e+002
1.372401e+002, 1.227621e+002
1.377222e+002, 1.229309e+002
1.382043e+002, 1.228980e+002
1.386864e+002, 1.223778e+002
1.391685e+002, 1.216031e+002
1.396507e+002, 1.209298e+002
1.401328e+002, 1.206344e+002
1.406149e+002, 1.206965e+002
1.410970e+002, 1.205293e+002
1.415791e+002, 1.197478e+002
1.420612e+002, 1.190880e+002
1.425434e+002, 1.187152e+002
1.430255e+002, 1.186324e+002
1.435076e+002, 1.187933e+002
1.439897e+002, 1.191889e+002
1.444718e+002, 1.198972e+002
1.449539e+002, 1.203835e+002
1.454361e+002, 1.206996e+002
1.459182e+002, 1.208153e+002
1.464003e+002, 1.205597e+002
1.468824e+002, 1.199832e+002
1.473645e+002, 1.194492e+002
1.478466e+002, 1.193818e+002
1.483288e+002, 1.199366e+002
1.488109e+002, 1.205306e+002
1.492930e+002, 1.211222e+002
1.497751e+002, 1.217650e+002
1.502572e+002, 1.225353e+002
1.507393e+002, 1.234631e+002
1.512215e+002, 1.244454e+002
1.517036e+002, 1.253104e+002
1.521857e+002, 1.260543e+002
1.526678e+002, 1.268855e+002
1.531499e+002, 1.279316e+002
1.536320e+002, 1.291144e+002
1.541142e+002, 1.302430e+002
1.545963e+002, 1.312752e+002
1.550784e+002, 1.322210e+002
1.555605e+002, 1.331138e+002
1.560426e+002, 1.339514e+002
1.565247e+002, 1.347430e+002
1.570069e+002, 1.355020e+002
1.574890e+002, 1.362280e+002
1.579711e+002, 1.368786e+002
1.584532e+002, 1.375065e+002
1.589353e+002, 1.379935e+002
1.594174e+002, 1.383555e+002
1.598996e+002, 1.385802e+002
1.603817e+002, 1.384444e+002
1.608638e+002, 1.376862e+002
1.613459e+002, 1.362641e+002
1.618280e+002, 1.343108e+002
1.623102e+002, 1.315431e+002
1.627923e+002, 1.285009e+002
1.632744e+002, 1.255141e+002
1.637565e+002, 1.226705e+002
1.642386e+002, 1.199158e+002
1.647207e+002, 1.170779e+002
1.652029e+002, 1.140078e+002
1.656850e+002, 1.111485e+002
1.661671e+002, 1.085088e+002
1.666492e+002, 1.060905e+002
1.671313e+002, 1.038590e+002
1.676134e+002, 1.018187e+002
1.680956e+002, 9.998483e+001
1.685777e+002, 9.840928e+001
1.690598e+002, 9.750253e+001
1.695419e+002, 9.639485e+001
1.700240e+002, 9.484425e+001
1.705061e+002, 9.308851e+001
1.709883e+002, 9.142127e+001
1.714704e+002, 8.997477e+001
1.719525e+002, 8.875850e+001
1.724346e+002, 8.785873e+001
1.729167e+002, 8.755612e+001
1.733988e+002, 8.717677e+001
1.738810e+002, 8.647092e+001
1.743631e+002, 8.552735e+001
1.748452e+002, 8.455628e+001
1.753273e+002, 8.363454e+001
1.758094e+002, 8.280689e+001
1.762915e+002, 8.219776e+001
1.767737e+002, 8.190005e+001
1.772558e+002, 8.169311e+001
1.777379e+002, 8.146784e+001
1.782200e+002, 8.122494e+001
1.787021e+002, 8.096091e+001
1.791842e+002, 8.066473e+001
1.796664e+002, 8.034687e+001
1.801485e+002, 8.002033e+001
1.806306e+002, 7.963898e+001
1.811127e+002, 7.929977e+001
1.815948e+002, 7.913921e+001
1.820769e+002, 7.918597e+001
1.825591e+002, 7.924639e+001
1.830412e+002, 7.923767e+001
1.835233e+002, 7.917974e+001
1.840054e+002, 7.908846e+001
1.844875e+002, 7.897839e+001
1.849696e+002, 7.882674e+001
1.854518e+002, 7.857159e+001
1.859339e+002, 7.815121e+001
1.864160e+002, 7.776658e+001
1.868981e+002, 7.754661e+001
1.873802e+002, 7.738219e+001
1.878623e+002, 7.712706e+001
1.883445e+002, 7.667986e+001
1.888266e+002, 7.613262e+001
1.893087e+002, 7.580413e+001
1.897908e+002, 7.578185e+001
1.902729e+002, 7.588441e+001
1.907550e+002, 7.599366e+001
1.912372e+002, 7.619905e+001
1.917193e+002, 7.664951e+001
1.922014e+002, 7.745779e+001
1.926835e+002, 7.855984e+001
1.931656e+002, 7.951211e+001
1.936477e+002, 8.029224e+001
1.941299e+002, 8.091357e+001
1.946120e+002, 8.132243e+001
1.950941e+002, 8.157752e+001
1.955762e+002, 8.177251e+001
1.960583e+002, 8.197697e+001
1.965404e+002, 8.218108e+001
1.970226e+002, 8.219675e+001
1.975047e+002, 8.161703e+001
1.979868e+002, 8.128232e+001
1.984689e+002, 8.155103e+001
1.989510e+002, 8.226547e+001
1.994331e+002, 8.301584e+001
1.999153e+002, 8.348973e+001
2.003974e+002, 8.370668e+001
2.008795e+002, 8.436852e+001
2.013616e+002, 8.581172e+001
2.018437e+002, 8.726819e+001
2.023258e+002, 8.834810e+001
2.028080e+002, 8.912881e+001
2.032901e+002, 8.995897e+001
2.037722e+002, 9.109206e+001
2.042543e+002, 9.252573e+001
2.047364e+002, 9.401727e+001
2.052185e+002, 9.526168e+001
2.057007e+002, 9.680327e+001
2.061828e+002, 9.898382e+001
2.066649e+002, 1.017902e+002
2.071470e+002, 1.049716e+002
2.076291e+002, 1.083117e+002
2.081112e+002, 1.119344e+002
2.085934e+002, 1.161624e+002
2.090755e+002, 1.213100e+002
2.095576e+002, 1.268714e+002
2.100397e+002, 1.326292e+002
2.105218e+002, 1.386181e+002
2.110039e+002, 1.441748e+002
2.114861e+002, 1.494176e+002
2.119682e+002, 1.537695e+002
2.124503e+002, 1.560919e+002
2.129324e+002, 1.561181e+002
2.134145e+002, 1.540318e+002
2.138967e+002, 1.496159e+002
2.143788e+002, 1.424984e+002
2.148609e+002, 1.347477e+002
2.153430e+002, 1.269706e+002
2.158251e+002, 1.193734e+002
2.163072e+002, 1.122366e+002
2.167894e+002, 1.054112e+002
2.172715e+002, 9.921425e+001
2.177536e+002, 9.427244e+001
2.182357e+002, 9.090637e+001
2.187178e+002, 8.795673e+001
2.191999e+002, 8.484097e+001
2.196821e+002, 8.182549e+001
2.201642e+002, 7.925529e+001
2.206463e+002, 7.728568e+001
2.211284e+002, 7.581499e+001
2.216105e+002, 7.463542e+001
2.220926e+002, 7.386372e+001
2.225748e+002, 7.317155e+001
2.230569e+002, 7.244253e+001
2.235390e+002, 7.173097e+001
2.240211e+002, 7.109782e+001
2.245032e+002, 7.057607e+001
2.249853e+002, 7.013923e+001
2.254675e+002, 6.967251e+001
2.259496e+002, 6.898042e+001
2.264317e+002, 6.861363e+001
2.269138e+002, 6.876016e+001
2.273959e+002, 6.921342e+001
2.278780e+002, 6.975566e+001
2.283602e+002, 7.028246e+001
2.288423e+002, 7.083293e+001
2.293244e+002, 7.154723e+001
2.298065e+002, 7.259960e+001
2.302886e+002, 7.357902e+001
2.307707e+002, 7.435393e+001
2.312529e+002, 7.506421e+001
2.317350e+002, 7.594202e+001
2.322171e+002, 7.710542e+001
2.326992e+002, 7.836752e+001
2.331813e+002, 7.911962e+001
2.336634e+002, 7.871832e+001
2.341456e+002, 7.854222e+001
2.346277e+002, 7.877481e+001
2.351098e+002, 7.925391e+001
2.355919e+002, 7.976737e+001
2.360740e+002, 8.021721e+001
2.365561e+002, 8.069065e+001
2.370383e+002, 8.144970e+001
2.375204e+002, 8.294063e+001
2.380025e+002, 8.420248e+001
2.384846e+002, 8.496289e+001
2.389667e+002, 8.554015e+001
2.394488e+002, 8.626052e+001
2.399310e+002, 8.726076e+001
2.404131e+002, 8.856076e+001
2.408952e+002, 9.022600e+001
2.413773e+002, 9.221169e+001
2.418594e+002, 9.464505e+001
2.423415e+002, 9.746114e+001
2.428237e+002, 1.007539e+002
2.433058e+002, 1.045638e+002
2.437879e+002, 1.089077e+002
2.442700e+002, 1.139264e+002
2.447521e+002, 1.201216e+002
2.452342e+002, 1.280132e+002
2.457164e+002, 1.359264e+002
2.461985e+002, 1.438340e+002
2.466806e+002, 1.515810e+002
2.471627e+002, 1.594432e+002
2.476448e+002, 1.677725e+002
2.481269e+002, 1.750176e+002
2.486091e+002, 1.785163e+002
2.490912e+002, 1.787434e+002
2.495733e+002, 1.749517e+002
2.500554e+002, 1.649174e+002
2.505375e+002, 1.512810e+002
2.510196e+002, 1.374725e+002
2.515018e+002, 1.241814e+002
2.519839e+002, 1.119544e+002
2.524660e+002, 1.018502e+002
2.529481e+002, 9.367876e+001
2.534302e+002, 8.690001e+001
2.539123e+002, 8.161297e+001
2.543945e+002, 7.758044e+001
2.548766e+002, 7.454986e+001
2.553587e+002, 7.256718e+001
2.558408e+002, 7.121746e+001
2.563229e+002, 7.016115e+001
2.568051e+002, 6.935625e+001
2.572872e+002, 6.871709e+001
2.577693e+002, 6.815250e+001
2.582514e+002, 6.775437e+001
2.587335e+002, 6.771659e+001
2.592156e+002, 6.811854e+001
2.596978e+002, 6.868401e+001
2.601799e+002, 6.921330e+001
2.606620e+002, 6.970837e+001
2.611441e+002, 7.013519e+001
2.616262e+002, 7.051833e+001
2.621083e+002, 7.081658e+001
2.625905e+002, 7.094374e+001
2.630726e+002, 7.086389e+001
2.635547e+002, 7.071995e+001
2.640368e+002, 7.057649e+001
2.645189e+002, 7.044901e+001
2.650010e+002, 7.038305e+001
2.654832e+002, 7.035545e+001
2.659653e+002, 7.041218e+001
2.664474e+002, 7.064035e+001
2.669295e+002, 7.106218e+001
2.674116e+002, 7.157587e+001
2.678937e+002, 7.206490e+001
2.683759e+002, 7.261551e+001
2.688580e+002, 7.337698e+001
2.693401e+002, 7.438323e+001
2.698222e+002, 7.562980e+001
2.703043e+002, 7.715147e+001
2.707864e+002, 7.899140e+001
2.712686e+002, 8.091665e+001
2.717507e+002, 8.253130e+001
2.722328e+002, 8.428748e+001
2.727149e+002, 8.672726e+001
2.731970e+002, 9.006801e+001
2.736791e+002, 9.400795e+001
2.741613e+002, 9.823826e+001
2.746434e+002, 1.028690e+002
2.751255e+002, 1.073963e+002
2.756076e+002, 1.119403e+002
2.760897e+002, 1.161514e+002
2.765718e+002, 1.199758e+002
2.770540e+002, 1.235284e+002
2.775361e+002, 1.258997e+002
2.780182e+002, 1.259877e+002
2.785003e+002, 1.236610e+002
2.789824e+002, 1.199223e+002
2.794645e+002, 1.139916e+002
2.799467e+002, 1.073011e+002
2.804288e+002, 1.005110e+002
2.809109e+002, 9.374809e+001
2.813930e+002, 8.744077e+001
2.818751e+002, 8.199974e+001
2.823572e+002, 7.744645e+001
2.828394e+002, 7.358646e+001
2.833215e+002, 7.076922e+001
2.838036e+002, 6.842345e+001
2.842857e+002, 6.629324e+001
2.847678e+002, 6.435765e+001
2.852499e+002, 6.260693e+001
2.857321e+002, 6.102428e+001
2.862142e+002, 5.961318e+001
2.866963e+002, 5.847538e+001
2.871784e+002, 5.779337e+001
2.876605e+002, 5.723938e+001
2.881426e+002, 5.669127e+001
2.886248e+002, 5.613767e+001
2.891069e+002, 5.558175e+001
2.895890e+002, 5.499677e+001
2.900711e+002, 5.439160e+001
2.905532e+002, 5.392481e+001
2.910353e+002, 5.372557e+001
2.915175e+002, 5.350762e+001
2.919996e+002, 5.310622e+001
2.924817e+002, 5.260851e+001
2.929638e+002, 5.218087e+001
2.934459e+002, 5.191945e+001
2.939280e+002, 5.180827e+001
2.944102e+002, 5.180115e+001
2.948923e+002, 5.201624e+001
2.953744e+002, 5.214817e+001
2.958565e+002, 5.205266e+001
2.963386e+002, 5.184864e+001
2.968207e+002, 5.168763e+001
2.973029e+002, 5.164495e+001
2.977850e+002, 5.168054e+001
2.982671e+002, 5.167602e+001
2.987492e+002, 5.153516e+001
2.992313e+002, 5.156186e+001
2.997134e+002, 5.190047e+001
3.001956e+002, 5.237196e+001
3.006777e+002, 5.282074e+001
3.011598e+002, 5.319519e+001
3.016419e+002, 5.353175e+001
3.021240e+002, 5.388268e+001
3.026061e+002, 5.423994e+001
3.030883e+002, 5.463499e+001
3.035704e+002, 5.513906e+001
3.040525e+002, 5.563700e+001
3.045346e+002, 5.602501e+001
3.050167e+002, 5.629295e+001
3.054988e+002, 5.654398e+001
3.059810e+002, 5.691620e+001
3.064631e+002, 5.744265e+001
3.069452e+002, 5.793221e+001
3.074273e+002, 5.828418e+001
3.079094e+002, 5.866669e+001
3.083915e+002, 5.908861e+001
3.088737e+002, 5.959350e+001
3.093558e+002, 6.030656e+001
3.098379e+002, 6.140203e+001
3.103200e+002, 6.290822e+001
3.108021e+002, 6.428870e+001
3.112842e+002, 6.528654e+001
3.117664e+002, 6.642676e+001
3.122485e+002, 6.794118e+001
3.127306e+002, 6.973878e+001
3.132127e+002, 7.164046e+001
3.136948e+002, 7.356729e+001
3.141769e+002, 7.547897e+001
3.146591e+002, 7.713956e+001
3.151412e+002, 7.840243e+001
3.156233e+002, 7.959879e+001
3.161054e+002, 8.083229e+001
3.165875e+002, 8.206400e+001
3.170696e+002, 8.329266e+001
3.175518e+002, 8.455458e+001
3.180339e+002, 8.569340e+001
3.185160e+002, 8.627026e+001
3.189981e+002, 8.609074e+001
3.194802e+002, 8.571470e+001
3.199623e+002, 8.524132e+001
3.204445e+002, 8.467095e+001
3.209266e+002, 8.391921e+001
3.214087e+002, 8.296376e+001
3.218908e+002, 8.206742e+001
3.223729e+002, 8.161604e+001
3.228550e+002, 8.164470e+001
3.233372e+002, 8.200095e+001
3.238193e+002, 8.281149e+001
3.243014e+002, 8.383346e+001
3.247835e+002, 8.495802e+001
3.252656e+002, 8.616316e+001
3.257477e+002, 8.748232e+001
3.262299e+002, 8.884947e+001
3.267120e+002, 9.021316e+001
3.271941e+002, 9.214689e+001
3.276762e+002, 9.506882e+001
3.281583e+002, 9.823354e+001
3.286404e+002, 1.011989e+002
3.291226e+002, 1.041179e+002
3.296047e+002, 1.074735e+002
3.300868e+002, 1.116784e+002
3.305689e+002, 1.166309e+002
3.310510e+002, 1.216599e+002
3.315331e+002, 1.267397e+002
3.320153e+002, 1.319467e+002
3.324974e+002, 1.376199e+002
3.329795e+002, 1.433460e+002
3.334616e+002, 1.486168e+002
3.339437e+002, 1.533057e+002
3.344258e+002, 1.572144e+002
3.349080e+002, 1.598897e+002
3.353901e+002, 1.613373e+002
3.358722e+002, 1.615007e+002
3.363543e+002, 1.605075e+002
3.368365e+002, 1.582592e+002
3.373186e+002, 1.543707e+002
3.378007e+002, 1.487015e+002
3.382828e+002, 1.420718e+002
3.387649e+002, 1.353339e+002
3.392470e+002, 1.285076e+002
3.397292e+002, 1.215907e+002
3.402113e+002, 1.141290e+002
3.406934e+002, 1.069771e+002
3.411755e+002, 1.006922e+002
3.416576e+002, 9.529678e+001
3.421397e+002, 9.042064e+001
3.426219e+002, 8.581165e+001
3.431040e+002, 8.148213e+001
3.435861e+002, 7.758550e+001
3.440682e+002, 7.421918e+001
3.445503e+002, 7.121498e+001
3.450324e+002, 6.839486e+001
3.455146e+002, 6.579617e+001
3.459967e+002, 6.351271e+001
3.464788e+002, 6.166044e+001
3.469609e+002, 6.014497e+001
3.474430e+002, 5.876855e+001
3.479251e+002, 5.754939e+001
3.484073e+002, 5.642000e+001
3.488894e+002, 5.528545e+001
3.493715e+002, 5.423519e+001
3.498536e+002, 5.343264e+001
3.503357e+002, 5.302868e+001
3.508178e+002, 5.266646e+001
3.513000e+002, 5.181696e+001
3.517821e+002, 5.044612e+001
3.522642e+002, 4.928689e+001
3.527463e+002, 4.862932e+001
3.532284e+002, 4.827663e+001
3.537105e+002, 4.808061e+001
3.541927e+002, 4.805695e+001
3.546748e+002, 4.793335e+001
3.551569e+002, 4.745184e+001
3.556390e+002, 4.669172e+001
3.561211e+002, 4.599456e+001
3.566032e+002, 4.540703e+001
3.570854e+002, 4.492216e+001
3.575675e+002, 4.455993e+001
3.580496e+002, 4.429554e+001
3.585317e+002, 4.402815e+001
3.590138e+002, 4.364140e+001
3.594959e+002, 4.325357e+001
3.599781e+002, 4.312421e+001
3.604602e+002, 4.331924e+001
3.609423e+002, 4.342553e+001
3.614244e+002, 4.306754e+001
3.619065e+002, 4.240833e+001
3.623886e+002, 4.185288e+001
3.628708e+002, 4.145034e+001
3.633529e+002, 4.117140e+001
3.638350e+002, 4.105736e+001
3.643171e+002, 4.108091e+001
3.647992e+002, 4.105618e+001
3.652813e+002, 4.090412e+001
3.657635e+002, 4.065194e+001
3.662456e+002, 4.035508e+001
3.667277e+002, 4.000571e+001
3.672098e+002, 3.964754e+001
3.676919e+002, 3.924828e+001
3.681740e+002, 3.886053e+001
3.686562e+002, 3.859054e+001
3.691383e+002, 3.847053e+001
3.696204e+002, 3.844274e+001
3.701025e+002, 3.847007e+001
3.705846e+002, 3.856067e+001
3.710667e+002, 3.857471e+001
3.715489e+002, 3.847758e+001
3.720310e+002, 3.830833e+001
3.725131e+002, 3.805420e+001
3.729952e+002, 3.773183e+001
3.734773e+002, 3.748025e+001
3.739594e+002, 3.742881e+001
3.744416e+002, 3.754992e+001
3.749237e+002, 3.753576e+001
3.754058e+002, 3.731224e+001
3.758879e+002, 3.705022e+001
3.763700e+002, 3.683254e+001
3.768521e+002, 3.662505e+001
3.773343e+002, 3.630837e+001
3.778164e+002, 3.580409e+001
3.782985e+002, 3.527610e+001
3.787806e+002, 3.512723e+001
3.792627e+002, 3.569089e+001
3.797448e+002, 3.607374e+001
3.802270e+002, 3.608522e+001
3.807091e+002, 3.596303e+001
3.811912e+002, 3.595347e+001
3.816733e+002, 3.609357e+001
3.821554e+002, 3.622303e+001
3.826375e+002, 3.615232e+001
3.831197e+002, 3.582750e+001
3.836018e+002, 3.556766e+001
3.840839e+002, 3.539115e+001
3.845660e+002, 3.524905e+001
3.850481e+002, 3.513646e+001
3.855302e+002, 3.504065e+001
3.860124e+002, 3.493374e+001
3.864945e+002, 3.479280e+001
3.869766e+002, 3.463451e+001
3.874587e+002, 3.454773e+001
3.879408e+002, 3.462280e+001
3.884229e+002, 3.466402e+001
3.889051e+002, 3.461065e+001
3.893872e+002, 3.453394e+001
3.898693e+002, 3.452850e+001
3.903514e+002, 3.461935e+001
3.908335e+002, 3.472262e+001
3.913156e+002, 3.468676e+001
3.917978e+002, 3.442543e+001
3.922799e+002, 3.426199e+001
3.927620e+002, 3.430006e+001
3.932441e+002, 3.434335e+001
3.937262e+002, 3.426991e+001
3.942083e+002, 3.410173e+001
3.946905e+002, 3.395564e+001
3.951726e+002, 3.394523e+001
3.956547e+002, 3.404865e+001
3.961368e+002, 3.403057e+001
3.966189e+002, 3.379089e+001
3.971010e+002, 3.357026e+001
3.975832e+002, 3.343230e+001
3.980653e+002, 3.335795e+001
3.985474e+002, 3.331410e+001
3.990295e+002, 3.328165e+001
3.995116e+002, 3.330189e+001
3.999937e+002, 3.351588e+001
4.004759e+002, 3.400896e+001
4.009580e+002, 3.424745e+001
4.014401e+002, 3.384585e+001
4.019222e+002, 3.332465e+001
4.024043e+002, 3.302299e+001
4.028864e+002, 3.296389e+001
4.033686e+002, 3.300286e+001
4.038507e+002, 3.307482e+001
4.043328e+002, 3.316611e+001
4.048149e+002, 3.322221e+001
4.052970e+002, 3.324942e+001
4.057791e+002, 3.321715e+001
4.062613e+002, 3.310409e+001
4.067434e+002, 3.291967e+001
4.072255e+002, 3.265918e+001
4.077076e+002, 3.221214e+001
4.081897e+002, 3.179154e+001
4.086718e+002, 3.166038e+001
4.091540e+002, 3.181024e+001
4.096361e+002, 3.204660e+001
4.101182e+002, 3.235480e+001
4.106003e+002, 3.264451e+001
4.110824e+002, 3.275623e+001
4.115645e+002, 3.264988e+001
4.120467e+002, 3.253783e+001
4.125288e+002, 3.254141e+001
4.130109e+002, 3.259322e+001
4.134930e+002, 3.255518e+001
4.139751e+002, 3.239157e+001
4.144572e+002, 3.221827e+001
4.149394e+002, 3.215722e+001
4.154215e+002, 3.221540e+001
4.159036e+002, 3.227053e+001
4.163857e+002, 3.234490e+001
4.168678e+002, 3.239193e+001
4.173499e+002, 3.233953e+001
4.178321e+002, 3.222405e+001
4.183142e+002, 3.218371e+001
4.187963e+002, 3.231182e+001
4.192784e+002, 3.254050e+001
4.197605e+002, 3.263337e+001
4.202426e+002, 3.252377e+001
4.207248e+002, 3.237811e+001
4.212069e+002, 3.213117e+001
4.216890e+002, 3.189932e+001
4.221711e+002, 3.182514e+001
4.226532e+002, 3.193140e+001
4.231353e+002, 3.211219e+001
4.236175e+002, 3.226193e+001
4.240996e+002, 3.241411e+001
4.245817e+002, 3.235196e+001
4.250638e+002, 3.172473e+001
4.255459e+002, 3.126518e+001
4.260280e+002, 3.141571e+001
4.265102e+002, 3.194539e+001
4.269923e+002, 3.235550e+001
4.274744e+002, 3.234457e+001
4.279565e+002, 3.205267e+001
4.284386e+002, 3.196016e+001
4.289207e+002, 3.224064e+001
4.294029e+002, 3.240616e+001
4.298850e+002, 3.229463e+001
4.303671e+002, 3.212521e+001
4.308492e+002, 3.210329e+001
4.313313e+002, 3.224792e+001
4.318134e+002, 3.238122e+001
4.322956e+002, 3.226693e+001
4.327777e+002, 3.189511e+001
4.332598e+002, 3.168463e+001
4.337419e+002, 3.172300e+001
4.342241e+002, 3.182987e+001
4.347062e+002, 3.197021e+001
4.351883e+002, 3.210442e+001
4.356704e+002, 3.214503e+001
4.361525e+002, 3.200356e+001
4.366346e+002, 3.182098e+001
4.371168e+002, 3.183253e+001
4.375989e+002, 3.205385e+001
4.380810e+002, 3.231053e+001
4.385631e+002, 3.261559e+001
4.390452e+002, 3.286647e+001
4.395273e+002, 3.293819e+001
4.400095e+002, 3.281424e+001
4.404916e+002, 3.266489e+001
4.409737e+002, 3.252180e+001
4.414558e+002, 3.242743e+001
4.419379e+002, 3.250512e+001
4.424200e+002, 3.279456e+001
4.429022e+002, 3.310357e+001
4.433843e+002, 3.330567e+001
4.438664e+002, 3.339357e+001
4.443485e+002, 3.337687e+001
4.448306e+002, 3.316198e+001
4.453127e+002, 3.293266e+001
4.457949e+002, 3.277577e+001
4.462770e+002, 3.268642e+001
4.467591e+002, 3.266951e+001
4.472412e+002, 3.274184e+001
4.477233e+002, 3.282298e+001
4.482054e+002, 3.273511e+001
4.486876e+002, 3.227406e+001
4.491697e+002, 3.212482e+001
4.496518e+002, 3.263201e+001
4.501339e+002, 3.322993e+001
4.506160e+002, 3.348758e+001
4.510981e+002, 3.339686e+001
4.515803e+002, 3.318520e+001
4.520624e+002, 3.303011e+001
4.525445e+002, 3.292513e+001
4.530266e+002, 3.278841e+001
4.535087e+002, 3.249039e+001
4.539908e+002, 3.231416e+001
4.544730e+002, 3.237004e+001
4.549551e+002, 3.253798e+001
4.554372e+002, 3.270047e+001
4.559193e+002, 3.281583e+001
4.564014e+002, 3.289065e+001
4.568835e+002, 3.293773e+001
4.573657e+002, 3.296360e+001
4.578478e+002, 3.292862e+001
4.583299e+002, 3.278126e+001
4.588120e+002, 3.261697e+001
4.592941e+002, 3.245082e+001
4.597762e+002, 3.229866e+001
4.602584e+002, 3.219278e+001
4.607405e+002, 3.216742e+001
4.612226e+002, 3.218002e+001
4.617047e+002, 3.212604e+001
4.621868e+002, 3.198254e+001
4.626689e+002, 3.188323e+001
4.631511e+002, 3.189808e+001
4.636332e+002, 3.196565e+001
4.641153e+002, 3.202719e+001
4.645974e+002, 3.207815e+001
4.650795e+002, 3.213771e+001
4.655616e+002, 3.224757e+001
4.660438e+002, 3.237037e+001
4.665259e+002, 3.242228e+001
4.670080e+002, 3.239096e+001
4.674901e+002, 3.230019e+001
4.679722e+002, 3.211814e+001
4.684543e+002, 3.188501e+001
4.689365e+002, 3.178418e+001
4.694186e+002, 3.193454e+001
4.699007e+002, 3.210537e+001
4.703828e+002, 3.218985e+001
4.708649e+002, 3.220553e+001
4.713470e+002, 3.216289e+001
4.718292e+002, 3.205650e+001
4.723113e+002, 3.197821e+001
4.727934e+002, 3.209315e+001
4.732755e+002, 3.254107e+001
4.737576e+002, 3.275810e+001
4.742397e+002, 3.252185e+001
4.747219e+002, 3.225884e+001
4.752040e+002, 3.225517e+001
4.756861e+002, 3.245180e+001
4.761682e+002, 3.262294e+001
4.766503e+002, 3.262227e+001
4.771324e+002, 3.249206e+001
4.776146e+002, 3.239843e+001
4.780967e+002, 3.238573e+001
4.785788e+002, 3.233629e+001
4.790609e+002, 3.222666e+001
4.795430e+002, 3.208912e+001
4.800251e+002, 3.193746e+001
4.805073e+002, 3.178023e+001
4.809894e+002, 3.163264e+001
4.814715e+002, 3.150315e+001
4.819536e+002, 3.139366e+001
4.824357e+002, 3.133547e+001
4.829178e+002, 3.136479e+001
4.834000e+002, 3.138284e+001
4.838821e+002, 3.128819e+001
4.843642e+002, 3.117723e+001
4.848463e+002, 3.121391e+001
4.853284e+002, 3.149482e+001
4.858105e+002, 3.174664e+001
4.862927e+002, 3.163584e+001
4.867748e+002, 3.122850e+001
4.872569e+002, 3.094808e+001
4.877390e+002, 3.091803e+001
4.882211e+002, 3.096430e+001
4.887032e+002, 3.086176e+001
4.891854e+002, 3.064795e+001
4.896675e+002, 3.058102e+001
4.901496e+002, 3.088847e+001
4.906317e+002, 3.121575e+001
4.911138e+002, 3.122710e+001
4.915959e+002, 3.099543e+001
4.920781e+002, 3.084311e+001
4.925602e+002, 3.094526e+001
4.930423e+002, 3.115014e+001
4.935244e+002, 3.111496e+001
4.940065e+002, 3.066041e+001
4.944886e+002, 3.030377e+001
4.949708e+002, 3.006042e+001
4.954529e+002, 2.992146e+001
4.959350e+002, 2.991749e+001
4.964171e+002, 3.002090e+001
4.968992e+002, 3.014832e+001
4.973813e+002, 3.024262e+001
4.978635e+002, 3.030054e+001
4.983456e+002, 3.030602e+001
4.988277e+002, 3.025820e+001
4.993098e+002, 3.015077e+001
4.997919e+002, 2.987319e+001
5.002740e+002, 2.960965e+001
5.007562e+002, 2.956264e+001
5.012383e+002, 2.974764e+001
5.017204e+002, 2.995474e+001
5.022025e+002, 2.993061e+001
5.026846e+002, 2.970589e+001
5.031667e+002, 2.966885e+001
5.036489e+002, 2.995822e+001
5.041310e+002, 3.017916e+001
5.046131e+002, 3.001898e+001
5.050952e+002, 2.968967e+001
5.055773e+002, 2.950756e+001
5.060594e+002, 2.958916e+001
5.065416e+002, 2.971594e+001
5.070237e+002, 2.969519e+001
5.075058e+002, 2.957023e+001
5.079879e+002, 2.951093e+001
5.084700e+002, 2.957929e+001
5.089521e+002, 2.962917e+001
5.094343e+002, 2.942844e+001
5.099164e+002, 2.898332e+001
5.103985e+002, 2.884686e+001
5.108806e+002, 2.934642e+001
5.113627e+002, 2.987587e+001
5.118448e+002, 3.012325e+001
5.123270e+002, 3.013506e+001
5.128091e+002, 3.002858e+001
5.132912e+002, 2.984944e+001
5.137733e+002, 2.964073e+001
5.142554e+002, 2.947476e+001
5.147375e+002, 2.932927e+001
5.152197e+002, 2.928944e+001
5.157018e+002, 2.943931e+001
5.161839e+002, 2.960069e+001
5.166660e+002, 2.970352e+001
5.171481e+002, 2.974059e+001
5.176302e+002, 2.971799e+001
5.181124e+002, 2.963575e+001
5.185945e+002, 2.950622e+001
5.190766e+002, 2.934686e+001
5.195587e+002, 2.912674e+001
5.200408e+002, 2.897496e+001
5.205229e+002, 2.894803e+001
5.210051e+002, 2.898070e+001
5.214872e+002, 2.905268e+001
5.219693e+002, 2.915405e+001
5.224514e+002, 2.924842e+001
5.229335e+002, 2.929104e+001
5.234156e+002, 2.932029e+001
5.238978e+002, 2.946016e+001
5.243799e+002, 2.972553e+001
5.248620e+002, 2.982579e+001
5.253441e+002, 2.952826e+001
5.258262e+002, 2.904564e+001
5.263083e+002, 2.884076e+001
5.267905e+002, 2.899697e+001
5.272726e+002, 2.912693e+001
5.277547e+002, 2.903172e+001
5.282368e+002, 2.890439e+001
5.287189e+002, 2.902614e+001
5.292010e+002, 2.938149e+001
5.296832e+002, 2.964968e+001
5.301653e+002, 2.957127e+001
5.306474e+002, 2.920800e+001
5.311295e+002, 2.897998e+001
5.316116e+002, 2.896199e+001
5.320938e+002, 2.899441e+001
5.325759e+002, 2.918242e+001
5.330580e+002, 2.934094e+001
5.335401e+002, 2.923049e+001
5.340222e+002, 2.886547e+001
5.345043e+002, 2.854353e+001
5.349865e+002, 2.859555e+001
5.354686e+002, 2.897424e+001
5.359507e+002, 2.910802e+001
5.364328e+002, 2.883733e+001
5.369149e+002, 2.862203e+001
5.373970e+002, 2.868374e+001
5.378792e+002, 2.885674e+001
5.383613e+002, 2.897339e+001
5.388434e+002, 2.899853e+001
5.393255e+002, 2.900469e+001
5.398076e+002, 2.907277e+001
5.402897e+002, 2.916250e+001
5.407719e+002, 2.914105e+001
5.412540e+002, 2.897490e+001
5.417361e+002, 2.881865e+001
5.422182e+002, 2.877055e+001
5.427003e+002, 2.883002e+001
5.431824e+002, 2.895807e+001
5.436646e+002, 2.925862e+001
5.441467e+002, 2.949031e+001
5.446288e+002, 2.958635e+001
5.451109e+002, 2.955996e+001
5.455930e+002, 2.937124e+001
5.460751e+002, 2.903365e+001
5.465573e+002, 2.871531e+001
5.470394e+002, 2.858630e+001
5.475215e+002, 2.865043e+001
5.480036e+002, 2.876947e+001
5.484857e+002, 2.911011e+001
5.489678e+002, 2.931220e+001
5.494500e+002, 2.916390e+001
5.499321e+002, 2.891699e+001
5.504142e+002, 2.886056e+001
5.508963e+002, 2.906407e+001
5.513784e+002, 2.935139e+001
5.518605e+002, 2.955456e+001
5.523427e+002, 2.967489e+001
5.528248e+002, 2.972653e+001
5.533069e+002, 2.968740e+001
5.537890e+002, 2.962531e+001
5.542711e+002, 2.957564e+001
5.547532e+002, 2.952826e+001
5.552354e+002, 2.945586e+001
5.557175e+002, 2.932391e+001
5.561996e+002, 2.924860e+001
5.566817e+002, 2.938926e+001
5.571638e+002, 2.962197e+001
5.576459e+002, 2.967459e+001
5.581281e+002, 2.949513e+001
5.586102e+002, 2.925359e+001
5.590923e+002, 2.908870e+001
5.595744e+002, 2.899728e+001
5.600565e+002, 2.891142e+001
5.605386e+002, 2.874215e+001
5.610208e+002, 2.868627e+001
5.615029e+002, 2.893516e+001
5.619850e+002, 2.924740e+001
5.624671e+002, 2.929640e+001
5.629492e+002, 2.904441e+001
5.634313e+002, 2.877204e+001
5.639135e+002, 2.878182e+001
5.643956e+002, 2.906816e+001
5.648777e+002, 2.934534e+001
5.653598e+002, 2.973163e+001
5.658419e+002, 2.990924e+001
5.663240e+002, 2.958838e+001
5.668062e+002, 2.913724e+001
5.672883e+002, 2.897407e+001
5.677704e+002, 2.919154e+001
5.682525e+002, 2.946984e+001
5.687346e+002, 2.956049e+001
5.692167e+002, 2.952015e+001
5.696989e+002, 2.949454e+001
5.701810e+002, 2.949377e+001
5.706631e+002, 2.952510e+001
5.711452e+002, 2.959377e+001
5.716273e+002, 2.969976e+001
5.721094e+002, 2.984207e+001
5.725916e+002, 3.008460e+001
5.730737e+002, 3.024688e+001
5.735558e+002, 3.025646e+001
5.740379e+002, 3.017590e+001
5.745200e+002, 3.001750e+001
5.750021e+002, 2.981570e+001
5.754843e+002, 2.968699e+001
5.759664e+002, 2.972131e+001
5.764485e+002, 2.991145e+001
5.769306e+002, 3.023693e+001
5.774127e+002, 3.089836e+001
5.778948e+002, 3.136419e+001
5.783770e+002, 3.154605e+001
5.788591e+002, 3.154147e+001
5.793412e+002, 3.130178e+001
5.798233e+002, 3.090115e+001
5.803054e+002, 3.065233e+001
5.807875e+002, 3.087080e+001
5.812697e+002, 3.137005e+001
5.817518e+002, 3.168597e+001
5.822339e+002, 3.180671e+001
5.827161e+002, 3.185604e+001
5.831982e+002, 3.186036e+001
5.836803e+002, 3.183636e+001
5.841624e+002, 3.177387e+001
5.846445e+002, 3.164957e+001
5.851266e+002, 3.167758e+001
5.856088e+002, 3.204235e+001
5.860909e+002, 3.248405e+001
5.865730e+002, 3.277580e+001
5.870551e+002, 3.293670e+001
5.875372e+002, 3.309315e+001
5.880193e+002, 3.331004e+001
5.885015e+002, 3.355278e+001
5.889836e+002, 3.372783e+001
5.894657e+002, 3.370440e+001
5.899478e+002, 3.390702e+001
5.904299e+002, 3.451717e+001
5.909120e+002, 3.515211e+001
5.913942e+002, 3.553440e+001
5.918763e+002, 3.580741e+001
5.923584e+002, 3.630974e+001
5.928405e+002, 3.723564e+001
5.933226e+002, 3.833502e+001
5.938047e+002, 3.922239e+001
5.942869e+002, 3.990509e+001
5.947690e+002, 4.062385e+001
5.952511e+002, 4.139154e+001
5.957332e+002, 4.226348e+001
5.962153e+002, 4.336412e+001
5.966974e+002, 4.462402e+001
5.971796e+002, 4.580391e+001
5.976617e+002, 4.668046e+001
5.981438e+002, 4.767836e+001
5.986259e+002, 4.917166e+001
5.991080e+002, 5.090343e+001
5.995901e+002, 5.233635e+001
6.000723e+002, 5.336085e+001
6.005544e+002, 5.445306e+001
6.010365e+002, 5.611800e+001
6.015186e+002, 5.836851e+001
6.020007e+002, 6.080878e+001
6.024828e+002, 6.369519e+001
6.029650e+002, 6.647426e+001
6.034471e+002, 6.879374e+001
6.039292e+002, 7.111278e+001
6.044113e+002, 7.393886e+001
6.048934e+002, 7.733161e+001
6.053755e+002, 8.095033e+001
6.058577e+002, 8.465102e+001
6.063398e+002, 8.834203e+001
6.068219e+002, 9.176205e+001
6.073040e+002, 9.494552e+001
6.077861e+002, 9.766333e+001
6.082682e+002, 9.989075e+001
6.087504e+002, 1.015152e+002
6.092325e+002, 1.024517e+002
6.097146e+002, 1.027264e+002
6.101967e+002, 1.022882e+002
6.106788e+002, 1.010506e+002
6.111609e+002, 9.914289e+001
6.116431e+002, 9.656470e+001
6.121252e+002, 9.341216e+001
6.126073e+002, 8.989182e+001
6.130894e+002, 8.609421e+001
6.135715e+002, 8.214084e+001
6.140536e+002, 7.830136e+001
6.145358e+002, 7.469592e+001
6.150179e+002, 7.095188e+001
6.155000e+002, 6.648953e+001
6.159821e+002, 6.246747e+001
6.164642e+002, 5.954249e+001
6.169464e+002, 5.737312e+001
6.174285e+002, 5.527264e+001
6.179106e+002, 5.295753e+001
6.183927e+002, 5.065688e+001
6.188748e+002, 4.859670e+001
6.193569e+002, 4.676481e+001
6.198391e+002, 4.505062e+001
6.203212e+002, 4.341093e+001
6.208033e+002, 4.201029e+001
6.212854e+002, 4.108146e+001
6.217675e+002, 4.053906e+001
6.222496e+002, 3.983449e+001
6.227318e+002, 3.875767e+001
6.232139e+002, 3.779566e+001
6.236960e+002, 3.714449e+001
6.241781e+002, 3.664148e+001
6.246602e+002, 3.611773e+001
6.251423e+002, 3.555610e+001
6.256245e+002, 3.503827e+001
6.261066e+002, 3.462478e+001
6.265887e+002, 3.431401e+001
6.270708e+002, 3.412600e+001
6.275529e+002, 3.418962e+001
6.280350e+002, 3.406421e+001
6.285172e+002, 3.341179e+001
6.289993e+002, 3.272833e+001
6.294814e+002, 3.235991e+001
6.299635e+002, 3.226965e+001
6.304456e+002, 3.217608e+001
6.309277e+002, 3.190396e+001
6.314099e+002, 3.161112e+001
6.318920e+002, 3.151892e+001
6.323741e+002, 3.156949e+001
6.328562e+002, 3.150687e+001
6.333383e+002, 3.123874e+001
6.338204e+002, 3.092169e+001
6.343026e+002, 3.075400e+001
6.347847e+002, 3.076309e+001
6.352668e+002, 3.065827e+001
6.357489e+002, 3.026412e+001
6.362310e+002, 2.998079e+001
6.367131e+002, 3.002281e+001
6.371953e+002, 3.018840e+001
6.376774e+002, 3.025111e+001
6.381595e+002, 3.015897e+001
6.386416e+002, 2.999028e+001
6.391237e+002, 2.977404e+001
6.396058e+002, 2.954193e+001
6.400880e+002, 2.950070e+001
6.405701e+002, 2.972882e+001
6.410522e+002, 2.982153e+001
6.415343e+002, 2.948725e+001
6.420164e+002, 2.904274e+001
6.424985e+002, 2.895748e+001
6.429807e+002, 2.926351e+001
6.434628e+002, 2.945025e+001
6.439449e+002, 2.931171e+001
6.444270e+002, 2.905393e+001
6.449091e+002, 2.875899e+001
6.453912e+002, 2.848759e+001
6.458734e+002, 2.838387e+001
6.463555e+002, 2.850665e+001
6.468376e+002, 2.874274e+001
6.473197e+002, 2.894021e+001
6.478018e+002, 2.912478e+001
6.482839e+002, 2.912008e+001
6.487661e+002, 2.867818e+001
6.492482e+002, 2.835017e+001
6.497303e+002, 2.838934e+001
6.502124e+002, 2.859048e+001
6.506945e+002, 2.870480e+001
6.511766e+002, 2.867565e+001
6.516588e+002, 2.859222e+001
6.521409e+002, 2.842163e+001
6.526230e+002, 2.827349e+001
6.531051e+002, 2.847378e+001
6.535872e+002, 2.902481e+001
6.540693e+002, 2.940409e+001
6.545515e+002, 2.929984e+001
6.550336e+002, 2.892627e+001
6.555157e+002, 2.873890e+001
6.559978e+002, 2.888740e+001
6.564799e+002, 2.886775e+001
6.569620e+002, 2.842576e+001
6.574442e+002, 2.806540e+001
6.579263e+002, 2.812128e+001
6.584084e+002, 2.843685e+001
6.588905e+002, 2.872457e+001
6.593726e+002, 2.886689e+001
6.598547e+002, 2.891257e+001
6.603369e+002, 2.890425e+001
6.608190e+002, 2.884580e+001
6.613011e+002, 2.879406e+001
6.617832e+002, 2.875327e+001
6.622653e+002, 2.871483e+001
6.627474e+002, 2.866870e+001
6.632296e+002, 2.862445e+001
6.637117e+002, 2.861221e+001
6.641938e+002, 2.866150e+001
6.646759e+002, 2.864503e+001
6.651580e+002, 2.847058e+001
6.656401e+002, 2.825310e+001
6.661223e+002, 2.805695e+001
6.666044e+002, 2.791125e+001
6.670865e+002, 2.787388e+001
6.675686e+002, 2.797591e+001
6.680507e+002, 2.818196e+001
6.685328e+002, 2.848115e+001
6.690150e+002, 2.897053e+001
6.694971e+002, 2.911715e+001
6.699792e+002, 2.861073e+001
6.704613e+002, 2.814114e+001
6.709434e+002, 2.803023e+001
6.714255e+002, 2.813264e+001
6.719077e+002, 2.824718e+001
6.723898e+002, 2.834521e+001
6.728719e+002, 2.838497e+001
6.733540e+002, 2.829745e+001
6.738361e+002, 2.815489e+001
6.743182e+002, 2.806524e+001
6.748004e+002, 2.803488e+001
6.752825e+002, 2.803115e+001
6.757646e+002, 2.803797e+001
6.762467e+002, 2.805302e+001
6.767288e+002, 2.806871e+001
6.772109e+002, 2.806795e+001
6.776931e+002, 2.810944e+001
6.781752e+002, 2.827767e+001
6.786573e+002, 2.839593e+001
6.791394e+002, 2.837346e+001
6.796215e+002, 2.825405e+001
6.801036e+002, 2.809146e+001
6.805858e+002, 2.789788e+001
6.810679e+002, 2.774864e+001
6.815500e+002, 2.773855e+001
6.820321e+002, 2.782835e+001
6.825142e+002, 2.792067e+001
6.829963e+002, 2.800884e+001
6.834785e+002, 2.805491e+001
6.839606e+002, 2.802331e+001
6.844427e+002, 2.795349e+001
6.849248e+002, 2.794224e+001
6.854069e+002, 2.803898e+001
6.858890e+002, 2.807731e+001
6.863712e+002, 2.796580e+001
6.868533e+002, 2.788289e+001
6.873354e+002, 2.800661e+001
6.878175e+002, 2.820697e+001
6.882996e+002, 2.821429e+001
6.887817e+002, 2.793034e+001
6.892639e+002, 2.759823e+001
6.897460e+002, 2.752029e+001
6.902281e+002, 2.766276e+001
6.907102e+002, 2.782343e+001
6.911923e+002, 2.801754e+001
6.916744e+002, 2.811213e+001
6.921566e+002, 2.798051e+001
6.926387e+002, 2.775057e+001
6.931208e+002, 2.769297e+001
6.936029e+002, 2.785616e+001
6.940850e+002, 2.794931e+001
6.945671e+002, 2.788830e+001
6.950493e+002, 2.777845e+001
6.955314e+002, 2.758524e+001
6.960135e+002, 2.741690e+001
6.964956e+002, 2.751099e+001
6.969777e+002, 2.793922e+001
6.974598e+002, 2.844705e+001
6.979420e+002, 2.873759e+001
6.984241e+002, 2.881263e+001
6.989062e+002, 2.866706e+001
6.993883e+002, 2.816396e+001
6.998704e+002, 2.783022e+001
7.003525e+002, 2.800758e+001
7.008347e+002, 2.839559e+001
7.013168e+002, 2.858176e+001
7.017989e+002, 2.854608e+001
7.022810e+002, 2.851388e+001
7.027631e+002, 2.854471e+001
7.032452e+002, 2.859881e+001
7.037274e+002, 2.860678e+001
7.042095e+002, 2.862530e+001
7.046916e+002, 2.879851e+001
7.051737e+002, 2.916035e+001
7.056558e+002, 2.955171e+001
7.061379e+002, 2.976050e+001
7.066201e+002, 2.980453e+001
7.071022e+002, 3.003603e+001
7.075843e+002, 3.054622e+001
7.080664e+002, 3.103045e+001
7.085485e+002, 3.138132e+001
7.090306e+002, 3.167231e+001
7.095128e+002, 3.197853e+001
7.099949e+002, 3.229800e+001
7.104770e+002, 3.255132e+001
7.109591e+002, 3.277468e+001
7.114412e+002, 3.286443e+001
7.119233e+002, 3.269809e+001
7.124055e+002, 3.235590e+001
7.128876e+002, 3.198692e+001
7.133697e+002, 3.163065e+001
7.138518e+002, 3.122297e+001
7.143339e+002, 3.067127e+001
7.148160e+002, 3.002607e+001
7.152982e+002, 2.970149e+001
7.157803e+002, 2.988062e+001
7.162624e+002, 2.994911e+001
7.167445e+002, 2.958054e+001
7.172266e+002, 2.923830e+001
7.177087e+002, 2.928607e+001
7.181909e+002, 2.965038e+001
7.186730e+002, 2.999650e+001
7.191551e+002, 3.025498e+001
7.196372e+002, 3.041986e+001
7.201193e+002, 3.045819e+001
7.206014e+002, 3.041049e+001
7.210836e+002, 3.036848e+001
7.215657e+002, 3.033369e+001
7.220478e+002, 3.017623e+001
7.225299e+002, 2.977214e+001
7.230120e+002, 2.922915e+001
7.234941e+002, 2.895956e+001
7.239763e+002, 2.906619e+001
7.244584e+002, 2.915748e+001
7.249405e+002, 2.915166e+001
7.254226e+002, 2.917239e+001
7.259047e+002, 2.933266e+001
7.263868e+002, 2.955901e+001
7.268690e+002, 2.968836e+001
7.273511e+002, 2.965254e+001
7.278332e+002, 2.960246e+001
7.283153e+002, 2.968058e+001
7.287974e+002, 2.976859e+001
7.292795e+002, 2.965548e+001
7.297617e+002, 2.937205e+001
7.302438e+002, 2.916908e+001
7.307259e+002, 2.919027e+001
7.312080e+002, 2.931046e+001
7.316901e+002, 2.926718e+001
7.321722e+002, 2.901240e+001
7.326544e+002, 2.879548e+001
7.331365e+002, 2.861996e+001
7.336186e+002, 2.847742e+001
7.341007e+002, 2.833158e+001
7.345828e+002, 2.822960e+001
7.350649e+002, 2.827131e+001
7.355471e+002, 2.848635e+001
7.360292e+002, 2.862277e+001
7.365113e+002, 2.838859e+001
7.369934e+002, 2.815836e+001
7.374755e+002, 2.844886e+001
7.379576e+002, 2.905930e+001
7.384398e+002, 2.934647e+001
7.389219e+002, 2.909015e+001
7.394040e+002, 2.868615e+001
7.398861e+002, 2.865384e+001
7.403682e+002, 2.898265e+001
7.408503e+002, 2.899590e+001
7.413325e+002, 2.845335e+001
7.418146e+002, 2.810098e+001
7.422967e+002, 2.830932e+001
7.427788e+002, 2.867348e+001
7.432609e+002, 2.892008e+001
7.437430e+002, 2.903154e+001
7.442252e+002, 2.898010e+001
7.447073e+002, 2.852769e+001
7.451894e+002, 2.815246e+001
7.456715e+002, 2.826155e+001
7.461536e+002, 2.861173e+001
7.466357e+002, 2.884539e+001
7.471179e+002, 2.889194e+001
7.476000e+002, 2.880940e+001
7.480821e+002, 2.861503e+001
7.485642e+002, 2.838754e+001
7.490463e+002, 2.842837e+001
7.495284e+002, 2.883705e+001
7.500106e+002, 2.905412e+001
7.504927e+002, 2.890483e+001
7.509748e+002, 2.869064e+001
7.514569e+002, 2.861877e+001
7.519390e+002, 2.863177e+001
7.524211e+002, 2.860774e+001
7.529033e+002, 2.851856e+001
7.533854e+002, 2.842652e+001
7.538675e+002, 2.829571e+001
7.543496e+002, 2.821662e+001
7.548317e+002, 2.830778e+001
7.553138e+002, 2.852542e+001
7.557960e+002, 2.876186e+001
7.562781e+002, 2.896778e+001
7.567602e+002, 2.908446e+001
7.572423e+002, 2.894565e+001
7.577244e+002, 2.856671e+001
7.582065e+002, 2.851044e+001
7.586887e+002, 2.890725e+001
7.591708e+002, 2.920254e+001
7.596529e+002, 2.911590e+001
7.601350e+002, 2.884109e+001
7.606171e+002, 2.863835e+001
7.610992e+002, 2.850272e+001
7.615814e+002, 2.845586e+001
7.620635e+002, 2.853583e+001
7.625456e+002, 2.866543e+001
7.630277e+002, 2.887567e+001
7.635098e+002, 2.908117e+001
7.639919e+002, 2.914048e+001
7.644741e+002, 2.905751e+001
7.649562e+002, 2.901247e+001
7.654383e+002, 2.918649e+001
7.659204e+002, 2.943890e+001
7.664025e+002, 2.939478e+001
7.668846e+002, 2.906827e+001
7.673668e+002, 2.889077e+001
7.678489e+002, 2.897649e+001
7.683310e+002, 2.914767e+001
7.688131e+002, 2.929409e+001
7.692952e+002, 2.940122e+001
7.697773e+002, 2.938623e+001
7.702595e+002, 2.908127e+001
7.707416e+002, 2.890461e+001
7.712237e+002, 2.894834e+001
7.717058e+002, 2.906394e+001
7.721879e+002, 2.915885e+001
7.726700e+002, 2.925202e+001
7.731522e+002, 2.943476e+001
7.736343e+002, 2.975343e+001
7.741164e+002, 2.999892e+001
7.745985e+002, 2.988315e+001
7.750806e+002, 2.957281e+001
7.755627e+002, 2.944599e+001
7.760449e+002, 2.951403e+001
7.765270e+002, 2.964750e+001
7.770091e+002, 2.980123e+001
7.774912e+002, 2.993866e+001
7.779733e+002, 2.997754e+001
7.784554e+002, 2.987756e+001
7.789376e+002, 3.002914e+001
7.794197e+002, 3.081019e+001
7.799019e+002, 3.132385e+001
7.803840e+002, 3.125167e+001
7.808661e+002, 3.094538e+001
7.813482e+002, 3.066197e+001
7.818303e+002, 3.043281e+001
7.823124e+002, 3.025167e+001
7.827946e+002, 3.012723e+001
7.832767e+002, 3.003384e+001
7.837588e+002, 2.996930e+001
7.842409e+002, 2.991413e+001
7.847230e+002, 2.979276e+001
7.852051e+002, 2.961977e+001
7.856873e+002, 2.957168e+001
7.861694e+002, 2.979183e+001
7.866515e+002, 3.013907e+001
7.871336e+002, 3.019849e+001
7.876157e+002, 2.986933e+001
7.880978e+002, 2.984093e+001
7.885800e+002, 3.037924e+001
7.890621e+002, 3.084340e+001
7.895442e+002, 3.077964e+001
7.900263e+002, 3.047188e+001
7.905084e+002, 3.037366e+001
7.909905e+002, 3.053847e+001
7.914727e+002, 3.073060e+001
7.919548e+002, 3.096695e+001
7.924369e+002, 3.113753e+001
7.929190e+002, 3.111718e+001
7.934011e+002, 3.100473e+001
7.938832e+002, 3.095370e+001
7.943654e+002, 3.100513e+001
7.948475e+002, 3.112290e+001
7.953296e+002, 3.131862e+001
7.958117e+002, 3.152229e+001
7.962938e+002, 3.149720e+001
7.967759e+002, 3.124880e+001
7.972581e+002, 3.111553e+001
7.977402e+002, 3.120696e+001
7.982223e+002, 3.130617e+001
7.987044e+002, 3.120753e+001
7.991865e+002, 3.095487e+001
7.996686e+002, 3.081103e+001
8.001508e+002, 3.091593e+001
8.006329e+002, 3.092816e+001
8.011150e+002, 3.070827e+001
8.015971e+002, 3.052768e+001
8.020792e+002, 3.051790e+001
8.025613e+002, 3.066498e+001
8.030435e+002, 3.098191e+001
8.035256e+002, 3.149279e+001
8.040077e+002, 3.188405e+001
8.044898e+002, 3.174540e+001
8.049719e+002, 3.145268e+001
8.054540e+002, 3.163021e+001
8.059362e+002, 3.217348e+001
8.064183e+002, 3.253352e+001
8.069004e+002, 3.251678e+001
8.073825e+002, 3.243169e+001
8.078646e+002, 3.264702e+001
8.083467e+002, 3.313446e+001
8.088289e+002, 3.353966e+001
8.093110e+002, 3.387204e+001
8.097931e+002, 3.409275e+001
8.102752e+002, 3.412675e+001
8.107573e+002, 3.411647e+001
8.112394e+002, 3.412766e+001
8.117216e+002, 3.418318e+001
8.122037e+002, 3.435946e+001
8.126858e+002, 3.463989e+001
8.131679e+002, 3.509013e+001
8.136500e+002, 3.583905e+001
8.141321e+002, 3.667767e+001
8.146143e+002, 3.746402e+001
8.150964e+002, 3.817493e+001
8.155785e+002, 3.876914e+001
8.160606e+002, 3.923120e+001
8.165427e+002, 3.975384e+001
8.170248e+002, 4.057374e+001
8.175070e+002, 4.163426e+001
8.179891e+002, 4.275871e+001
8.184712e+002, 4.394728e+001
8.189533e+002, 4.520485e+001
8.194354e+002, 4.660810e+001
8.199175e+002, 4.777309e+001
8.203997e+002, 4.820497e+001
8.208818e+002, 4.791630e+001
8.213639e+002, 4.767339e+001
8.218460e+002, 4.777465e+001
8.223281e+002, 4.746572e+001
8.228102e+002, 4.646112e+001
8.232924e+002, 4.523041e+001
8.237745e+002, 4.397337e+001
8.242566e+002, 4.275065e+001
8.247387e+002, 4.169404e+001
8.252208e+002, 4.090821e+001
8.257029e+002, 4.004945e+001
8.261851e+002, 3.872094e+001
8.266672e+002, 3.733857e+001
8.271493e+002, 3.640009e+001
8.276314e+002, 3.584660e+001
8.281135e+002, 3.540580e+001
8.285956e+002, 3.496491e+001
8.290778e+002, 3.454897e+001
8.295599e+002, 3.419450e+001
8.300420e+002, 3.389325e+001
8.305241e+002, 3.354837e+001
8.310062e+002, 3.312587e+001
8.314883e+002, 3.293209e+001
8.319705e+002, 3.316434e+001
8.324526e+002, 3.341893e+001
8.329347e+002, 3.324551e+001
8.334168e+002, 3.271278e+001
8.338989e+002, 3.248962e+001
8.343810e+002, 3.297513e+001
8.348632e+002, 3.315976e+001
8.353453e+002, 3.268901e+001
8.358274e+002, 3.214795e+001
8.363095e+002, 3.184290e+001
8.367916e+002, 3.175607e+001
8.372737e+002, 3.183332e+001
8.377559e+002, 3.206896e+001
8.382380e+002, 3.226987e+001
8.387201e+002, 3.228485e+001
8.392022e+002, 3.219003e+001
8.396843e+002, 3.205553e+001
8.401664e+002, 3.190287e+001
8.406486e+002, 3.180037e+001
8.411307e+002, 3.176354e+001
8.416128e+002, 3.167802e+001
8.420949e+002, 3.139881e+001
8.425770e+002, 3.100807e+001
8.430591e+002, 3.091162e+001
8.435413e+002, 3.116648e+001
8.440234e+002, 3.143383e+001
8.445055e+002, 3.169177e+001
8.449876e+002, 3.189990e+001
8.454697e+002, 3.206847e+001
8.459518e+002, 3.215715e+001
8.464340e+002, 3.202787e+001
8.469161e+002, 3.153866e+001
8.473982e+002, 3.122185e+001
8.478803e+002, 3.117802e+001
8.483624e+002, 3.126999e+001
8.488445e+002, 3.156833e+001
8.493267e+002, 3.188911e+001
8.498088e+002, 3.197711e+001
8.502909e+002, 3.180430e+001
8.507730e+002, 3.157633e+001
8.512551e+002, 3.133965e+001
8.517372e+002, 3.120427e+001
8.522194e+002, 3.140554e+001
8.527015e+002, 3.179400e+001
8.531836e+002, 3.198151e+001
8.536657e+002, 3.191617e+001
8.541478e+002, 3.181749e+001
8.546299e+002, 3.183556e+001
8.551121e+002, 3.190361e+001
8.555942e+002, 3.184619e+001
8.560763e+002, 3.163354e+001
8.565584e+002, 3.157020e+001
8.570405e+002, 3.175352e+001
8.575226e+002, 3.184741e+001
8.580048e+002, 3.163932e+001
8.584869e+002, 3.132412e+001
8.589690e+002, 3.117275e+001
8.594511e+002, 3.118969e+001
8.599332e+002, 3.127026e+001
8.604153e+002, 3.154071e+001
8.608975e+002, 3.170575e+001
8.613796e+002, 3.163356e+001
8.618617e+002, 3.146414e+001
8.623438e+002, 3.123057e+001
8.628259e+002, 3.101272e+001
8.633080e+002, 3.101813e+001
8.637902e+002, 3.139260e+001
8.642723e+002, 3.175973e+001
8.647544e+002, 3.180046e+001
8.652365e+002, 3.163804e+001
8.657186e+002, 3.142957e+001
8.662007e+002, 3.119530e+001
8.666829e+002, 3.092763e+001
8.671650e+002, 3.062826e+001
8.676471e+002, 3.038471e+001
8.681292e+002, 3.031309e+001
8.686113e+002, 3.038832e+001
8.690934e+002, 3.047033e+001
8.695756e+002, 3.056239e+001
8.700577e+002, 3.063323e+001
8.705398e+002, 3.066602e+001
8.710219e+002, 3.070397e+001
8.715040e+002, 3.081192e+001
8.719861e+002, 3.094454e+001
8.724683e+002, 3.092679e+001
8.729504e+002, 3.061099e+001
8.734325e+002, 3.042131e+001
8.739146e+002, 3.046978e+001
8.743967e+002, 3.052120e+001
8.748788e+002, 3.042051e+001
8.753610e+002, 3.029563e+001
8.758431e+002, 3.036358e+001
8.763252e+002, 3.063202e+001
8.768073e+002, 3.079513e+001
8.772894e+002, 3.055167e+001
8.777715e+002, 3.031199e+001
8.782537e+002, 3.048340e+001
8.787358e+002, 3.081891e+001
8.792179e+002, 3.094982e+001
8.797000e+002, 3.084989e+001
8.801821e+002, 3.065024e+001
8.806642e+002, 3.041097e+001
8.811464e+002, 3.025284e+001
8.816285e+002, 3.046638e+001
8.821106e+002, 3.095075e+001
8.825927e+002, 3.108608e+001
8.830748e+002, 3.083484e+001
8.835569e+002, 3.062167e+001
8.840391e+002, 3.061533e+001
8.845212e+002, 3.066986e+001
8.850033e+002, 3.060188e+001
8.854854e+002, 3.042288e+001
8.859675e+002, 3.036728e+001
8.864496e+002, 3.056561e+001
8.869318e+002, 3.062582e+001
8.874139e+002, 3.027987e+001
8.878960e+002, 3.001678e+001
8.883781e+002, 3.019834e+001
8.888602e+002, 3.062949e+001
8.893423e+002, 3.091866e+001
8.898245e+002, 3.099518e+001
8.903066e+002, 3.106901e+001
8.907887e+002, 3.113458e+001
8.912708e+002, 3.128220e+001
8.917529e+002, 3.173218e+001
8.922350e+002, 3.220769e+001
8.927172e+002, 3.224654e+001
8.931993e+002, 3.186720e+001
8.936814e+002, 3.157423e+001
8.941635e+002, 3.167583e+001
8.946456e+002, 3.199101e+001
8.951277e+002, 3.228316e+001
8.956099e+002, 3.262839e+001
8.960920e+002, 3.331771e+001
8.965741e+002, 3.429295e+001
8.970562e+002, 3.501060e+001
8.975383e+002, 3.520760e+001
8.980204e+002, 3.515313e+001
8.985026e+002, 3.521149e+001
8.989847e+002, 3.537661e+001
8.994668e+002, 3.554494e+001
8.999489e+002, 3.568184e+001
9.004310e+002, 3.604568e+001
9.009131e+002, 3.676929e+001
9.013953e+002, 3.757920e+001
9.018774e+002, 3.820412e+001
9.023595e+002, 3.872884e+001
9.028416e+002, 3.951776e+001
9.033237e+002, 4.064764e+001
9.038058e+002, 4.191289e+001
9.042880e+002, 4.357576e+001
9.047701e+002, 4.506719e+001
9.052522e+002, 4.608086e+001
9.057343e+002, 4.684574e+001
9.062164e+002, 4.766048e+001
9.066985e+002, 4.854782e+001
9.071807e+002, 4.927908e+001
9.076628e+002, 4.930198e+001
9.081449e+002, 4.970501e+001
9.086270e+002, 5.147058e+001
9.091091e+002, 5.366708e+001
9.095912e+002, 5.496944e+001
9.100734e+002, 5.570501e+001
9.105555e+002, 5.723480e+001
9.110376e+002, 6.016114e+001
9.115197e+002, 6.386933e+001
9.120018e+002, 6.775072e+001
9.124839e+002, 7.191272e+001
9.129661e+002, 7.663838e+001
9.134482e+002, 8.187842e+001
9.139303e+002, 8.740593e+001
9.144124e+002, 9.317745e+001
9.148945e+002, 9.879996e+001
9.153766e+002, 1.038976e+002
9.158588e+002, 1.086816e+002
9.163409e+002, 1.136421e+002
9.168230e+002, 1.186295e+002
9.173051e+002, 1.252348e+002
9.177872e+002, 1.335832e+002
9.182693e+002, 1.433882e+002
9.187515e+002, 1.540188e+002
9.192336e+002, 1.665665e+002
9.197157e+002, 1.824035e+002
9.201978e+002, 2.015148e+002
9.206799e+002, 2.247023e+002
9.211620e+002, 2.507453e+002
9.216442e+002, 2.827028e+002
9.221263e+002, 3.212776e+002
9.226084e+002, 3.654741e+002
9.230905e+002, 4.180618e+002
9.235726e+002, 4.750425e+002
9.240547e+002, 5.301530e+002
9.245369e+002, 5.852300e+002
9.250190e+002, 6.242802e+002
9.255011e+002, 6.447822e+002
9.259832e+002, 6.440651e+002
9.264653e+002, 6.146603e+002
9.269474e+002, 5.659664e+002
9.274296e+002, 5.063371e+002
9.279117e+002, 4.405573e+002
9.283938e+002, 3.771234e+002
9.288759e+002, 3.199345e+002
9.293580e+002, 2.696673e+002
9.298401e+002, 2.277952e+002
9.303223e+002, 1.933205e+002
9.308044e+002, 1.651347e+002
9.312865e+002, 1.426420e+002
9.317686e+002, 1.243995e+002
9.322507e+002, 1.098474e+002
9.327328e+002, 9.812334e+001
9.332150e+002, 8.848025e+001
9.336971e+002, 8.072112e+001
9.341792e+002, 7.409458e+001
9.346613e+002, 6.861469e+001
9.351434e+002, 6.417844e+001
9.356255e+002, 6.088169e+001
9.361077e+002, 5.797918e+001
9.365898e+002, 5.496789e+001
9.370719e+002, 5.203772e+001
9.375540e+002, 4.958429e+001
9.380361e+002, 4.768467e+001
9.385182e+002, 4.588680e+001
9.390004e+002, 4.413887e+001
9.394825e+002, 4.259417e+001
9.399646e+002, 4.133727e+001
9.404467e+002, 4.024902e+001
9.409288e+002, 3.918945e+001
9.414109e+002, 3.819387e+001
9.418931e+002, 3.747230e+001
9.423752e+002, 3.733401e+001
9.428573e+002, 3.691109e+001
9.433394e+002, 3.576855e+001
9.438215e+002, 3.468684e+001
9.443036e+002, 3.418169e+001
9.447858e+002, 3.391142e+001
9.452679e+002, 3.333751e+001
9.457500e+002, 3.244024e+001
9.462321e+002, 3.177526e+001
9.467142e+002, 3.171220e+001
9.471964e+002, 3.177097e+001
9.476785e+002, 3.182576e+001
9.481606e+002, 3.172850e+001
9.486427e+002, 3.115358e+001
9.491248e+002, 3.029975e+001
9.496069e+002, 2.971329e+001
9.500891e+002, 2.958936e+001
9.505712e+002, 2.956559e+001
9.510533e+002, 2.930109e+001
9.515354e+002, 2.893231e+001
9.520175e+002, 2.865414e+001
9.524996e+002, 2.846322e+001
9.529818e+002, 2.840547e+001
9.534639e+002, 2.845578e+001
9.539460e+002, 2.836888e+001
9.544281e+002, 2.797581e+001
9.549102e+002, 2.749253e+001
9.553923e+002, 2.731940e+001
9.558745e+002, 2.741887e+001
9.563566e+002, 2.743918e+001
9.568387e+002, 2.737080e+001
9.573208e+002, 2.735498e+001
9.578029e+002, 2.745926e+001
9.582850e+002, 2.748014e+001
9.587672e+002, 2.719580e+001
9.592493e+002, 2.670795e+001
9.597314e+002, 2.644376e+001
9.602135e+002, 2.648718e+001
9.606956e+002, 2.643886e+001
9.611777e+002, 2.623038e+001
9.616599e+002, 2.604078e+001
9.621420e+002, 2.594891e+001
9.626241e+002, 2.590811e+001
9.631062e+002, 2.586188e+001
9.635883e+002, 2.581032e+001
9.640704e+002, 2.578117e+001
9.645526e+002, 2.576588e+001
9.650347e+002, 2.578435e+001
9.655168e+002, 2.588349e+001
9.659989e+002, 2.596888e+001
9.664810e+002, 2.598941e+001
9.669631e+002, 2.596358e+001
9.674453e+002, 2.593463e+001
9.679274e+002, 2.590949e+001
9.684095e+002, 2.580794e+001
9.688916e+002, 2.552203e+001
9.693737e+002, 2.526194e+001
9.698558e+002, 2.510447e+001
9.703380e+002, 2.502713e+001
9.708201e+002, 2.504844e+001
9.713022e+002, 2.512293e+001
9.717843e+002, 2.516327e+001
9.722664e+002, 2.514229e+001
9.727485e+002, 2.506276e+001
9.732307e+002, 2.484666e+001
9.737128e+002, 2.464670e+001
9.741949e+002, 2.465745e+001
9.746770e+002, 2.477179e+001
9.751591e+002, 2.482003e+001
9.756412e+002, 2.477222e+001
9.761234e+002, 2.463617e+001
9.766055e+002, 2.439687e+001
9.770876e+002, 2.422415e+001
9.775698e+002, 2.439192e+001
9.780519e+002, 2.474823e+001
9.785340e+002, 2.497164e+001
9.790161e+002, 2.507299e+001
9.794982e+002, 2.519988e+001
9.799803e+002, 2.537532e+001
9.804625e+002, 2.536596e+001
9.809446e+002, 2.494732e+001
9.814267e+002, 2.435711e+001
9.819088e+002, 2.412351e+001
9.823909e+002, 2.421469e+001
9.828730e+002, 2.436831e+001
9.833552e+002, 2.457332e+001
9.838373e+002, 2.457825e+001
9.843194e+002, 2.425547e+001
9.848015e+002, 2.394916e+001
9.852836e+002, 2.405913e+001
9.857657e+002, 2.446561e+001
9.862479e+002, 2.454303e+001
9.867300e+002, 2.421414e+001
9.872121e+002, 2.396278e+001
9.876942e+002, 2.382413e+001
9.881763e+002, 2.377480e+001
9.886584e+002, 2.382984e+001
9.891406e+002, 2.393298e+001
9.896227e+002, 2.402607e+001
9.901048e+002, 2.410869e+001
9.905869e+002, 2.406911e+001
9.910690e+002, 2.378684e+001
9.915511e+002, 2.361940e+001
9.920333e+002, 2.367360e+001
9.925154e+002, 2.375895e+001
9.929975e+002, 2.376152e+001
9.934796e+002, 2.373957e+001
9.939617e+002, 2.380910e+001
9.944438e+002, 2.398899e+001
9.949260e+002, 2.405474e+001
9.954081e+002, 2.385278e+001
9.958902e+002, 2.372957e+001
9.963723e+002, 2.385915e+001
9.968544e+002, 2.399073e+001
9.973365e+002, 2.394157e+001
9.978187e+002, 2.377393e+001
9.983008e+002, 2.359858e+001
9.987829e+002, 2.342189e+001
9.992650e+002, 2.335636e+001
9.997471e+002, 2.354894e+001
1.000229e+003, 2.372067e+001
1.000711e+003, 2.370553e+001
1.001193e+003, 2.363915e+001
1.001676e+003, 2.368991e+001
1.002158e+003, 2.380013e+001
1.002640e+003, 2.375019e+001
1.003122e+003, 2.344850e+001
1.003604e+003, 2.327434e+001
1.004086e+003, 2.361106e+001
1.004568e+003, 2.398412e+001
1.005050e+003, 2.400909e+001
1.005533e+003, 2.383266e+001
1.006015e+003, 2.361865e+001
1.006497e+003, 2.342039e+001
1.006979e+003, 2.328087e+001
1.007461e+003, 2.321887e+001
1.007943e+003, 2.322206e+001
1.008425e+003, 2.335953e+001
1.008907e+003, 2.349421e+001
1.009389e+003, 2.343796e+001
1.009872e+003, 2.324087e+001
1.010354e+003, 2.291498e+001
1.010836e+003, 2.254638e+001
1.011318e+003, 2.251052e+001
1.011800e+003, 2.306548e+001
1.012282e+003, 2.368634e+001
1.012764e+003, 2.363242e+001
1.013246e+003, 2.320514e+001
1.013729e+003, 2.304399e+001
1.014211e+003, 2.311391e+001
1.014693e+003, 2.322855e+001
1.015175e+003, 2.333210e+001
1.015657e+003, 2.338766e+001
1.016139e+003, 2.336749e+001
1.016621e+003, 2.329782e+001
1.017103e+003, 2.320043e+001
1.017585e+003, 2.309188e+001
1.018068e+003, 2.305162e+001
1.018550e+003, 2.307775e+001
1.019032e+003, 2.311717e+001
1.019514e+003, 2.315491e+001
1.019996e+003, 2.325575e+001
1.020478e+003, 2.349293e+001
1.020960e+003, 2.375234e+001
1.021442e+003, 2.372660e+001
1.021924e+003, 2.343005e+001
1.022407e+003, 2.323118e+001
1.022889e+003, 2.314309e+001
1.023371e+003, 2.316961e+001
1.023853e+003, 2.333700e+001
1.024335e+003, 2.344986e+001
1.024817e+003, 2.331861e+001
1.025299e+003, 2.302696e+001
1.025781e+003, 2.281262e+001
1.026264e+003, 2.266440e+001
1.026746e+003, 2.273053e+001
1.027228e+003, 2.309718e+001
1.027710e+003, 2.327456e+001
1.028192e+003, 2.303102e+001
1.028674e+003, 2.273951e+001
1.029156e+003, 2.278135e+001
1.029638e+003, 2.305289e+001
1.030120e+003, 2.311100e+001
1.030603e+003, 2.285001e+001
1.031085e+003, 2.278019e+001
1.031567e+003, 2.298280e+001
1.032049e+003, 2.320536e+001
1.032531e+003, 2.340708e+001
1.033013e+003, 2.352026e+001
1.033495e+003, 2.343800e+001
1.033977e+003, 2.321286e+001
1.034459e+003, 2.311846e+001
1.034942e+003, 2.325483e+001
1.035424e+003, 2.327576e+001
1.035906e+003, 2.305759e+001
1.036388e+003, 2.293669e+001
1.036870e+003, 2.310867e+001
1.037352e+003, 2.334170e+001
1.037834e+003, 2.341735e+001
1.038316e+003, 2.335287e+001
1.038799e+003, 2.324687e+001
1.039281e+003, 2.297251e+001
1.039763e+003, 2.290425e+001
1.040245e+003, 2.329727e+001
1.040727e+003, 2.356833e+001
1.041209e+003, 2.345920e+001
1.041691e+003, 2.320311e+001
1.042173e+003, 2.296702e+001
1.042656e+003, 2.276575e+001
1.043138e+003, 2.267817e+001
1.043620e+003, 2.274465e+001
1.044102e+003, 2.284915e+001
1.044584e+003, 2.307004e+001
1.045066e+003, 2.322236e+001
1.045548e+003, 2.321351e+001
1.046030e+003, 2.312408e+001
1.046512e+003, 2.298901e+001
1.046995e+003, 2.283833e+001
1.047477e+003, 2.278948e+001
1.047959e+003, 2.290680e+001
1.048441e+003, 2.300710e+001
1.048923e+003, 2.307324e+001
1.049405e+003, 2.310566e+001
1.049887e+003, 2.311926e+001
1.050369e+003, 2.308815e+001
1.050851e+003, 2.290167e+001
1.051334e+003, 2.263954e+001
1.051816e+003, 2.263766e+001
1.052298e+003, 2.310432e+001
1.052780e+003, 2.340696e+001
1.053262e+003, 2.325772e+001
1.053744e+003, 2.308952e+001
1.054226e+003, 2.316256e+001
1.054708e+003, 2.326669e+001
1.055191e+003, 2.312169e+001
1.055673e+003, 2.280777e+001
1.056155e+003, 2.267483e+001
1.056637e+003, 2.286715e+001
1.057119e+003, 2.299720e+001
1.057601e+003, 2.284696e+001
1.058083e+003, 2.272909e+001
1.058565e+003, 2.291655e+001
1.059047e+003, 2.312079e+001
1.059530e+003, 2.295933e+001
1.060012e+003, 2.255691e+001
1.060494e+003, 2.238776e+001
1.060976e+003, 2.262942e+001
1.061458e+003, 2.280021e+001
1.061940e+003, 2.262757e+001
1.062422e+003, 2.246530e+001
1.062904e+003, 2.251793e+001
1.063386e+003, 2.265727e+001
1.063869e+003, 2.279465e+001
1.064351e+003, 2.289505e+001
1.064833e+003, 2.286402e+001
1.065315e+003, 2.263619e+001
1.065797e+003, 2.260577e+001
1.066279e+003, 2.312950e+001
1.066761e+003, 2.365108e+001
1.067243e+003, 2.386947e+001
1.067726e+003, 2.394584e+001
1.068208e+003, 2.401563e+001
1.068690e+003, 2.409152e+001
1.069172e+003, 2.416734e+001
1.069654e+003, 2.424401e+001
1.070136e+003, 2.426579e+001
1.070618e+003, 2.407685e+001
1.071100e+003, 2.398986e+001
1.071583e+003, 2.435584e+001
1.072065e+003, 2.474100e+001
1.072547e+003, 2.462086e+001
1.073029e+003, 2.422714e+001
1.073511e+003, 2.410966e+001
1.073993e+003, 2.439203e+001
1.074475e+003, 2.474634e+001
1.074957e+003, 2.509618e+001
1.075439e+003, 2.539559e+001
1.075922e+003, 2.559834e+001
1.076404e+003, 2.576255e+001
1.076886e+003, 2.590435e+001
1.077368e+003, 2.606157e+001
1.077850e+003, 2.628615e+001
1.078332e+003, 2.658917e+001
1.078814e+003, 2.695212e+001
1.079296e+003, 2.732870e+001
1.079779e+003, 2.781572e+001
1.080261e+003, 2.851488e+001
1.080743e+003, 2.928753e+001
1.081225e+003, 2.970398e+001
1.081707e+003, 3.026505e+001
1.082189e+003, 3.164209e+001
1.082671e+003, 3.397071e+001
1.083153e+003, 3.729853e+001
1.083635e+003, 4.217863e+001
1.084118e+003, 4.703943e+001
1.084600e+003, 5.243856e+001
1.085082e+003, 5.624607e+001
1.085564e+003, 5.668082e+001
1.086046e+003, 5.465602e+001
1.086528e+003, 5.089081e+001
1.087010e+003, 4.592670e+001
1.087492e+003, 4.127009e+001
1.087974e+003, 3.727809e+001
1.088457e+003, 3.392815e+001
1.088939e+003, 3.129358e+001
1.089421e+003, 2.917555e+001
1.089903e+003, 2.765459e+001
1.090385e+003, 2.641824e+001
1.090867e+003, 2.502262e+001
1.091349e+003, 2.358504e+001
1.091831e+003, 2.265782e+001
1.092314e+003, 2.248504e+001
1.092796e+003, 2.243830e+001
1.093278e+003, 2.234531e+001
1.093760e+003, 2.225485e+001
1.094242e+003, 2.227788e+001
1.094724e+003, 2.224394e+001
1.095206e+003, 2.186155e+001
1.095688e+003, 2.130714e+001
1.096171e+003, 2.108345e+001
1.096653e+003, 2.134035e+001
1.097135e+003, 2.151265e+001
1.097617e+003, 2.131787e+001
1.098099e+003, 2.115852e+001
1.098581e+003, 2.122079e+001
1.099063e+003, 2.135353e+001
1.099545e+003, 2.145800e+001
1.100027e+003, 2.153289e+001
1.100510e+003, 2.161164e+001
1.100992e+003, 2.170102e+001
1.101474e+003, 2.167808e+001
1.101956e+003, 2.142527e+001
1.102438e+003, 2.118638e+001
1.102920e+003, 2.094480e+001
1.103402e+003, 2.082181e+001
1.103884e+003, 2.092526e+001
1.104366e+003, 2.117354e+001
1.104849e+003, 2.151900e+001
1.105331e+003, 2.193277e+001
1.105813e+003, 2.215276e+001
1.106295e+003, 2.198003e+001
1.106777e+003, 2.186456e+001
1.107259e+003, 2.198423e+001
1.107741e+003, 2.203204e+001
1.108223e+003, 2.174347e+001
1.108706e+003, 2.140778e+001
1.109188e+003, 2.136069e+001
1.109670e+003, 2.155545e+001
1.110152e+003, 2.170742e+001
1.110634e+003, 2.185403e+001
1.111116e+003, 2.183539e+001
1.111598e+003, 2.141988e+001
1.112080e+003, 2.113494e+001
1.112563e+003, 2.132822e+001
1.113045e+003, 2.152701e+001
1.113527e+003, 2.121073e+001
1.114009e+003, 2.064542e+001
1.114491e+003, 2.060404e+001
1.114973e+003, 2.130180e+001
1.115455e+003, 2.158475e+001
1.115937e+003, 2.105299e+001
1.116419e+003, 2.081568e+001
1.116901e+003, 2.129385e+001
1.117384e+003, 2.179134e+001
1.117866e+003, 2.189683e+001
1.118348e+003, 2.175955e+001
1.118830e+003, 2.158390e+001
1.119312e+003, 2.136259e+001
1.119794e+003, 2.139977e+001
1.120276e+003, 2.186574e+001
1.120758e+003, 2.214239e+001
1.121241e+003, 2.213181e+001
1.121723e+003, 2.198975e+001
1.122205e+003, 2.169394e+001
1.122687e+003, 2.147227e+001
1.123169e+003, 2.165778e+001
1.123651e+003, 2.214037e+001
1.124133e+003, 2.225437e+001
1.124615e+003, 2.190735e+001
1.125098e+003, 2.163957e+001
1.125580e+003, 2.148615e+001
1.126062e+003, 2.132817e+001
1.126544e+003, 2.109034e+001
1.127026e+003, 2.099846e+001
1.127508e+003, 2.129513e+001
1.127990e+003, 2.176608e+001
1.128472e+003, 2.183324e+001
1.128954e+003, 2.148062e+001
1.129437e+003, 2.138957e+001
1.129919e+003, 2.158509e+001
1.130401e+003, 2.162325e+001
1.130883e+003, 2.139971e+001
1.131365e+003, 2.113350e+001
1.131847e+003, 2.093789e+001
1.132329e+003, 2.089010e+001
1.132811e+003, 2.117479e+001
1.133293e+003, 2.167525e+001
1.133776e+003, 2.180615e+001
1.134258e+003, 2.160670e+001
1.134740e+003, 2.140294e+001
1.135222e+003, 2.124494e+001
1.135704e+003, 2.123463e+001
1.136186e+003, 2.141143e+001
1.136668e+003, 2.158524e+001
1.137150e+003, 2.155192e+001
1.137633e+003, 2.144048e+001
1.138115e+003, 2.159091e+001
1.138597e+003, 2.186208e+001
1.139079e+003, 2.172868e+001
1.139561e+003, 2.129077e+001
1.140043e+003, 2.108052e+001
1.140525e+003, 2.120822e+001
1.141007e+003, 2.140788e+001
1.141490e+003, 2.151798e+001
1.141972e+003, 2.156775e+001
1.142454e+003, 2.154808e+001
1.142936e+003, 2.152283e+001
1.143418e+003, 2.164673e+001
1.143900e+003, 2.182536e+001
1.144382e+003, 2.185594e+001
1.144864e+003, 2.173808e+001
1.145346e+003, 2.157253e+001
1.145828e+003, 2.140193e+001
1.146311e+003, 2.126601e+001
1.146793e+003, 2.112575e+001
1.147275e+003, 2.111368e+001
1.147757e+003, 2.146874e+001
1.148239e+003, 2.192852e+001
1.148721e+003, 2.224844e+001
1.149203e+003, 2.239638e+001
1.149685e+003, 2.232071e+001
1.150168e+003, 2.205312e+001
1.150650e+003, 2.184232e+001
1.151132e+003, 2.180867e+001
1.151614e+003, 2.182405e+001
1.152096e+003, 2.180858e+001
1.152578e+003, 2.183396e+001
1.153060e+003, 2.199157e+001
1.153542e+003, 2.218643e+001
1.154025e+003, 2.237085e+001
1.154507e+003, 2.248678e+001
1.154989e+003, 2.235154e+001
1.155471e+003, 2.184214e+001
1.155953e+003, 2.152699e+001
1.156435e+003, 2.167810e+001
1.156917e+003, 2.184930e+001
1.157399e+003, 2.183215e+001
1.157881e+003, 2.185587e+001
1.158364e+003, 2.215587e+001
1.158846e+003, 2.256714e+001
1.159328e+003, 2.285041e+001
1.159810e+003, 2.299646e+001
1.160292e+003, 2.290232e+001
1.160774e+003, 2.230006e+001
1.161256e+003, 2.195162e+001
1.161738e+003, 2.202789e+001
1.162220e+003, 2.213123e+001
1.162703e+003, 2.209246e+001
1.163185e+003, 2.206221e+001
1.163667e+003, 2.220983e+001
1.164149e+003, 2.246443e+001
1.164631e+003, 2.257835e+001
1.165113e+003, 2.251612e+001
1.165595e+003, 2.255109e+001
1.166077e+003, 2.273310e+001
1.166560e+003, 2.277562e+001
1.167042e+003, 2.258896e+001
1.167524e+003, 2.238381e+001
1.168006e+003, 2.226926e+001
1.168488e+003, 2.226949e+001
1.168970e+003, 2.244519e+001
1.169452e+003, 2.275318e+001
1.169934e+003, 2.299539e+001
1.170417e+003, 2.316763e+001
1.170899e+003, 2.315357e+001
1.171381e+003, 2.295998e+001
1.171863e+003, 2.288602e+001
1.172345e+003, 2.302732e+001
1.172827e+003, 2.314355e+001
1.173309e+003, 2.302262e+001
1.173791e+003, 2.284265e+001
1.174273e+003, 2.298096e+001
1.174755e+003, 2.325039e+001
1.175238e+003, 2.308906e+001
1.175720e+003, 2.269504e+001
1.176202e+003, 2.275599e+001
1.176684e+003, 2.324969e+001
1.177166e+003, 2.353275e+001
1.177648e+003, 2.332992e+001
1.178130e+003, 2.298408e+001
1.178612e+003, 2.271040e+001
1.179095e+003, 2.252098e+001
1.179577e+003, 2.244779e+001
1.180059e+003, 2.244792e+001
1.180541e+003, 2.247375e+001
1.181023e+003, 2.252919e+001
1.181505e+003, 2.266650e+001
1.181987e+003, 2.286562e+001
1.182469e+003, 2.297398e+001
1.182952e+003, 2.290159e+001
1.183434e+003, 2.281309e+001
1.183916e+003, 2.268148e+001
1.184398e+003, 2.267451e+001
1.184880e+003, 2.306409e+001
1.185362e+003, 2.346876e+001
1.185844e+003, 2.347030e+001
1.186326e+003, 2.320352e+001
1.186808e+003, 2.304411e+001
1.187291e+003, 2.304132e+001
1.187773e+003, 2.303586e+001
1.188255e+003, 2.300968e+001
1.188737e+003, 2.298371e+001
1.189219e+003, 2.291361e+001
1.189701e+003, 2.291197e+001
1.190183e+003, 2.307014e+001
1.190665e+003, 2.327031e+001
1.191147e+003, 2.339770e+001
1.191630e+003, 2.345546e+001
1.192112e+003, 2.345121e+001
1.192594e+003, 2.337771e+001
1.193076e+003, 2.324450e+001
1.193558e+003, 2.299369e+001
1.194040e+003, 2.304057e+001
1.194522e+003, 2.355029e+001
1.195004e+003, 2.390392e+001
1.195487e+003, 2.369363e+001
1.195969e+003, 2.333850e+001
1.196451e+003, 2.346058e+001
1.196933e+003, 2.389669e+001
1.197415e+003, 2.398954e+001
1.197897e+003, 2.381329e+001
1.198379e+003, 2.382199e+001
1.198861e+003, 2.400857e+001
1.199344e+003, 2.404151e+001
1.199826e+003, 2.384364e+001
1.200308e+003, 2.367604e+001
1.200790e+003, 2.372322e+001
1.201272e+003, 2.382811e+001
1.201754e+003, 2.375452e+001
1.202236e+003, 2.366020e+001
1.202718e+003, 2.380448e+001
1.203200e+003, 2.407024e+001
1.203682e+003, 2.426012e+001
1.204165e+003, 2.437355e+001
1.204647e+003, 2.450443e+001
1.205129e+003, 2.467409e+001
1.205611e+003, 2.478796e+001
1.206093e+003, 2.476885e+001
1.206575e+003, 2.472588e+001
1.207057e+003, 2.468092e+001
1.207539e+003, 2.466904e+001
1.208022e+003, 2.472744e+001
1.208504e+003, 2.482270e+001
1.208986e+003, 2.490293e+001
1.209468e+003, 2.498363e+001
1.209950e+003, 2.514211e+001
1.210432e+003, 2.542503e+001
1.210914e+003, 2.562742e+001
1.211396e+003, 2.570812e+001
1.211879e+003, 2.574300e+001
1.212361e+003, 2.565310e+001
1.212843e+003, 2.567076e+001
1.213325e+003, 2.602009e+001
1.213807e+003, 2.637422e+001
1.214289e+003, 2.627925e+001
1.214771e+003, 2.587416e+001
1.215253e+003, 2.587329e+001
1.215735e+003, 2.634144e+001
1.216218e+003, 2.661307e+001
1.216700e+003, 2.666306e+001
1.217182e+003, 2.665135e+001
1.217664e+003, 2.661305e+001
1.218146e+003, 2.658797e+001
1.218628e+003, 2.660243e+001
1.219110e+003, 2.660219e+001
1.219592e+003, 2.649336e+001
1.220074e+003, 2.634560e+001
1.220557e+003, 2.635608e+001
1.221039e+003, 2.645266e+001
1.221521e+003, 2.638490e+001
1.222003e+003, 2.622954e+001
1.222485e+003, 2.633979e+001
1.222967e+003, 2.673914e+001
1.223449e+003, 2.704016e+001
1.223931e+003, 2.702188e+001
1.224414e+003, 2.693639e+001
1.224896e+003, 2.702870e+001
1.225378e+003, 2.707728e+001
1.225860e+003, 2.678025e+001
1.226342e+003, 2.645043e+001
1.226824e+003, 2.649405e+001
1.227306e+003, 2.673625e+001
1.227788e+003, 2.674656e+001
1.228271e+003, 2.649089e+001
1.228753e+003, 2.640000e+001
1.229235e+003, 2.669161e+001
1.229717e+003, 2.692044e+001
1.230199e+003, 2.698706e+001
1.230681e+003, 2.703860e+001
1.231163e+003, 2.712922e+001
1.231645e+003, 2.721330e+001
1.232127e+003, 2.727146e+001
1.232609e+003, 2.728501e+001
1.233092e+003, 2.719525e+001
1.233574e+003, 2.700711e+001
1.234056e+003, 2.698946e+001
1.234538e+003, 2.716940e+001
1.235020e+003, 2.726492e+001
1.235502e+003, 2.723769e+001
1.235984e+003, 2.733722e+001
1.236466e+003, 2.765368e+001
1.236949e+003, 2.792274e+001
1.237431e+003, 2.792496e+001
1.237913e+003, 2.784304e+001
1.238395e+003, 2.802000e+001
1.238877e+003, 2.831117e+001
1.239359e+003, 2.837889e+001
1.239841e+003, 2.827593e+001
1.240323e+003, 2.803565e+001
1.240806e+003, 2.776461e+001
1.241288e+003, 2.779044e+001
1.241770e+003, 2.815762e+001
1.242252e+003, 2.841794e+001
1.242734e+003, 2.824833e+001
1.243216e+003, 2.811182e+001
1.243698e+003, 2.830317e+001
1.244180e+003, 2.863754e+001
1.244662e+003, 2.913480e+001
1.245145e+003, 2.958309e+001
1.245627e+003, 2.973605e+001
1.246109e+003, 2.968674e+001
1.246591e+003, 2.965639e+001
1.247073e+003, 2.966494e+001
1.247555e+003, 2.972839e+001
1.248037e+003, 2.991537e+001
1.248519e+003, 3.001768e+001
1.249001e+003, 2.993095e+001
1.249484e+003, 2.996523e+001
1.249966e+003, 3.026114e+001
1.250448e+003, 3.061693e+001
1.250930e+003, 3.088394e+001
1.251412e+003, 3.108645e+001
1.251894e+003, 3.126235e+001
1.252376e+003, 3.141830e+001
1.252858e+003, 3.161264e+001
1.253341e+003, 3.183546e+001
1.253823e+003, 3.200426e+001
1.254305e+003, 3.211359e+001
1.254787e+003, 3.215438e+001
1.255269e+003, 3.214479e+001
1.255751e+003, 3.228799e+001
1.256233e+003, 3.275391e+001
1.256715e+003, 3.319109e+001
1.257198e+003, 3.315476e+001
1.257680e+003, 3.295701e+001
1.258162e+003, 3.286247e+001
1.258644e+003, 3.289068e+001
1.259126e+003, 3.313932e+001
1.259608e+003, 3.348727e+001
1.260090e+003, 3.368285e+001
1.260572e+003, 3.370094e+001
1.261054e+003, 3.374225e+001
1.261536e+003, 3.386603e+001
1.262019e+003, 3.400319e+001
1.262501e+003, 3.428104e+001
1.262983e+003, 3.436952e+001
1.263465e+003, 3.405125e+001
1.263947e+003, 3.366135e+001
1.264429e+003, 3.336800e+001
1.264911e+003, 3.316774e+001
1.265393e+003, 3.306650e+001
1.265876e+003, 3.304976e+001
1.266358e+003, 3.300935e+001
1.266840e+003, 3.294141e+001
1.267322e+003, 3.294907e+001
1.267804e+003, 3.303533e+001
1.268286e+003, 3.306389e+001
1.268768e+003, 3.299941e+001
1.269250e+003, 3.278278e+001
1.269733e+003, 3.237845e+001
1.270215e+003, 3.202005e+001
1.270697e+003, 3.198532e+001
1.271179e+003, 3.210261e+001
1.271661e+003, 3.213051e+001
1.272143e+003, 3.214796e+001
1.272625e+003, 3.238878e+001
1.273107e+003, 3.264290e+001
1.273589e+003, 3.239318e+001
1.274072e+003, 3.176654e+001
1.274554e+003, 3.150326e+001
1.275036e+003, 3.186422e+001
1.275518e+003, 3.211321e+001
1.276000e+003, 3.189462e+001
1.276482e+003, 3.171867e+001
1.276964e+003, 3.183619e+001
1.277446e+003, 3.188740e+001
1.277929e+003, 3.170469e+001
1.278411e+003, 3.135877e+001
1.278893e+003, 3.083230e+001
1.279375e+003, 3.026514e+001
1.279857e+003, 3.004996e+001
1.280339e+003, 3.019256e+001
1.280821e+003, 3.042260e+001
1.281303e+003, 3.074894e+001
1.281786e+003, 3.086733e+001
1.282268e+003, 3.073526e+001
##END=



