##NAMES=Takedaite
##RRUFFID=R140795
##IDEAL CHEMISTRY=Ca_3_B_2_O_6_
##LOCALITY=Fuka mine, Bitchu-cho-fuka, Takahashi City, Okayama Prefecture, Chugoku Region, Honshu Island, Japan
##OWNER=RRUFF
##SOURCE=Rock Currier
##DESCRIPTION=Gray-white granular associated with nifontovite
##STATUS=The identification of this mineral has been confirmed by single-crystal X-ray diffraction.
##URL=rruff.info/R140795
8.813672e+001, 1.502967e+002
8.861884e+001, 1.576488e+002
8.910095e+001, 1.613231e+002
8.958307e+001, 1.597848e+002
9.006519e+001, 1.551992e+002
9.054730e+001, 1.492464e+002
9.102942e+001, 1.420224e+002
9.151154e+001, 1.348332e+002
9.199365e+001, 1.290616e+002
9.247577e+001, 1.242992e+002
9.295789e+001, 1.192636e+002
9.344000e+001, 1.126391e+002
9.392212e+001, 1.053594e+002
9.440424e+001, 9.978380e+001
9.488635e+001, 9.631199e+001
9.536847e+001, 9.388206e+001
9.585059e+001, 9.117677e+001
9.633270e+001, 8.819598e+001
9.681482e+001, 8.531773e+001
9.729694e+001, 8.267907e+001
9.777905e+001, 8.027641e+001
9.826117e+001, 7.832172e+001
9.874329e+001, 7.683190e+001
9.922540e+001, 7.580180e+001
9.970752e+001, 7.537881e+001
1.001896e+002, 7.572861e+001
1.006718e+002, 7.602242e+001
1.011539e+002, 7.565367e+001
1.016360e+002, 7.446777e+001
1.021181e+002, 7.335947e+001
1.026002e+002, 7.241043e+001
1.030823e+002, 7.162509e+001
1.035645e+002, 7.104379e+001
1.040466e+002, 7.064652e+001
1.045287e+002, 7.046585e+001
1.050108e+002, 7.047199e+001
1.054929e+002, 7.036086e+001
1.059750e+002, 7.097514e+001
1.064572e+002, 7.269433e+001
1.069393e+002, 7.569263e+001
1.074214e+002, 7.817116e+001
1.079035e+002, 8.058369e+001
1.083856e+002, 8.230907e+001
1.088677e+002, 8.263693e+001
1.093499e+002, 8.009863e+001
1.098320e+002, 7.762109e+001
1.103141e+002, 7.578232e+001
1.107962e+002, 7.467460e+001
1.112783e+002, 7.383923e+001
1.117604e+002, 7.326733e+001
1.122426e+002, 7.292822e+001
1.127247e+002, 7.278880e+001
1.132068e+002, 7.276184e+001
1.136889e+002, 7.299073e+001
1.141710e+002, 7.353065e+001
1.146531e+002, 7.439417e+001
1.151353e+002, 7.555512e+001
1.156174e+002, 7.751344e+001
1.160995e+002, 7.983274e+001
1.165816e+002, 8.143239e+001
1.170637e+002, 8.114841e+001
1.175458e+002, 8.043664e+001
1.180280e+002, 8.032903e+001
1.185101e+002, 8.163875e+001
1.189922e+002, 8.287204e+001
1.194743e+002, 8.312626e+001
1.199564e+002, 8.256114e+001
1.204385e+002, 8.189155e+001
1.209207e+002, 8.117353e+001
1.214028e+002, 8.067561e+001
1.218849e+002, 8.069842e+001
1.223670e+002, 8.135433e+001
1.228491e+002, 8.258182e+001
1.233312e+002, 8.485043e+001
1.238134e+002, 8.807929e+001
1.242955e+002, 9.065503e+001
1.247776e+002, 9.075083e+001
1.252597e+002, 8.923719e+001
1.257418e+002, 8.787813e+001
1.262239e+002, 8.755579e+001
1.267061e+002, 8.778358e+001
1.271882e+002, 8.763443e+001
1.276703e+002, 8.704382e+001
1.281524e+002, 8.672462e+001
1.286345e+002, 8.773145e+001
1.291166e+002, 8.980502e+001
1.295988e+002, 9.177161e+001
1.300809e+002, 9.290653e+001
1.305630e+002, 9.346610e+001
1.310451e+002, 9.443238e+001
1.315272e+002, 9.595946e+001
1.320094e+002, 9.749930e+001
1.324915e+002, 9.810869e+001
1.329736e+002, 9.778741e+001
1.334557e+002, 9.747562e+001
1.339378e+002, 9.765907e+001
1.344199e+002, 9.832212e+001
1.349021e+002, 9.921647e+001
1.353842e+002, 1.004119e+002
1.358663e+002, 1.017201e+002
1.363484e+002, 1.027752e+002
1.368305e+002, 1.035307e+002
1.373126e+002, 1.042124e+002
1.377948e+002, 1.047030e+002
1.382769e+002, 1.048279e+002
1.387590e+002, 1.061569e+002
1.392411e+002, 1.093824e+002
1.397232e+002, 1.138035e+002
1.402053e+002, 1.163942e+002
1.406875e+002, 1.166694e+002
1.411696e+002, 1.161773e+002
1.416517e+002, 1.159309e+002
1.421338e+002, 1.159689e+002
1.426159e+002, 1.161573e+002
1.430980e+002, 1.164359e+002
1.435802e+002, 1.168346e+002
1.440623e+002, 1.176482e+002
1.445444e+002, 1.189541e+002
1.450265e+002, 1.205995e+002
1.455086e+002, 1.224430e+002
1.459907e+002, 1.244924e+002
1.464729e+002, 1.267759e+002
1.469550e+002, 1.295426e+002
1.474371e+002, 1.328541e+002
1.479192e+002, 1.354055e+002
1.484013e+002, 1.366346e+002
1.488834e+002, 1.374279e+002
1.493656e+002, 1.386162e+002
1.498477e+002, 1.405250e+002
1.503298e+002, 1.424681e+002
1.508119e+002, 1.442270e+002
1.512940e+002, 1.456877e+002
1.517761e+002, 1.475683e+002
1.522583e+002, 1.501237e+002
1.527404e+002, 1.529844e+002
1.532225e+002, 1.557868e+002
1.537046e+002, 1.579059e+002
1.541867e+002, 1.604911e+002
1.546688e+002, 1.641090e+002
1.551510e+002, 1.692656e+002
1.556331e+002, 1.736773e+002
1.561152e+002, 1.765240e+002
1.565973e+002, 1.785084e+002
1.570794e+002, 1.805406e+002
1.575615e+002, 1.827758e+002
1.580437e+002, 1.851528e+002
1.585258e+002, 1.877022e+002
1.590079e+002, 1.905218e+002
1.594900e+002, 1.932276e+002
1.599721e+002, 1.959080e+002
1.604542e+002, 1.983871e+002
1.609364e+002, 2.003554e+002
1.614185e+002, 2.019792e+002
1.619006e+002, 2.028735e+002
1.623827e+002, 2.028133e+002
1.628648e+002, 2.017077e+002
1.633469e+002, 1.997690e+002
1.638291e+002, 1.971083e+002
1.643112e+002, 1.936953e+002
1.647933e+002, 1.894033e+002
1.652754e+002, 1.835220e+002
1.657575e+002, 1.771104e+002
1.662396e+002, 1.709462e+002
1.667218e+002, 1.652079e+002
1.672039e+002, 1.597002e+002
1.676860e+002, 1.541108e+002
1.681681e+002, 1.486363e+002
1.686502e+002, 1.436956e+002
1.691323e+002, 1.397647e+002
1.696145e+002, 1.364425e+002
1.700966e+002, 1.333572e+002
1.705787e+002, 1.304193e+002
1.710608e+002, 1.276982e+002
1.715429e+002, 1.252912e+002
1.720250e+002, 1.231497e+002
1.725072e+002, 1.211748e+002
1.729893e+002, 1.192939e+002
1.734714e+002, 1.174961e+002
1.739535e+002, 1.157513e+002
1.744356e+002, 1.139660e+002
1.749177e+002, 1.123289e+002
1.753999e+002, 1.111013e+002
1.758820e+002, 1.102344e+002
1.763641e+002, 1.094254e+002
1.768462e+002, 1.083400e+002
1.773283e+002, 1.071482e+002
1.778104e+002, 1.061714e+002
1.782926e+002, 1.055533e+002
1.787747e+002, 1.051626e+002
1.792568e+002, 1.048904e+002
1.797389e+002, 1.047328e+002
1.802210e+002, 1.045435e+002
1.807031e+002, 1.041351e+002
1.811853e+002, 1.035943e+002
1.816674e+002, 1.031558e+002
1.821495e+002, 1.029108e+002
1.826316e+002, 1.028023e+002
1.831137e+002, 1.026660e+002
1.835958e+002, 1.024956e+002
1.840780e+002, 1.025288e+002
1.845601e+002, 1.031555e+002
1.850422e+002, 1.042264e+002
1.855243e+002, 1.051628e+002
1.860064e+002, 1.057529e+002
1.864885e+002, 1.060855e+002
1.869707e+002, 1.064504e+002
1.874528e+002, 1.068802e+002
1.879349e+002, 1.070436e+002
1.884170e+002, 1.064064e+002
1.888991e+002, 1.050741e+002
1.893812e+002, 1.038752e+002
1.898634e+002, 1.029830e+002
1.903455e+002, 1.024291e+002
1.908276e+002, 1.023996e+002
1.913097e+002, 1.029540e+002
1.917918e+002, 1.037196e+002
1.922739e+002, 1.041674e+002
1.927561e+002, 1.043172e+002
1.932382e+002, 1.048321e+002
1.937203e+002, 1.059933e+002
1.942024e+002, 1.077111e+002
1.946845e+002, 1.095390e+002
1.951666e+002, 1.114568e+002
1.956488e+002, 1.135102e+002
1.961309e+002, 1.158021e+002
1.966130e+002, 1.183762e+002
1.970951e+002, 1.209153e+002
1.975772e+002, 1.233805e+002
1.980593e+002, 1.257587e+002
1.985415e+002, 1.278659e+002
1.990236e+002, 1.296357e+002
1.995057e+002, 1.313047e+002
1.999878e+002, 1.331304e+002
2.004699e+002, 1.351242e+002
2.009520e+002, 1.372304e+002
2.014342e+002, 1.394136e+002
2.019163e+002, 1.416869e+002
2.023984e+002, 1.440801e+002
2.028805e+002, 1.466148e+002
2.033626e+002, 1.492402e+002
2.038447e+002, 1.517406e+002
2.043269e+002, 1.539645e+002
2.048090e+002, 1.568365e+002
2.052911e+002, 1.607566e+002
2.057732e+002, 1.657634e+002
2.062553e+002, 1.706821e+002
2.067374e+002, 1.753100e+002
2.072196e+002, 1.801621e+002
2.077017e+002, 1.858941e+002
2.081838e+002, 1.925043e+002
2.086659e+002, 2.000157e+002
2.091480e+002, 2.082530e+002
2.096301e+002, 2.172395e+002
2.101123e+002, 2.277683e+002
2.105944e+002, 2.403019e+002
2.110765e+002, 2.538516e+002
2.115586e+002, 2.672399e+002
2.120407e+002, 2.807086e+002
2.125229e+002, 2.933935e+002
2.130050e+002, 3.053064e+002
2.134871e+002, 3.166225e+002
2.139692e+002, 3.253730e+002
2.144513e+002, 3.324869e+002
2.149334e+002, 3.359893e+002
2.154156e+002, 3.329010e+002
2.158977e+002, 3.220566e+002
2.163798e+002, 3.073091e+002
2.168619e+002, 2.889781e+002
2.173440e+002, 2.665088e+002
2.178261e+002, 2.455208e+002
2.183083e+002, 2.260010e+002
2.187904e+002, 2.082390e+002
2.192725e+002, 1.927909e+002
2.197546e+002, 1.801290e+002
2.202367e+002, 1.690398e+002
2.207188e+002, 1.593238e+002
2.212010e+002, 1.508892e+002
2.216831e+002, 1.439279e+002
2.221652e+002, 1.387103e+002
2.226473e+002, 1.347044e+002
2.231294e+002, 1.313523e+002
2.236115e+002, 1.287933e+002
2.240937e+002, 1.265506e+002
2.245758e+002, 1.245005e+002
2.250579e+002, 1.226635e+002
2.255400e+002, 1.209345e+002
2.260221e+002, 1.192579e+002
2.265042e+002, 1.177350e+002
2.269864e+002, 1.165168e+002
2.274685e+002, 1.155796e+002
2.279506e+002, 1.149689e+002
2.284327e+002, 1.147243e+002
2.289148e+002, 1.148713e+002
2.293969e+002, 1.151457e+002
2.298791e+002, 1.154273e+002
2.303612e+002, 1.159349e+002
2.308433e+002, 1.169606e+002
2.313254e+002, 1.187230e+002
2.318075e+002, 1.206147e+002
2.322896e+002, 1.223855e+002
2.327718e+002, 1.239366e+002
2.332539e+002, 1.262396e+002
2.337360e+002, 1.294919e+002
2.342181e+002, 1.332581e+002
2.347002e+002, 1.371828e+002
2.351823e+002, 1.416553e+002
2.356645e+002, 1.455352e+002
2.361466e+002, 1.484899e+002
2.366287e+002, 1.504483e+002
2.371108e+002, 1.523142e+002
2.375929e+002, 1.541090e+002
2.380750e+002, 1.557628e+002
2.385572e+002, 1.571058e+002
2.390393e+002, 1.576688e+002
2.395214e+002, 1.588100e+002
2.400035e+002, 1.609321e+002
2.404856e+002, 1.641172e+002
2.409677e+002, 1.670667e+002
2.414499e+002, 1.694846e+002
2.419320e+002, 1.719503e+002
2.424141e+002, 1.749897e+002
2.428962e+002, 1.784432e+002
2.433783e+002, 1.827365e+002
2.438604e+002, 1.877522e+002
2.443426e+002, 1.934873e+002
2.448247e+002, 2.009834e+002
2.453068e+002, 2.105121e+002
2.457889e+002, 2.215090e+002
2.462710e+002, 2.337790e+002
2.467531e+002, 2.480698e+002
2.472353e+002, 2.621220e+002
2.477174e+002, 2.755083e+002
2.481995e+002, 2.881704e+002
2.486816e+002, 3.015243e+002
2.491637e+002, 3.168885e+002
2.496458e+002, 3.314514e+002
2.501280e+002, 3.437427e+002
2.506101e+002, 3.571518e+002
2.510922e+002, 3.611107e+002
2.515743e+002, 3.529615e+002
2.520564e+002, 3.336801e+002
2.525385e+002, 3.103536e+002
2.530207e+002, 2.801622e+002
2.535028e+002, 2.494391e+002
2.539849e+002, 2.229641e+002
2.544670e+002, 2.005163e+002
2.549491e+002, 1.819991e+002
2.554312e+002, 1.678857e+002
2.559134e+002, 1.578349e+002
2.563955e+002, 1.495123e+002
2.568776e+002, 1.431101e+002
2.573597e+002, 1.381087e+002
2.578418e+002, 1.342872e+002
2.583239e+002, 1.318793e+002
2.588061e+002, 1.299289e+002
2.592882e+002, 1.283491e+002
2.597703e+002, 1.271634e+002
2.602524e+002, 1.264957e+002
2.607345e+002, 1.263960e+002
2.612166e+002, 1.267139e+002
2.616988e+002, 1.273909e+002
2.621809e+002, 1.284359e+002
2.626630e+002, 1.298065e+002
2.631451e+002, 1.316037e+002
2.636272e+002, 1.336797e+002
2.641093e+002, 1.355784e+002
2.645915e+002, 1.372886e+002
2.650736e+002, 1.388962e+002
2.655557e+002, 1.404758e+002
2.660378e+002, 1.420206e+002
2.665199e+002, 1.434554e+002
2.670020e+002, 1.447358e+002
2.674842e+002, 1.459332e+002
2.679663e+002, 1.471393e+002
2.684484e+002, 1.483111e+002
2.689305e+002, 1.496021e+002
2.694126e+002, 1.510104e+002
2.698947e+002, 1.525073e+002
2.703769e+002, 1.544002e+002
2.708590e+002, 1.566832e+002
2.713411e+002, 1.593723e+002
2.718232e+002, 1.624119e+002
2.723053e+002, 1.657465e+002
2.727874e+002, 1.696075e+002
2.732696e+002, 1.740492e+002
2.737517e+002, 1.790597e+002
2.742338e+002, 1.850142e+002
2.747159e+002, 1.920137e+002
2.751980e+002, 1.997852e+002
2.756801e+002, 2.080631e+002
2.761623e+002, 2.169857e+002
2.766444e+002, 2.255821e+002
2.771265e+002, 2.335508e+002
2.776086e+002, 2.409971e+002
2.780907e+002, 2.482500e+002
2.785728e+002, 2.557576e+002
2.790550e+002, 2.619601e+002
2.795371e+002, 2.656907e+002
2.800192e+002, 2.670805e+002
2.805013e+002, 2.642245e+002
2.809834e+002, 2.558396e+002
2.814655e+002, 2.427852e+002
2.819477e+002, 2.289130e+002
2.824298e+002, 2.141125e+002
2.829119e+002, 1.996167e+002
2.833940e+002, 1.863694e+002
2.838761e+002, 1.743721e+002
2.843582e+002, 1.639849e+002
2.848404e+002, 1.554164e+002
2.853225e+002, 1.484313e+002
2.858046e+002, 1.423649e+002
2.862867e+002, 1.372722e+002
2.867688e+002, 1.330629e+002
2.872509e+002, 1.299719e+002
2.877331e+002, 1.278862e+002
2.882152e+002, 1.257563e+002
2.886973e+002, 1.233114e+002
2.891794e+002, 1.208535e+002
2.896615e+002, 1.190795e+002
2.901436e+002, 1.179718e+002
2.906258e+002, 1.172067e+002
2.911079e+002, 1.167526e+002
2.915900e+002, 1.165022e+002
2.920721e+002, 1.159079e+002
2.925542e+002, 1.147978e+002
2.930363e+002, 1.136039e+002
2.935185e+002, 1.130681e+002
2.940006e+002, 1.131302e+002
2.944827e+002, 1.132532e+002
2.949648e+002, 1.130840e+002
2.954469e+002, 1.127456e+002
2.959290e+002, 1.125896e+002
2.964112e+002, 1.126603e+002
2.968933e+002, 1.128068e+002
2.973754e+002, 1.128409e+002
2.978575e+002, 1.127907e+002
2.983396e+002, 1.127616e+002
2.988217e+002, 1.126949e+002
2.993039e+002, 1.127106e+002
2.997860e+002, 1.130480e+002
3.002681e+002, 1.137232e+002
3.007502e+002, 1.145756e+002
3.012323e+002, 1.155084e+002
3.017144e+002, 1.165046e+002
3.021966e+002, 1.174767e+002
3.026787e+002, 1.182366e+002
3.031608e+002, 1.190575e+002
3.036429e+002, 1.203823e+002
3.041250e+002, 1.221791e+002
3.046071e+002, 1.240437e+002
3.050893e+002, 1.257806e+002
3.055714e+002, 1.273515e+002
3.060535e+002, 1.286246e+002
3.065356e+002, 1.294079e+002
3.070177e+002, 1.300598e+002
3.074998e+002, 1.307601e+002
3.079820e+002, 1.315528e+002
3.084641e+002, 1.326404e+002
3.089462e+002, 1.342844e+002
3.094283e+002, 1.362403e+002
3.099104e+002, 1.381968e+002
3.103925e+002, 1.399072e+002
3.108747e+002, 1.418671e+002
3.113568e+002, 1.445708e+002
3.118389e+002, 1.478029e+002
3.123210e+002, 1.509481e+002
3.128031e+002, 1.533696e+002
3.132852e+002, 1.558210e+002
3.137674e+002, 1.589706e+002
3.142495e+002, 1.630586e+002
3.147316e+002, 1.672969e+002
3.152137e+002, 1.713326e+002
3.156958e+002, 1.752186e+002
3.161779e+002, 1.790444e+002
3.166601e+002, 1.828493e+002
3.171422e+002, 1.866033e+002
3.176243e+002, 1.903509e+002
3.181064e+002, 1.941150e+002
3.185885e+002, 1.975042e+002
3.190706e+002, 2.005223e+002
3.195528e+002, 2.030443e+002
3.200349e+002, 2.049281e+002
3.205170e+002, 2.056389e+002
3.209991e+002, 2.061814e+002
3.214812e+002, 2.068592e+002
3.219633e+002, 2.076885e+002
3.224455e+002, 2.084806e+002
3.229276e+002, 2.089959e+002
3.234097e+002, 2.095741e+002
3.238918e+002, 2.104693e+002
3.243739e+002, 2.114372e+002
3.248560e+002, 2.130305e+002
3.253382e+002, 2.154373e+002
3.258203e+002, 2.186051e+002
3.263024e+002, 2.220800e+002
3.267845e+002, 2.258373e+002
3.272666e+002, 2.299049e+002
3.277487e+002, 2.343083e+002
3.282309e+002, 2.387902e+002
3.287130e+002, 2.438891e+002
3.291951e+002, 2.495872e+002
3.296772e+002, 2.559007e+002
3.301593e+002, 2.628855e+002
3.306414e+002, 2.702509e+002
3.311236e+002, 2.785294e+002
3.316057e+002, 2.880448e+002
3.320878e+002, 2.991478e+002
3.325699e+002, 3.105054e+002
3.330520e+002, 3.221586e+002
3.335341e+002, 3.339350e+002
3.340163e+002, 3.456822e+002
3.344984e+002, 3.578256e+002
3.349805e+002, 3.689573e+002
3.354626e+002, 3.789522e+002
3.359448e+002, 3.878755e+002
3.364269e+002, 3.950599e+002
3.369090e+002, 4.010352e+002
3.373911e+002, 4.045829e+002
3.378732e+002, 4.044655e+002
3.383553e+002, 4.005163e+002
3.388375e+002, 3.935373e+002
3.393196e+002, 3.832955e+002
3.398017e+002, 3.701805e+002
3.402838e+002, 3.551329e+002
3.407659e+002, 3.376688e+002
3.412480e+002, 3.197785e+002
3.417302e+002, 3.023902e+002
3.422123e+002, 2.855698e+002
3.426944e+002, 2.695093e+002
3.431765e+002, 2.541839e+002
3.436586e+002, 2.397220e+002
3.441407e+002, 2.267337e+002
3.446229e+002, 2.152741e+002
3.451050e+002, 2.049513e+002
3.455871e+002, 1.958118e+002
3.460692e+002, 1.876937e+002
3.465513e+002, 1.804403e+002
3.470334e+002, 1.740598e+002
3.475156e+002, 1.683676e+002
3.479977e+002, 1.633944e+002
3.484798e+002, 1.590312e+002
3.489619e+002, 1.549432e+002
3.494440e+002, 1.509229e+002
3.499261e+002, 1.470998e+002
3.504083e+002, 1.437573e+002
3.508904e+002, 1.408931e+002
3.513725e+002, 1.383550e+002
3.518546e+002, 1.359471e+002
3.523367e+002, 1.337507e+002
3.528188e+002, 1.319370e+002
3.533010e+002, 1.306794e+002
3.537831e+002, 1.296634e+002
3.542652e+002, 1.285431e+002
3.547473e+002, 1.273549e+002
3.552294e+002, 1.262674e+002
3.557115e+002, 1.256271e+002
3.561937e+002, 1.250383e+002
3.566758e+002, 1.239448e+002
3.571579e+002, 1.219685e+002
3.576400e+002, 1.202584e+002
3.581221e+002, 1.200133e+002
3.586042e+002, 1.206037e+002
3.590864e+002, 1.207663e+002
3.595685e+002, 1.195847e+002
3.600506e+002, 1.180721e+002
3.605327e+002, 1.168440e+002
3.610148e+002, 1.159797e+002
3.614969e+002, 1.151491e+002
3.619791e+002, 1.141557e+002
3.624612e+002, 1.131474e+002
3.629433e+002, 1.122690e+002
3.634254e+002, 1.116342e+002
3.639075e+002, 1.110574e+002
3.643896e+002, 1.104257e+002
3.648718e+002, 1.097571e+002
3.653539e+002, 1.092890e+002
3.658360e+002, 1.093443e+002
3.663181e+002, 1.094297e+002
3.668002e+002, 1.092453e+002
3.672823e+002, 1.083954e+002
3.677645e+002, 1.077356e+002
3.682466e+002, 1.073501e+002
3.687287e+002, 1.071944e+002
3.692108e+002, 1.071508e+002
3.696929e+002, 1.075550e+002
3.701750e+002, 1.077196e+002
3.706572e+002, 1.073497e+002
3.711393e+002, 1.062098e+002
3.716214e+002, 1.053196e+002
3.721035e+002, 1.047626e+002
3.725856e+002, 1.043881e+002
3.730677e+002, 1.039998e+002
3.735499e+002, 1.035311e+002
3.740320e+002, 1.031983e+002
3.745141e+002, 1.031025e+002
3.749962e+002, 1.032235e+002
3.754783e+002, 1.032295e+002
3.759604e+002, 1.031062e+002
3.764426e+002, 1.029047e+002
3.769247e+002, 1.026345e+002
3.774068e+002, 1.022800e+002
3.778889e+002, 1.019993e+002
3.783710e+002, 1.018123e+002
3.788531e+002, 1.017140e+002
3.793353e+002, 1.017526e+002
3.798174e+002, 1.019474e+002
3.802995e+002, 1.020344e+002
3.807816e+002, 1.017757e+002
3.812637e+002, 1.012335e+002
3.817458e+002, 1.008502e+002
3.822280e+002, 1.006488e+002
3.827101e+002, 1.005651e+002
3.831922e+002, 1.005507e+002
3.836743e+002, 1.005906e+002
3.841564e+002, 1.006185e+002
3.846385e+002, 1.005805e+002
3.851207e+002, 1.005268e+002
3.856028e+002, 1.005958e+002
3.860849e+002, 1.007778e+002
3.865670e+002, 1.008835e+002
3.870491e+002, 1.007689e+002
3.875313e+002, 1.004799e+002
3.880134e+002, 1.000445e+002
3.884955e+002, 9.932230e+001
3.889776e+002, 9.872562e+001
3.894597e+002, 9.877593e+001
3.899418e+002, 9.928221e+001
3.904240e+002, 9.969675e+001
3.909061e+002, 9.971512e+001
3.913882e+002, 9.954130e+001
3.918703e+002, 9.926498e+001
3.923524e+002, 9.884708e+001
3.928345e+002, 9.859757e+001
3.933167e+002, 9.882915e+001
3.937988e+002, 9.926689e+001
3.942809e+002, 9.955996e+001
3.947630e+002, 9.943452e+001
3.952451e+002, 9.931514e+001
3.957272e+002, 9.938221e+001
3.962094e+002, 9.962440e+001
3.966915e+002, 9.978419e+001
3.971736e+002, 9.977266e+001
3.976557e+002, 9.968552e+001
3.981378e+002, 9.957933e+001
3.986199e+002, 9.932583e+001
3.991021e+002, 9.922529e+001
3.995842e+002, 9.941321e+001
4.000663e+002, 9.975278e+001
4.005484e+002, 9.991259e+001
4.010305e+002, 9.977352e+001
4.015126e+002, 9.960392e+001
4.019948e+002, 9.950152e+001
4.024769e+002, 9.949654e+001
4.029590e+002, 9.939552e+001
4.034411e+002, 9.916006e+001
4.039232e+002, 9.887328e+001
4.044053e+002, 9.858834e+001
4.048875e+002, 9.824126e+001
4.053696e+002, 9.813821e+001
4.058517e+002, 9.841409e+001
4.063338e+002, 9.896646e+001
4.068159e+002, 9.941801e+001
4.072980e+002, 9.980566e+001
4.077802e+002, 9.991824e+001
4.082623e+002, 9.938432e+001
4.087444e+002, 9.827663e+001
4.092265e+002, 9.772824e+001
4.097086e+002, 9.794222e+001
4.101907e+002, 9.847808e+001
4.106729e+002, 9.865827e+001
4.111550e+002, 9.853456e+001
4.116371e+002, 9.844079e+001
4.121192e+002, 9.859229e+001
4.126013e+002, 9.886066e+001
4.130834e+002, 9.897619e+001
4.135656e+002, 9.893709e+001
4.140477e+002, 9.886846e+001
4.145298e+002, 9.889808e+001
4.150119e+002, 9.896230e+001
4.154940e+002, 9.895747e+001
4.159761e+002, 9.884993e+001
4.164583e+002, 9.867375e+001
4.169404e+002, 9.835899e+001
4.174225e+002, 9.798396e+001
4.179046e+002, 9.777592e+001
4.183867e+002, 9.808228e+001
4.188688e+002, 9.844798e+001
4.193510e+002, 9.852003e+001
4.198331e+002, 9.819980e+001
4.203152e+002, 9.790948e+001
4.207973e+002, 9.777470e+001
4.212794e+002, 9.777227e+001
4.217615e+002, 9.787344e+001
4.222437e+002, 9.822534e+001
4.227258e+002, 9.851971e+001
4.232079e+002, 9.865791e+001
4.236900e+002, 9.864983e+001
4.241721e+002, 9.865819e+001
4.246542e+002, 9.869654e+001
4.251364e+002, 9.875222e+001
4.256185e+002, 9.882529e+001
4.261006e+002, 9.896921e+001
4.265827e+002, 9.901810e+001
4.270648e+002, 9.888857e+001
4.275469e+002, 9.870329e+001
4.280291e+002, 9.869552e+001
4.285112e+002, 9.893730e+001
4.289933e+002, 9.919370e+001
4.294754e+002, 9.939729e+001
4.299575e+002, 9.954977e+001
4.304396e+002, 9.970341e+001
4.309218e+002, 9.986782e+001
4.314039e+002, 1.000072e+002
4.318860e+002, 1.001152e+002
4.323681e+002, 1.001934e+002
4.328502e+002, 1.000957e+002
4.333323e+002, 9.972593e+001
4.338145e+002, 9.928667e+001
4.342966e+002, 9.920628e+001
4.347787e+002, 9.946230e+001
4.352608e+002, 9.977080e+001
4.357429e+002, 1.000077e+002
4.362250e+002, 1.001796e+002
4.367072e+002, 1.002694e+002
4.371893e+002, 1.002694e+002
4.376714e+002, 1.003013e+002
4.381535e+002, 1.005411e+002
4.386356e+002, 1.008822e+002
4.391177e+002, 1.011315e+002
4.395999e+002, 1.011609e+002
4.400820e+002, 1.011556e+002
4.405641e+002, 1.012709e+002
4.410462e+002, 1.014806e+002
4.415283e+002, 1.016906e+002
4.420104e+002, 1.018242e+002
4.424926e+002, 1.019602e+002
4.429747e+002, 1.021502e+002
4.434568e+002, 1.024082e+002
4.439389e+002, 1.026945e+002
4.444210e+002, 1.030964e+002
4.449031e+002, 1.034829e+002
4.453853e+002, 1.036983e+002
4.458674e+002, 1.034083e+002
4.463495e+002, 1.032601e+002
4.468316e+002, 1.035190e+002
4.473137e+002, 1.041388e+002
4.477958e+002, 1.044322e+002
4.482780e+002, 1.041184e+002
4.487601e+002, 1.037606e+002
4.492422e+002, 1.036478e+002
4.497243e+002, 1.039144e+002
4.502064e+002, 1.041257e+002
4.506885e+002, 1.043253e+002
4.511707e+002, 1.044395e+002
4.516528e+002, 1.042857e+002
4.521349e+002, 1.037711e+002
4.526170e+002, 1.033987e+002
4.530991e+002, 1.033719e+002
4.535812e+002, 1.036232e+002
4.540634e+002, 1.037260e+002
4.545455e+002, 1.036630e+002
4.550276e+002, 1.036203e+002
4.555097e+002, 1.038186e+002
4.559918e+002, 1.041910e+002
4.564739e+002, 1.043765e+002
4.569561e+002, 1.042866e+002
4.574382e+002, 1.041084e+002
4.579203e+002, 1.041015e+002
4.584024e+002, 1.042173e+002
4.588845e+002, 1.043061e+002
4.593666e+002, 1.042998e+002
4.598488e+002, 1.042217e+002
4.603309e+002, 1.040512e+002
4.608130e+002, 1.037982e+002
4.612951e+002, 1.036066e+002
4.617772e+002, 1.036149e+002
4.622593e+002, 1.037112e+002
4.627415e+002, 1.037852e+002
4.632236e+002, 1.037744e+002
4.637057e+002, 1.038064e+002
4.641878e+002, 1.040113e+002
4.646699e+002, 1.042886e+002
4.651520e+002, 1.044459e+002
4.656342e+002, 1.043027e+002
4.661163e+002, 1.041581e+002
4.665984e+002, 1.041208e+002
4.670805e+002, 1.042132e+002
4.675626e+002, 1.042631e+002
4.680447e+002, 1.042059e+002
4.685269e+002, 1.041533e+002
4.690090e+002, 1.041804e+002
4.694911e+002, 1.043043e+002
4.699732e+002, 1.044792e+002
4.704553e+002, 1.047405e+002
4.709374e+002, 1.050270e+002
4.714196e+002, 1.051601e+002
4.719017e+002, 1.050598e+002
4.723838e+002, 1.050989e+002
4.728659e+002, 1.054638e+002
4.733480e+002, 1.061247e+002
4.738301e+002, 1.067821e+002
4.743123e+002, 1.074619e+002
4.747944e+002, 1.079979e+002
4.752765e+002, 1.081754e+002
4.757586e+002, 1.080604e+002
4.762407e+002, 1.078996e+002
4.767228e+002, 1.076858e+002
4.772050e+002, 1.075689e+002
4.776871e+002, 1.078428e+002
4.781692e+002, 1.084019e+002
4.786513e+002, 1.089111e+002
4.791334e+002, 1.091866e+002
4.796155e+002, 1.093327e+002
4.800977e+002, 1.093960e+002
4.805798e+002, 1.093829e+002
4.810619e+002, 1.094517e+002
4.815440e+002, 1.096779e+002
4.820261e+002, 1.100341e+002
4.825082e+002, 1.105111e+002
4.829904e+002, 1.112327e+002
4.834725e+002, 1.118843e+002
4.839546e+002, 1.127542e+002
4.844367e+002, 1.134762e+002
4.849188e+002, 1.132654e+002
4.854009e+002, 1.110066e+002
4.858831e+002, 1.088148e+002
4.863652e+002, 1.072257e+002
4.868473e+002, 1.062810e+002
4.873294e+002, 1.055338e+002
4.878115e+002, 1.050165e+002
4.882936e+002, 1.046594e+002
4.887758e+002, 1.044211e+002
4.892579e+002, 1.043226e+002
4.897400e+002, 1.042721e+002
4.902221e+002, 1.042756e+002
4.907042e+002, 1.043069e+002
4.911863e+002, 1.043308e+002
4.916685e+002, 1.043502e+002
4.921506e+002, 1.043056e+002
4.926327e+002, 1.041109e+002
4.931148e+002, 1.038414e+002
4.935969e+002, 1.038081e+002
4.940790e+002, 1.040090e+002
4.945612e+002, 1.042064e+002
4.950433e+002, 1.041233e+002
4.955254e+002, 1.039161e+002
4.960075e+002, 1.039135e+002
4.964896e+002, 1.042343e+002
4.969717e+002, 1.045786e+002
4.974539e+002, 1.046059e+002
4.979360e+002, 1.044703e+002
4.984181e+002, 1.044521e+002
4.989002e+002, 1.048776e+002
4.993823e+002, 1.052685e+002
4.998645e+002, 1.053262e+002
5.003466e+002, 1.050767e+002
5.008287e+002, 1.048399e+002
5.013108e+002, 1.046534e+002
5.017929e+002, 1.045522e+002
5.022751e+002, 1.045904e+002
5.027572e+002, 1.050150e+002
5.032393e+002, 1.050924e+002
5.037214e+002, 1.044475e+002
5.042035e+002, 1.036326e+002
5.046856e+002, 1.034145e+002
5.051678e+002, 1.041924e+002
5.056499e+002, 1.047610e+002
5.061320e+002, 1.048336e+002
5.066141e+002, 1.045088e+002
5.070962e+002, 1.042860e+002
5.075783e+002, 1.041541e+002
5.080605e+002, 1.041674e+002
5.085426e+002, 1.044159e+002
5.090247e+002, 1.048715e+002
5.095068e+002, 1.052999e+002
5.099889e+002, 1.057113e+002
5.104710e+002, 1.059904e+002
5.109532e+002, 1.058997e+002
5.114353e+002, 1.055581e+002
5.119174e+002, 1.053212e+002
5.123995e+002, 1.053347e+002
5.128816e+002, 1.054499e+002
5.133637e+002, 1.055912e+002
5.138458e+002, 1.057186e+002
5.143279e+002, 1.056980e+002
5.148101e+002, 1.052675e+002
5.152922e+002, 1.048061e+002
5.157743e+002, 1.045813e+002
5.162564e+002, 1.046301e+002
5.167385e+002, 1.047736e+002
5.172206e+002, 1.049956e+002
5.177028e+002, 1.052604e+002
5.181849e+002, 1.055385e+002
5.186670e+002, 1.059643e+002
5.191491e+002, 1.062256e+002
5.196312e+002, 1.062112e+002
5.201133e+002, 1.060383e+002
5.205955e+002, 1.059529e+002
5.210776e+002, 1.059636e+002
5.215597e+002, 1.060472e+002
5.220418e+002, 1.062232e+002
5.225239e+002, 1.064840e+002
5.230060e+002, 1.066548e+002
5.234882e+002, 1.067147e+002
5.239703e+002, 1.067559e+002
5.244524e+002, 1.068919e+002
5.249345e+002, 1.071006e+002
5.254166e+002, 1.071329e+002
5.258987e+002, 1.069230e+002
5.263809e+002, 1.066745e+002
5.268630e+002, 1.066199e+002
5.273451e+002, 1.067395e+002
5.278272e+002, 1.069752e+002
5.283093e+002, 1.074197e+002
5.287914e+002, 1.078754e+002
5.292736e+002, 1.081695e+002
5.297557e+002, 1.083092e+002
5.302378e+002, 1.083081e+002
5.307199e+002, 1.080212e+002
5.312020e+002, 1.077081e+002
5.316841e+002, 1.075549e+002
5.321663e+002, 1.076046e+002
5.326484e+002, 1.077137e+002
5.331305e+002, 1.078152e+002
5.336126e+002, 1.079730e+002
5.340947e+002, 1.082538e+002
5.345768e+002, 1.089448e+002
5.350590e+002, 1.093735e+002
5.355411e+002, 1.093893e+002
5.360232e+002, 1.091265e+002
5.365053e+002, 1.089421e+002
5.369874e+002, 1.088460e+002
5.374695e+002, 1.087984e+002
5.379517e+002, 1.087684e+002
5.384338e+002, 1.087623e+002
5.389159e+002, 1.089330e+002
5.393980e+002, 1.093119e+002
5.398801e+002, 1.096682e+002
5.403622e+002, 1.097150e+002
5.408444e+002, 1.095512e+002
5.413265e+002, 1.096503e+002
5.418086e+002, 1.101609e+002
5.422907e+002, 1.106194e+002
5.427728e+002, 1.102637e+002
5.432549e+002, 1.094637e+002
5.437371e+002, 1.090262e+002
5.442192e+002, 1.097211e+002
5.447013e+002, 1.105265e+002
5.451834e+002, 1.106704e+002
5.456655e+002, 1.103006e+002
5.461476e+002, 1.100036e+002
5.466298e+002, 1.099365e+002
5.471119e+002, 1.100668e+002
5.475940e+002, 1.104701e+002
5.480761e+002, 1.113044e+002
5.485582e+002, 1.117893e+002
5.490403e+002, 1.114314e+002
5.495225e+002, 1.110028e+002
5.500046e+002, 1.112105e+002
5.504867e+002, 1.126629e+002
5.509688e+002, 1.133678e+002
5.514509e+002, 1.129066e+002
5.519330e+002, 1.117931e+002
5.524152e+002, 1.110984e+002
5.528973e+002, 1.108317e+002
5.533794e+002, 1.108759e+002
5.538615e+002, 1.112960e+002
5.543436e+002, 1.119677e+002
5.548257e+002, 1.124805e+002
5.553079e+002, 1.128318e+002
5.557900e+002, 1.130927e+002
5.562721e+002, 1.133241e+002
5.567542e+002, 1.134948e+002
5.572363e+002, 1.135122e+002
5.577184e+002, 1.133398e+002
5.582006e+002, 1.131969e+002
5.586827e+002, 1.132585e+002
5.591648e+002, 1.134438e+002
5.596469e+002, 1.136516e+002
5.601290e+002, 1.140033e+002
5.606111e+002, 1.142044e+002
5.610933e+002, 1.139914e+002
5.615754e+002, 1.135432e+002
5.620575e+002, 1.133522e+002
5.625396e+002, 1.137168e+002
5.630217e+002, 1.141110e+002
5.635038e+002, 1.144302e+002
5.639860e+002, 1.146774e+002
5.644681e+002, 1.147341e+002
5.649502e+002, 1.144806e+002
5.654323e+002, 1.142583e+002
5.659144e+002, 1.143571e+002
5.663965e+002, 1.148047e+002
5.668787e+002, 1.151327e+002
5.673608e+002, 1.152937e+002
5.678429e+002, 1.153803e+002
5.683250e+002, 1.155254e+002
5.688071e+002, 1.157077e+002
5.692892e+002, 1.158146e+002
5.697714e+002, 1.157333e+002
5.702535e+002, 1.156609e+002
5.707356e+002, 1.158898e+002
5.712177e+002, 1.163496e+002
5.716998e+002, 1.167929e+002
5.721819e+002, 1.171519e+002
5.726641e+002, 1.174109e+002
5.731462e+002, 1.175027e+002
5.736283e+002, 1.174228e+002
5.741104e+002, 1.174328e+002
5.745925e+002, 1.177179e+002
5.750746e+002, 1.180480e+002
5.755568e+002, 1.182671e+002
5.760389e+002, 1.182367e+002
5.765210e+002, 1.183200e+002
5.770031e+002, 1.185331e+002
5.774852e+002, 1.188513e+002
5.779673e+002, 1.192437e+002
5.784495e+002, 1.197171e+002
5.789316e+002, 1.202909e+002
5.794137e+002, 1.210703e+002
5.798958e+002, 1.218739e+002
5.803779e+002, 1.221268e+002
5.808600e+002, 1.218329e+002
5.813422e+002, 1.216028e+002
5.818243e+002, 1.218209e+002
5.823065e+002, 1.223182e+002
5.827886e+002, 1.227759e+002
5.832707e+002, 1.231879e+002
5.837528e+002, 1.235130e+002
5.842349e+002, 1.236009e+002
5.847170e+002, 1.236475e+002
5.851992e+002, 1.238548e+002
5.856813e+002, 1.242691e+002
5.861634e+002, 1.248128e+002
5.866455e+002, 1.255718e+002
5.871276e+002, 1.263993e+002
5.876097e+002, 1.271076e+002
5.880919e+002, 1.275353e+002
5.885740e+002, 1.280058e+002
5.890561e+002, 1.285572e+002
5.895382e+002, 1.291824e+002
5.900203e+002, 1.298478e+002
5.905024e+002, 1.305215e+002
5.909846e+002, 1.313163e+002
5.914667e+002, 1.322454e+002
5.919488e+002, 1.333216e+002
5.924309e+002, 1.346280e+002
5.929130e+002, 1.361701e+002
5.933951e+002, 1.379169e+002
5.938773e+002, 1.398517e+002
5.943594e+002, 1.419603e+002
5.948415e+002, 1.441739e+002
5.953236e+002, 1.464572e+002
5.958057e+002, 1.489036e+002
5.962878e+002, 1.516203e+002
5.967700e+002, 1.545524e+002
5.972521e+002, 1.575599e+002
5.977342e+002, 1.604476e+002
5.982163e+002, 1.636632e+002
5.986984e+002, 1.675510e+002
5.991805e+002, 1.718826e+002
5.996627e+002, 1.763339e+002
6.001448e+002, 1.809501e+002
6.006269e+002, 1.855655e+002
6.011090e+002, 1.899468e+002
6.015911e+002, 1.941762e+002
6.020732e+002, 1.989990e+002
6.025554e+002, 2.044006e+002
6.030375e+002, 2.103613e+002
6.035196e+002, 2.170594e+002
6.040017e+002, 2.245209e+002
6.044838e+002, 2.311945e+002
6.049659e+002, 2.368660e+002
6.054481e+002, 2.424901e+002
6.059302e+002, 2.491345e+002
6.064123e+002, 2.565356e+002
6.068944e+002, 2.639824e+002
6.073765e+002, 2.714619e+002
6.078586e+002, 2.785009e+002
6.083408e+002, 2.844759e+002
6.088229e+002, 2.896174e+002
6.093050e+002, 2.942115e+002
6.097871e+002, 2.989361e+002
6.102692e+002, 3.026606e+002
6.107513e+002, 3.051584e+002
6.112335e+002, 3.062866e+002
6.117156e+002, 3.055595e+002
6.121977e+002, 3.023524e+002
6.126798e+002, 2.977279e+002
6.131619e+002, 2.920520e+002
6.136440e+002, 2.852711e+002
6.141262e+002, 2.773746e+002
6.146083e+002, 2.678426e+002
6.150904e+002, 2.579696e+002
6.155725e+002, 2.484436e+002
6.160546e+002, 2.393049e+002
6.165367e+002, 2.303371e+002
6.170189e+002, 2.215583e+002
6.175010e+002, 2.130548e+002
6.179831e+002, 2.047066e+002
6.184652e+002, 1.967042e+002
6.189473e+002, 1.896487e+002
6.194294e+002, 1.838603e+002
6.199116e+002, 1.787383e+002
6.203937e+002, 1.736265e+002
6.208758e+002, 1.687426e+002
6.213579e+002, 1.644787e+002
6.218400e+002, 1.612814e+002
6.223221e+002, 1.584407e+002
6.228043e+002, 1.557620e+002
6.232864e+002, 1.532199e+002
6.237685e+002, 1.507804e+002
6.242506e+002, 1.482036e+002
6.247327e+002, 1.459848e+002
6.252148e+002, 1.444073e+002
6.256970e+002, 1.435380e+002
6.261791e+002, 1.424844e+002
6.266612e+002, 1.412049e+002
6.271433e+002, 1.398718e+002
6.276254e+002, 1.385098e+002
6.281075e+002, 1.371549e+002
6.285897e+002, 1.363173e+002
6.290718e+002, 1.361219e+002
6.295539e+002, 1.360640e+002
6.300360e+002, 1.356094e+002
6.305181e+002, 1.348708e+002
6.310002e+002, 1.340609e+002
6.314824e+002, 1.332028e+002
6.319645e+002, 1.323664e+002
6.324466e+002, 1.315553e+002
6.329287e+002, 1.308040e+002
6.334108e+002, 1.301911e+002
6.338929e+002, 1.298714e+002
6.343751e+002, 1.295485e+002
6.348572e+002, 1.290563e+002
6.353393e+002, 1.284372e+002
6.358214e+002, 1.280532e+002
6.363035e+002, 1.280489e+002
6.367856e+002, 1.280284e+002
6.372678e+002, 1.277888e+002
6.377499e+002, 1.273288e+002
6.382320e+002, 1.270298e+002
6.387141e+002, 1.268884e+002
6.391962e+002, 1.269008e+002
6.396783e+002, 1.272782e+002
6.401605e+002, 1.278249e+002
6.406426e+002, 1.277698e+002
6.411247e+002, 1.269632e+002
6.416068e+002, 1.260820e+002
6.420889e+002, 1.257578e+002
6.425710e+002, 1.257530e+002
6.430532e+002, 1.257568e+002
6.435353e+002, 1.257519e+002
6.440174e+002, 1.256336e+002
6.444995e+002, 1.251598e+002
6.449816e+002, 1.245840e+002
6.454637e+002, 1.243402e+002
6.459459e+002, 1.248300e+002
6.464280e+002, 1.252560e+002
6.469101e+002, 1.254838e+002
6.473922e+002, 1.255507e+002
6.478743e+002, 1.256132e+002
6.483564e+002, 1.256917e+002
6.488386e+002, 1.256716e+002
6.493207e+002, 1.254186e+002
6.498028e+002, 1.250178e+002
6.502849e+002, 1.250171e+002
6.507670e+002, 1.254051e+002
6.512491e+002, 1.256686e+002
6.517313e+002, 1.251664e+002
6.522134e+002, 1.244048e+002
6.526955e+002, 1.242003e+002
6.531776e+002, 1.246828e+002
6.536597e+002, 1.251113e+002
6.541418e+002, 1.248860e+002
6.546240e+002, 1.245017e+002
6.551061e+002, 1.244326e+002
6.555882e+002, 1.250806e+002
6.560703e+002, 1.254705e+002
6.565524e+002, 1.252103e+002
6.570345e+002, 1.247554e+002
6.575167e+002, 1.246518e+002
6.579988e+002, 1.250427e+002
6.584809e+002, 1.254004e+002
6.589630e+002, 1.257107e+002
6.594451e+002, 1.258791e+002
6.599272e+002, 1.255772e+002
6.604094e+002, 1.248272e+002
6.608915e+002, 1.242313e+002
6.613736e+002, 1.240181e+002
6.618557e+002, 1.241128e+002
6.623378e+002, 1.245702e+002
6.628199e+002, 1.252867e+002
6.633021e+002, 1.257986e+002
6.637842e+002, 1.256310e+002
6.642663e+002, 1.253347e+002
6.647484e+002, 1.252947e+002
6.652305e+002, 1.255372e+002
6.657126e+002, 1.258130e+002
6.661948e+002, 1.262090e+002
6.666769e+002, 1.264942e+002
6.671590e+002, 1.265210e+002
6.676411e+002, 1.261958e+002
6.681232e+002, 1.259635e+002
6.686053e+002, 1.258284e+002
6.690875e+002, 1.257624e+002
6.695696e+002, 1.257421e+002
6.700517e+002, 1.257628e+002
6.705338e+002, 1.258064e+002
6.710159e+002, 1.258595e+002
6.714980e+002, 1.259646e+002
6.719802e+002, 1.262393e+002
6.724623e+002, 1.266032e+002
6.729444e+002, 1.268675e+002
6.734265e+002, 1.269547e+002
6.739086e+002, 1.269719e+002
6.743907e+002, 1.269801e+002
6.748729e+002, 1.269788e+002
6.753550e+002, 1.269641e+002
6.758371e+002, 1.270087e+002
6.763192e+002, 1.269724e+002
6.768013e+002, 1.268659e+002
6.772834e+002, 1.266651e+002
6.777656e+002, 1.261830e+002
6.782477e+002, 1.251770e+002
6.787298e+002, 1.244850e+002
6.792119e+002, 1.245215e+002
6.796940e+002, 1.251482e+002
6.801761e+002, 1.255999e+002
6.806583e+002, 1.258704e+002
6.811404e+002, 1.259915e+002
6.816225e+002, 1.258253e+002
6.821046e+002, 1.255732e+002
6.825867e+002, 1.256529e+002
6.830688e+002, 1.260815e+002
6.835510e+002, 1.264489e+002
6.840331e+002, 1.264019e+002
6.845152e+002, 1.262351e+002
6.849973e+002, 1.261966e+002
6.854794e+002, 1.263577e+002
6.859615e+002, 1.265456e+002
6.864437e+002, 1.268551e+002
6.869258e+002, 1.271034e+002
6.874079e+002, 1.271292e+002
6.878900e+002, 1.268551e+002
6.883721e+002, 1.265667e+002
6.888542e+002, 1.262394e+002
6.893364e+002, 1.259939e+002
6.898185e+002, 1.260913e+002
6.903006e+002, 1.264883e+002
6.907827e+002, 1.268098e+002
6.912648e+002, 1.269467e+002
6.917469e+002, 1.269810e+002
6.922291e+002, 1.270175e+002
6.927112e+002, 1.270309e+002
6.931933e+002, 1.269638e+002
6.936754e+002, 1.265700e+002
6.941575e+002, 1.263044e+002
6.946396e+002, 1.264669e+002
6.951218e+002, 1.269535e+002
6.956039e+002, 1.273829e+002
6.960860e+002, 1.277043e+002
6.965681e+002, 1.279448e+002
6.970502e+002, 1.281077e+002
6.975323e+002, 1.281944e+002
6.980145e+002, 1.282016e+002
6.984966e+002, 1.281147e+002
6.989787e+002, 1.280215e+002
6.994608e+002, 1.279453e+002
6.999429e+002, 1.279047e+002
7.004250e+002, 1.279603e+002
7.009072e+002, 1.281138e+002
7.013893e+002, 1.283793e+002
7.018714e+002, 1.288891e+002
7.023535e+002, 1.294510e+002
7.028356e+002, 1.298391e+002
7.033177e+002, 1.300058e+002
7.037999e+002, 1.301626e+002
7.042820e+002, 1.302824e+002
7.047641e+002, 1.304943e+002
7.052462e+002, 1.309342e+002
7.057283e+002, 1.318341e+002
7.062104e+002, 1.324139e+002
7.066926e+002, 1.324958e+002
7.071747e+002, 1.324719e+002
7.076568e+002, 1.327843e+002
7.081389e+002, 1.334409e+002
7.086210e+002, 1.341617e+002
7.091031e+002, 1.349109e+002
7.095853e+002, 1.357051e+002
7.100674e+002, 1.366815e+002
7.105495e+002, 1.377154e+002
7.110316e+002, 1.385123e+002
7.115137e+002, 1.388497e+002
7.119958e+002, 1.391039e+002
7.124780e+002, 1.398147e+002
7.129601e+002, 1.405806e+002
7.134422e+002, 1.406425e+002
7.139243e+002, 1.391446e+002
7.144064e+002, 1.377041e+002
7.148885e+002, 1.366743e+002
7.153707e+002, 1.359508e+002
7.158528e+002, 1.352157e+002
7.163349e+002, 1.344125e+002
7.168170e+002, 1.338035e+002
7.172991e+002, 1.335156e+002
7.177813e+002, 1.334732e+002
7.182634e+002, 1.334330e+002
7.187455e+002, 1.334047e+002
7.192276e+002, 1.335013e+002
7.197097e+002, 1.338376e+002
7.201918e+002, 1.342987e+002
7.206740e+002, 1.348555e+002
7.211561e+002, 1.354674e+002
7.216382e+002, 1.358842e+002
7.221203e+002, 1.359123e+002
7.226024e+002, 1.357755e+002
7.230845e+002, 1.355818e+002
7.235667e+002, 1.353383e+002
7.240488e+002, 1.350159e+002
7.245309e+002, 1.344840e+002
7.250130e+002, 1.340760e+002
7.254951e+002, 1.340946e+002
7.259772e+002, 1.345677e+002
7.264594e+002, 1.346145e+002
7.269415e+002, 1.341747e+002
7.274236e+002, 1.337401e+002
7.279057e+002, 1.338371e+002
7.283878e+002, 1.342466e+002
7.288699e+002, 1.345766e+002
7.293521e+002, 1.347787e+002
7.298342e+002, 1.348657e+002
7.303163e+002, 1.346878e+002
7.307984e+002, 1.344843e+002
7.312805e+002, 1.345034e+002
7.317626e+002, 1.350574e+002
7.322448e+002, 1.353470e+002
7.327269e+002, 1.352390e+002
7.332090e+002, 1.349155e+002
7.336911e+002, 1.345069e+002
7.341732e+002, 1.339350e+002
7.346553e+002, 1.337243e+002
7.351375e+002, 1.340384e+002
7.356196e+002, 1.344940e+002
7.361017e+002, 1.345141e+002
7.365838e+002, 1.341846e+002
7.370659e+002, 1.337808e+002
7.375480e+002, 1.332946e+002
7.380302e+002, 1.329270e+002
7.385123e+002, 1.329789e+002
7.389944e+002, 1.332482e+002
7.394765e+002, 1.333897e+002
7.399586e+002, 1.331606e+002
7.404407e+002, 1.329502e+002
7.409229e+002, 1.328785e+002
7.414050e+002, 1.328889e+002
7.418871e+002, 1.328438e+002
7.423692e+002, 1.326996e+002
7.428513e+002, 1.326567e+002
7.433334e+002, 1.328190e+002
7.438156e+002, 1.330776e+002
7.442977e+002, 1.331057e+002
7.447798e+002, 1.329315e+002
7.452619e+002, 1.327883e+002
7.457440e+002, 1.328643e+002
7.462261e+002, 1.329769e+002
7.467083e+002, 1.328097e+002
7.471904e+002, 1.324787e+002
7.476725e+002, 1.324093e+002
7.481546e+002, 1.332004e+002
7.486367e+002, 1.338786e+002
7.491188e+002, 1.338781e+002
7.496010e+002, 1.332630e+002
7.500831e+002, 1.330667e+002
7.505652e+002, 1.335059e+002
7.510473e+002, 1.339019e+002
7.515294e+002, 1.339258e+002
7.520115e+002, 1.336417e+002
7.524937e+002, 1.334424e+002
7.529758e+002, 1.333276e+002
7.534579e+002, 1.333766e+002
7.539400e+002, 1.337912e+002
7.544221e+002, 1.343287e+002
7.549042e+002, 1.346645e+002
7.553864e+002, 1.347905e+002
7.558685e+002, 1.348145e+002
7.563506e+002, 1.346852e+002
7.568327e+002, 1.345539e+002
7.573148e+002, 1.345562e+002
7.577969e+002, 1.347560e+002
7.582791e+002, 1.346762e+002
7.587612e+002, 1.340074e+002
7.592433e+002, 1.335426e+002
7.597254e+002, 1.339783e+002
7.602075e+002, 1.353202e+002
7.606896e+002, 1.359252e+002
7.611718e+002, 1.357236e+002
7.616539e+002, 1.354136e+002
7.621360e+002, 1.357077e+002
7.626181e+002, 1.362662e+002
7.631002e+002, 1.365203e+002
7.635823e+002, 1.363751e+002
7.640645e+002, 1.362047e+002
7.645466e+002, 1.362547e+002
7.650287e+002, 1.363328e+002
7.655108e+002, 1.362622e+002
7.659929e+002, 1.358970e+002
7.664750e+002, 1.357039e+002
7.669572e+002, 1.356980e+002
7.674393e+002, 1.358432e+002
7.679214e+002, 1.362092e+002
7.684035e+002, 1.368041e+002
7.688856e+002, 1.370118e+002
7.693677e+002, 1.367415e+002
7.698499e+002, 1.363121e+002
7.703320e+002, 1.359111e+002
7.708141e+002, 1.356221e+002
7.712962e+002, 1.356182e+002
7.717783e+002, 1.359919e+002
7.722604e+002, 1.364490e+002
7.727426e+002, 1.369269e+002
7.732247e+002, 1.373625e+002
7.737068e+002, 1.376956e+002
7.741889e+002, 1.379434e+002
7.746710e+002, 1.380395e+002
7.751531e+002, 1.379108e+002
7.756353e+002, 1.377195e+002
7.761174e+002, 1.375954e+002
7.765995e+002, 1.375412e+002
7.770816e+002, 1.378822e+002
7.775637e+002, 1.387605e+002
7.780458e+002, 1.396892e+002
7.785280e+002, 1.400544e+002
7.790101e+002, 1.400580e+002
7.794922e+002, 1.400517e+002
7.799743e+002, 1.401026e+002
7.804564e+002, 1.402255e+002
7.809385e+002, 1.405343e+002
7.814207e+002, 1.408770e+002
7.819028e+002, 1.410341e+002
7.823849e+002, 1.408357e+002
7.828670e+002, 1.407588e+002
7.833491e+002, 1.409221e+002
7.838312e+002, 1.411173e+002
7.843134e+002, 1.409881e+002
7.847955e+002, 1.405489e+002
7.852776e+002, 1.399942e+002
7.857597e+002, 1.392460e+002
7.862418e+002, 1.387363e+002
7.867239e+002, 1.393817e+002
7.872061e+002, 1.405782e+002
7.876882e+002, 1.412185e+002
7.881703e+002, 1.403102e+002
7.886524e+002, 1.396050e+002
7.891345e+002, 1.400051e+002
7.896166e+002, 1.409119e+002
7.900988e+002, 1.412680e+002
7.905809e+002, 1.406660e+002
7.910630e+002, 1.403952e+002
7.915451e+002, 1.407189e+002
7.920272e+002, 1.413412e+002
7.925093e+002, 1.416189e+002
7.929915e+002, 1.416265e+002
7.934736e+002, 1.419671e+002
7.939557e+002, 1.429896e+002
7.944378e+002, 1.440648e+002
7.949199e+002, 1.445266e+002
7.954020e+002, 1.445432e+002
7.958842e+002, 1.444077e+002
7.963663e+002, 1.440650e+002
7.968484e+002, 1.437603e+002
7.973305e+002, 1.435628e+002
7.978126e+002, 1.434355e+002
7.982947e+002, 1.433301e+002
7.987769e+002, 1.432560e+002
7.992590e+002, 1.431622e+002
7.997411e+002, 1.430318e+002
8.002232e+002, 1.428898e+002
8.007053e+002, 1.428275e+002
8.011874e+002, 1.428091e+002
8.016696e+002, 1.426439e+002
8.021517e+002, 1.421015e+002
8.026338e+002, 1.416772e+002
8.031159e+002, 1.419783e+002
8.035980e+002, 1.426581e+002
8.040801e+002, 1.431190e+002
8.045623e+002, 1.429458e+002
8.050444e+002, 1.428525e+002
8.055265e+002, 1.429726e+002
8.060086e+002, 1.432271e+002
8.064907e+002, 1.434801e+002
8.069728e+002, 1.437306e+002
8.074550e+002, 1.439523e+002
8.079371e+002, 1.440832e+002
8.084192e+002, 1.442885e+002
8.089013e+002, 1.448606e+002
8.093834e+002, 1.457274e+002
8.098655e+002, 1.467007e+002
8.103477e+002, 1.477083e+002
8.108298e+002, 1.488078e+002
8.113119e+002, 1.501578e+002
8.117940e+002, 1.515825e+002
8.122761e+002, 1.527668e+002
8.127582e+002, 1.533863e+002
8.132404e+002, 1.541856e+002
8.137225e+002, 1.552127e+002
8.142046e+002, 1.564814e+002
8.146867e+002, 1.580607e+002
8.151688e+002, 1.599236e+002
8.156509e+002, 1.619648e+002
8.161331e+002, 1.642408e+002
8.166152e+002, 1.664788e+002
8.170973e+002, 1.679336e+002
8.175794e+002, 1.691653e+002
8.180615e+002, 1.712887e+002
8.185436e+002, 1.756699e+002
8.190258e+002, 1.796343e+002
8.195079e+002, 1.820531e+002
8.199900e+002, 1.835534e+002
8.204721e+002, 1.851113e+002
8.209542e+002, 1.867707e+002
8.214363e+002, 1.884261e+002
8.219185e+002, 1.903058e+002
8.224006e+002, 1.917459e+002
8.228827e+002, 1.916762e+002
8.233648e+002, 1.902425e+002
8.238469e+002, 1.879855e+002
8.243290e+002, 1.847938e+002
8.248112e+002, 1.814632e+002
8.252933e+002, 1.787056e+002
8.257754e+002, 1.761718e+002
8.262575e+002, 1.734560e+002
8.267396e+002, 1.701559e+002
8.272217e+002, 1.670255e+002
8.277039e+002, 1.638963e+002
8.281860e+002, 1.611194e+002
8.286681e+002, 1.591573e+002
8.291502e+002, 1.581153e+002
8.296323e+002, 1.571001e+002
8.301144e+002, 1.559881e+002
8.305966e+002, 1.549281e+002
8.310787e+002, 1.541682e+002
8.315608e+002, 1.535531e+002
8.320429e+002, 1.526786e+002
8.325250e+002, 1.512580e+002
8.330071e+002, 1.501951e+002
8.334893e+002, 1.502637e+002
8.339714e+002, 1.507404e+002
8.344535e+002, 1.508550e+002
8.349356e+002, 1.503728e+002
8.354177e+002, 1.499516e+002
8.358998e+002, 1.495837e+002
8.363820e+002, 1.493077e+002
8.368641e+002, 1.491755e+002
8.373462e+002, 1.491805e+002
8.378283e+002, 1.492720e+002
8.383104e+002, 1.494561e+002
8.387925e+002, 1.496450e+002
8.392747e+002, 1.498907e+002
8.397568e+002, 1.500339e+002
8.402389e+002, 1.498477e+002
8.407210e+002, 1.491701e+002
8.412031e+002, 1.486036e+002
8.416852e+002, 1.481684e+002
8.421674e+002, 1.479717e+002
8.426495e+002, 1.481611e+002
8.431316e+002, 1.488246e+002
8.436137e+002, 1.492310e+002
8.440958e+002, 1.493583e+002
8.445779e+002, 1.493613e+002
8.450601e+002, 1.493894e+002
8.455422e+002, 1.493897e+002
8.460243e+002, 1.492418e+002
8.465064e+002, 1.489368e+002
8.469885e+002, 1.486276e+002
8.474706e+002, 1.484182e+002
8.479528e+002, 1.482200e+002
8.484349e+002, 1.479428e+002
8.489170e+002, 1.475575e+002
8.493991e+002, 1.473528e+002
8.498812e+002, 1.473093e+002
8.503633e+002, 1.474951e+002
8.508455e+002, 1.481324e+002
8.513276e+002, 1.490706e+002
8.518097e+002, 1.493900e+002
8.522918e+002, 1.491313e+002
8.527739e+002, 1.488337e+002
8.532560e+002, 1.489244e+002
8.537382e+002, 1.490685e+002
8.542203e+002, 1.488186e+002
8.547024e+002, 1.482288e+002
8.551845e+002, 1.481744e+002
8.556666e+002, 1.495030e+002
8.561487e+002, 1.505571e+002
8.566309e+002, 1.507198e+002
8.571130e+002, 1.501688e+002
8.575951e+002, 1.499322e+002
8.580772e+002, 1.500218e+002
8.585593e+002, 1.500440e+002
8.590414e+002, 1.496993e+002
8.595236e+002, 1.492581e+002
8.600057e+002, 1.491126e+002
8.604878e+002, 1.492059e+002
8.609699e+002, 1.493521e+002
8.614520e+002, 1.495072e+002
8.619341e+002, 1.496705e+002
8.624163e+002, 1.498366e+002
8.628984e+002, 1.500118e+002
8.633805e+002, 1.502564e+002
8.638626e+002, 1.506570e+002
8.643447e+002, 1.507266e+002
8.648268e+002, 1.501744e+002
8.653090e+002, 1.494897e+002
8.657911e+002, 1.497553e+002
8.662732e+002, 1.506722e+002
8.667553e+002, 1.513569e+002
8.672374e+002, 1.513712e+002
8.677195e+002, 1.512468e+002
8.682017e+002, 1.512459e+002
8.686838e+002, 1.513126e+002
8.691659e+002, 1.513671e+002
8.696480e+002, 1.514768e+002
8.701301e+002, 1.514029e+002
8.706122e+002, 1.510145e+002
8.710944e+002, 1.506148e+002
8.715765e+002, 1.507596e+002
8.720586e+002, 1.513253e+002
8.725407e+002, 1.515563e+002
8.730228e+002, 1.512625e+002
8.735049e+002, 1.508802e+002
8.739871e+002, 1.507160e+002
8.744692e+002, 1.507102e+002
8.749513e+002, 1.508226e+002
8.754334e+002, 1.511725e+002
8.759155e+002, 1.513184e+002
8.763976e+002, 1.511673e+002
8.768798e+002, 1.508878e+002
8.773619e+002, 1.505117e+002
8.778440e+002, 1.500258e+002
8.783261e+002, 1.500031e+002
8.788082e+002, 1.504894e+002
8.792903e+002, 1.511070e+002
8.797725e+002, 1.516346e+002
8.802546e+002, 1.520526e+002
8.807367e+002, 1.522978e+002
8.812188e+002, 1.523627e+002
8.817009e+002, 1.524499e+002
8.821830e+002, 1.528314e+002
8.826652e+002, 1.530373e+002
8.831473e+002, 1.526909e+002
8.836294e+002, 1.518312e+002
8.841115e+002, 1.518122e+002
8.845936e+002, 1.527498e+002
8.850757e+002, 1.537146e+002
8.855579e+002, 1.541844e+002
8.860400e+002, 1.543273e+002
8.865221e+002, 1.543292e+002
8.870042e+002, 1.542483e+002
8.874863e+002, 1.543307e+002
8.879684e+002, 1.548960e+002
8.884506e+002, 1.554392e+002
8.889327e+002, 1.556517e+002
8.894148e+002, 1.556653e+002
8.898969e+002, 1.559536e+002
8.903790e+002, 1.566213e+002
8.908611e+002, 1.571911e+002
8.913433e+002, 1.575371e+002
8.918254e+002, 1.577270e+002
8.923075e+002, 1.577361e+002
8.927896e+002, 1.576943e+002
8.932717e+002, 1.580169e+002
8.937538e+002, 1.591826e+002
8.942360e+002, 1.602357e+002
8.947181e+002, 1.604039e+002
8.952002e+002, 1.602174e+002
8.956823e+002, 1.604468e+002
8.961644e+002, 1.611932e+002
8.966465e+002, 1.622199e+002
8.971287e+002, 1.635929e+002
8.976108e+002, 1.650671e+002
8.980929e+002, 1.662447e+002
8.985750e+002, 1.672371e+002
8.990571e+002, 1.685113e+002
8.995392e+002, 1.701836e+002
9.000214e+002, 1.718229e+002
9.005035e+002, 1.731104e+002
9.009856e+002, 1.742349e+002
9.014677e+002, 1.753610e+002
9.019498e+002, 1.764641e+002
9.024319e+002, 1.776486e+002
9.029141e+002, 1.788213e+002
9.033962e+002, 1.802515e+002
9.038783e+002, 1.822421e+002
9.043604e+002, 1.846984e+002
9.048425e+002, 1.867908e+002
9.053246e+002, 1.885876e+002
9.058068e+002, 1.907949e+002
9.062889e+002, 1.943381e+002
9.067710e+002, 1.981375e+002
9.072531e+002, 2.014487e+002
9.077352e+002, 2.042512e+002
9.082173e+002, 2.068080e+002
9.086995e+002, 2.090499e+002
9.091816e+002, 2.112095e+002
9.096637e+002, 2.131167e+002
9.101458e+002, 2.150801e+002
9.106279e+002, 2.179580e+002
9.111101e+002, 2.217424e+002
9.115922e+002, 2.262764e+002
9.120743e+002, 2.311789e+002
9.125565e+002, 2.373819e+002
9.130386e+002, 2.453939e+002
9.135207e+002, 2.554119e+002
9.140028e+002, 2.679005e+002
9.144849e+002, 2.828709e+002
9.149670e+002, 3.006780e+002
9.154492e+002, 3.213821e+002
9.159313e+002, 3.447377e+002
9.164134e+002, 3.710619e+002
9.168955e+002, 4.003068e+002
9.173776e+002, 4.291691e+002
9.178597e+002, 4.572507e+002
9.183419e+002, 4.859366e+002
9.188240e+002, 5.150828e+002
9.193061e+002, 5.463423e+002
9.197882e+002, 5.807350e+002
9.202703e+002, 6.176606e+002
9.207524e+002, 6.627328e+002
9.212346e+002, 7.167326e+002
9.217167e+002, 7.782520e+002
9.221988e+002, 8.476410e+002
9.226809e+002, 9.245674e+002
9.231630e+002, 1.003186e+003
9.236451e+002, 1.083820e+003
9.241273e+002, 1.165824e+003
9.246094e+002, 1.248966e+003
9.250915e+002, 1.333159e+003
9.255736e+002, 1.425672e+003
9.260557e+002, 1.520600e+003
9.265378e+002, 1.595268e+003
9.270200e+002, 1.663640e+003
9.275021e+002, 1.683212e+003
9.279842e+002, 1.640434e+003
9.284663e+002, 1.545756e+003
9.289484e+002, 1.415564e+003
9.294305e+002, 1.251584e+003
9.299127e+002, 1.090350e+003
9.303948e+002, 9.405268e+002
9.308769e+002, 8.063587e+002
9.313590e+002, 6.958770e+002
9.318411e+002, 6.045380e+002
9.323232e+002, 5.277405e+002
9.328054e+002, 4.674998e+002
9.332875e+002, 4.175853e+002
9.337696e+002, 3.790812e+002
9.342517e+002, 3.482879e+002
9.347338e+002, 3.232014e+002
9.352159e+002, 3.035207e+002
9.356981e+002, 2.860699e+002
9.361802e+002, 2.706647e+002
9.366623e+002, 2.574077e+002
9.371444e+002, 2.469937e+002
9.376265e+002, 2.383416e+002
9.381086e+002, 2.306939e+002
9.385908e+002, 2.239051e+002
9.390729e+002, 2.178867e+002
9.395550e+002, 2.129020e+002
9.400371e+002, 2.083073e+002
9.405192e+002, 2.039021e+002
9.410013e+002, 1.997365e+002
9.414835e+002, 1.960999e+002
9.419656e+002, 1.929431e+002
9.424477e+002, 1.900679e+002
9.429298e+002, 1.873792e+002
9.434119e+002, 1.849236e+002
9.438940e+002, 1.828646e+002
9.443762e+002, 1.810542e+002
9.448583e+002, 1.791826e+002
9.453404e+002, 1.768133e+002
9.458225e+002, 1.750054e+002
9.463046e+002, 1.741021e+002
9.467867e+002, 1.734796e+002
9.472689e+002, 1.721280e+002
9.477510e+002, 1.702091e+002
9.482331e+002, 1.687487e+002
9.487152e+002, 1.679364e+002
9.491973e+002, 1.673355e+002
9.496794e+002, 1.667813e+002
9.501616e+002, 1.661440e+002
9.506437e+002, 1.652333e+002
9.511258e+002, 1.639176e+002
9.516079e+002, 1.629166e+002
9.520900e+002, 1.622608e+002
9.525721e+002, 1.618825e+002
9.530543e+002, 1.619346e+002
9.535364e+002, 1.622211e+002
9.540185e+002, 1.617895e+002
9.545006e+002, 1.607536e+002
9.549827e+002, 1.597854e+002
9.554648e+002, 1.592315e+002
9.559470e+002, 1.589000e+002
9.564291e+002, 1.588330e+002
9.569112e+002, 1.588976e+002
9.573933e+002, 1.586871e+002
9.578754e+002, 1.580359e+002
9.583575e+002, 1.575160e+002
9.588397e+002, 1.572556e+002
9.593218e+002, 1.571095e+002
9.598039e+002, 1.568368e+002
9.602860e+002, 1.564964e+002
9.607681e+002, 1.562700e+002
9.612502e+002, 1.562309e+002
9.617324e+002, 1.561654e+002
9.622145e+002, 1.558399e+002
9.626966e+002, 1.555210e+002
9.631787e+002, 1.555014e+002
9.636608e+002, 1.559039e+002
9.641429e+002, 1.558241e+002
9.646251e+002, 1.551583e+002
9.651072e+002, 1.544978e+002
9.655893e+002, 1.542716e+002
9.660714e+002, 1.543338e+002
9.665535e+002, 1.545402e+002
9.670356e+002, 1.548108e+002
9.675178e+002, 1.547858e+002
9.679999e+002, 1.539460e+002
9.684820e+002, 1.531700e+002
9.689641e+002, 1.527636e+002
9.694462e+002, 1.526531e+002
9.699283e+002, 1.527222e+002
9.704105e+002, 1.529942e+002
9.708926e+002, 1.531925e+002
9.713747e+002, 1.532639e+002
9.718568e+002, 1.532140e+002
9.723389e+002, 1.529368e+002
9.728210e+002, 1.525856e+002
9.733032e+002, 1.523950e+002
9.737853e+002, 1.524536e+002
9.742674e+002, 1.525793e+002
9.747495e+002, 1.527510e+002
9.752316e+002, 1.529638e+002
9.757137e+002, 1.532646e+002
9.761959e+002, 1.536541e+002
9.766780e+002, 1.537730e+002
9.771601e+002, 1.536209e+002
9.776422e+002, 1.533859e+002
9.781243e+002, 1.531181e+002
9.786064e+002, 1.528834e+002
9.790886e+002, 1.527852e+002
9.795707e+002, 1.527851e+002
9.800528e+002, 1.526946e+002
9.805349e+002, 1.524414e+002
9.810170e+002, 1.521727e+002
9.814991e+002, 1.519028e+002
9.819813e+002, 1.516505e+002
9.824634e+002, 1.514222e+002
9.829455e+002, 1.512393e+002
9.834276e+002, 1.512260e+002
9.839097e+002, 1.514877e+002
9.843918e+002, 1.516676e+002
9.848740e+002, 1.513802e+002
9.853561e+002, 1.509823e+002
9.858382e+002, 1.508361e+002
9.863203e+002, 1.510091e+002
9.868024e+002, 1.512193e+002
9.872845e+002, 1.515022e+002
9.877667e+002, 1.517007e+002
9.882488e+002, 1.516057e+002
9.887309e+002, 1.513784e+002
9.892130e+002, 1.514516e+002
9.896951e+002, 1.517577e+002
9.901772e+002, 1.519421e+002
9.906594e+002, 1.515935e+002
9.911415e+002, 1.513650e+002
9.916236e+002, 1.516701e+002
9.921057e+002, 1.522066e+002
9.925878e+002, 1.523094e+002
9.930699e+002, 1.519308e+002
9.935521e+002, 1.516045e+002
9.940342e+002, 1.514140e+002
9.945163e+002, 1.513794e+002
9.949984e+002, 1.516948e+002
9.954805e+002, 1.521030e+002
9.959626e+002, 1.522311e+002
9.964448e+002, 1.519354e+002
9.969269e+002, 1.516696e+002
9.974090e+002, 1.514614e+002
9.978911e+002, 1.513602e+002
9.983732e+002, 1.514326e+002
9.988553e+002, 1.516494e+002
9.993375e+002, 1.518333e+002
9.998196e+002, 1.519734e+002
1.000302e+003, 1.519667e+002
1.000784e+003, 1.515291e+002
1.001266e+003, 1.511423e+002
1.001748e+003, 1.512992e+002
1.002230e+003, 1.517505e+002
1.002712e+003, 1.517857e+002
1.003194e+003, 1.510403e+002
1.003677e+003, 1.507692e+002
1.004159e+003, 1.512597e+002
1.004641e+003, 1.519430e+002
1.005123e+003, 1.519975e+002
1.005605e+003, 1.516695e+002
1.006087e+003, 1.515610e+002
1.006569e+003, 1.517862e+002
1.007051e+003, 1.519980e+002
1.007533e+003, 1.520530e+002
1.008016e+003, 1.520210e+002
1.008498e+003, 1.519364e+002
1.008980e+003, 1.518023e+002
1.009462e+003, 1.516579e+002
1.009944e+003, 1.514995e+002
1.010426e+003, 1.513690e+002
1.010908e+003, 1.513103e+002
1.011390e+003, 1.512666e+002
1.011872e+003, 1.511320e+002
1.012355e+003, 1.509697e+002
1.012837e+003, 1.509050e+002
1.013319e+003, 1.509214e+002
1.013801e+003, 1.511458e+002
1.014283e+003, 1.517013e+002
1.014765e+003, 1.522986e+002
1.015247e+003, 1.527301e+002
1.015729e+003, 1.529534e+002
1.016212e+003, 1.525743e+002
1.016694e+003, 1.515676e+002
1.017176e+003, 1.505991e+002
1.017658e+003, 1.500804e+002
1.018140e+003, 1.498055e+002
1.018622e+003, 1.495790e+002
1.019104e+003, 1.494385e+002
1.019586e+003, 1.498639e+002
1.020068e+003, 1.511212e+002
1.020551e+003, 1.517671e+002
1.021033e+003, 1.511344e+002
1.021515e+003, 1.500422e+002
1.021997e+003, 1.497927e+002
1.022479e+003, 1.500872e+002
1.022961e+003, 1.503637e+002
1.023443e+003, 1.504283e+002
1.023925e+003, 1.505383e+002
1.024407e+003, 1.508745e+002
1.024890e+003, 1.511590e+002
1.025372e+003, 1.511400e+002
1.025854e+003, 1.508184e+002
1.026336e+003, 1.506233e+002
1.026818e+003, 1.505580e+002
1.027300e+003, 1.507079e+002
1.027782e+003, 1.514889e+002
1.028264e+003, 1.521934e+002
1.028747e+003, 1.520876e+002
1.029229e+003, 1.513968e+002
1.029711e+003, 1.510630e+002
1.030193e+003, 1.512587e+002
1.030675e+003, 1.515178e+002
1.031157e+003, 1.518025e+002
1.031639e+003, 1.520321e+002
1.032121e+003, 1.520718e+002
1.032604e+003, 1.519725e+002
1.033086e+003, 1.517861e+002
1.033568e+003, 1.514760e+002
1.034050e+003, 1.514231e+002
1.034532e+003, 1.521923e+002
1.035014e+003, 1.528745e+002
1.035496e+003, 1.529324e+002
1.035978e+003, 1.524288e+002
1.036460e+003, 1.519701e+002
1.036943e+003, 1.515668e+002
1.037425e+003, 1.514742e+002
1.037907e+003, 1.520729e+002
1.038389e+003, 1.527163e+002
1.038871e+003, 1.526591e+002
1.039353e+003, 1.522414e+002
1.039835e+003, 1.520654e+002
1.040317e+003, 1.525518e+002
1.040799e+003, 1.526338e+002
1.041282e+003, 1.521117e+002
1.041764e+003, 1.515867e+002
1.042246e+003, 1.517710e+002
1.042728e+003, 1.523909e+002
1.043210e+003, 1.527608e+002
1.043692e+003, 1.528475e+002
1.044174e+003, 1.527583e+002
1.044656e+003, 1.522475e+002
1.045139e+003, 1.519132e+002
1.045621e+003, 1.521747e+002
1.046103e+003, 1.527407e+002
1.046585e+003, 1.527638e+002
1.047067e+003, 1.522341e+002
1.047549e+003, 1.517409e+002
1.048031e+003, 1.514323e+002
1.048513e+003, 1.512257e+002
1.048995e+003, 1.510003e+002
1.049478e+003, 1.508602e+002
1.049960e+003, 1.509467e+002
1.050442e+003, 1.513578e+002
1.050924e+003, 1.517326e+002
1.051406e+003, 1.520941e+002
1.051888e+003, 1.523565e+002
1.052370e+003, 1.524218e+002
1.052852e+003, 1.523809e+002
1.053334e+003, 1.525226e+002
1.053817e+003, 1.527729e+002
1.054299e+003, 1.528902e+002
1.054781e+003, 1.525707e+002
1.055263e+003, 1.523393e+002
1.055745e+003, 1.524256e+002
1.056227e+003, 1.526163e+002
1.056709e+003, 1.526549e+002
1.057191e+003, 1.525372e+002
1.057674e+003, 1.525466e+002
1.058156e+003, 1.527095e+002
1.058638e+003, 1.528977e+002
1.059120e+003, 1.529799e+002
1.059602e+003, 1.530685e+002
1.060084e+003, 1.533728e+002
1.060566e+003, 1.538360e+002
1.061048e+003, 1.538428e+002
1.061531e+003, 1.531437e+002
1.062013e+003, 1.526942e+002
1.062495e+003, 1.527729e+002
1.062977e+003, 1.531544e+002
1.063459e+003, 1.536461e+002
1.063941e+003, 1.541225e+002
1.064423e+003, 1.542851e+002
1.064905e+003, 1.539284e+002
1.065387e+003, 1.537857e+002
1.065870e+003, 1.542187e+002
1.066352e+003, 1.547928e+002
1.066834e+003, 1.553562e+002
1.067316e+003, 1.558809e+002
1.067798e+003, 1.561349e+002
1.068280e+003, 1.561481e+002
1.068762e+003, 1.561901e+002
1.069244e+003, 1.563710e+002
1.069726e+003, 1.566599e+002
1.070209e+003, 1.572159e+002
1.070691e+003, 1.577896e+002
1.071173e+003, 1.579358e+002
1.071655e+003, 1.574632e+002
1.072137e+003, 1.573282e+002
1.072619e+003, 1.576484e+002
1.073101e+003, 1.579173e+002
1.073583e+003, 1.574803e+002
1.074066e+003, 1.568293e+002
1.074548e+003, 1.565221e+002
1.075030e+003, 1.565995e+002
1.075512e+003, 1.570474e+002
1.075994e+003, 1.580152e+002
1.076476e+003, 1.591335e+002
1.076958e+003, 1.603319e+002
1.077440e+003, 1.616295e+002
1.077922e+003, 1.631732e+002
1.078405e+003, 1.648472e+002
1.078887e+003, 1.661623e+002
1.079369e+003, 1.669239e+002
1.079851e+003, 1.680290e+002
1.080333e+003, 1.703357e+002
1.080815e+003, 1.727858e+002
1.081297e+003, 1.743172e+002
1.081779e+003, 1.751818e+002
1.082262e+003, 1.782891e+002
1.082744e+003, 1.836457e+002
1.083226e+003, 1.893938e+002
1.083708e+003, 1.947590e+002
1.084190e+003, 2.001186e+002
1.084672e+003, 2.051767e+002
1.085154e+003, 2.107028e+002
1.085636e+003, 2.181338e+002
1.086119e+003, 2.297701e+002
1.086601e+003, 2.385623e+002
1.087083e+003, 2.451962e+002
1.087565e+003, 2.465422e+002
1.088047e+003, 2.377106e+002
1.088529e+003, 2.231364e+002
1.089011e+003, 2.089476e+002
1.089493e+003, 1.957816e+002
1.089975e+003, 1.850600e+002
1.090458e+003, 1.785585e+002
1.090940e+003, 1.732240e+002
1.091422e+003, 1.686444e+002
1.091904e+003, 1.647493e+002
1.092386e+003, 1.615624e+002
1.092868e+003, 1.590329e+002
1.093350e+003, 1.570451e+002
1.093832e+003, 1.555871e+002
1.094314e+003, 1.545209e+002
1.094797e+003, 1.538881e+002
1.095279e+003, 1.535070e+002
1.095761e+003, 1.533275e+002
1.096243e+003, 1.533026e+002
1.096725e+003, 1.532905e+002
1.097207e+003, 1.532918e+002
1.097689e+003, 1.532099e+002
1.098171e+003, 1.529789e+002
1.098654e+003, 1.527562e+002
1.099136e+003, 1.526414e+002
1.099618e+003, 1.526520e+002
1.100100e+003, 1.528692e+002
1.100582e+003, 1.534062e+002
1.101064e+003, 1.535644e+002
1.101546e+003, 1.532455e+002
1.102028e+003, 1.529072e+002
1.102510e+003, 1.529458e+002
1.102993e+003, 1.529875e+002
1.103475e+003, 1.519957e+002
1.103957e+003, 1.505212e+002
1.104439e+003, 1.498195e+002
1.104921e+003, 1.511802e+002
1.105403e+003, 1.520840e+002
1.105885e+003, 1.521417e+002
1.106367e+003, 1.519637e+002
1.106849e+003, 1.522191e+002
1.107332e+003, 1.527277e+002
1.107814e+003, 1.526804e+002
1.108296e+003, 1.521167e+002
1.108778e+003, 1.515650e+002
1.109260e+003, 1.512983e+002
1.109742e+003, 1.511097e+002
1.110224e+003, 1.508582e+002
1.110706e+003, 1.506641e+002
1.111189e+003, 1.508050e+002
1.111671e+003, 1.512673e+002
1.112153e+003, 1.515204e+002
1.112635e+003, 1.514812e+002
1.113117e+003, 1.514052e+002
1.113599e+003, 1.515326e+002
1.114081e+003, 1.516849e+002
1.114563e+003, 1.517141e+002
1.115046e+003, 1.516255e+002
1.115528e+003, 1.514907e+002
1.116010e+003, 1.512718e+002
1.116492e+003, 1.512321e+002
1.116974e+003, 1.514817e+002
1.117456e+003, 1.518396e+002
1.117938e+003, 1.521796e+002
1.118420e+003, 1.524342e+002
1.118902e+003, 1.524489e+002
1.119385e+003, 1.520512e+002
1.119867e+003, 1.520856e+002
1.120349e+003, 1.527316e+002
1.120831e+003, 1.533856e+002
1.121313e+003, 1.537646e+002
1.121795e+003, 1.539174e+002
1.122277e+003, 1.538915e+002
1.122759e+003, 1.537412e+002
1.123241e+003, 1.535984e+002
1.123724e+003, 1.535999e+002
1.124206e+003, 1.534605e+002
1.124688e+003, 1.530723e+002
1.125170e+003, 1.526573e+002
1.125652e+003, 1.524116e+002
1.126134e+003, 1.523055e+002
1.126616e+003, 1.521657e+002
1.127098e+003, 1.520074e+002
1.127581e+003, 1.519190e+002
1.128063e+003, 1.520613e+002
1.128545e+003, 1.521491e+002
1.129027e+003, 1.518989e+002
1.129509e+003, 1.516402e+002
1.129991e+003, 1.519442e+002
1.130473e+003, 1.527820e+002
1.130955e+003, 1.530442e+002
1.131438e+003, 1.526197e+002
1.131920e+003, 1.522131e+002
1.132402e+003, 1.523423e+002
1.132884e+003, 1.526751e+002
1.133366e+003, 1.530650e+002
1.133848e+003, 1.534619e+002
1.134330e+003, 1.537802e+002
1.134812e+003, 1.540422e+002
1.135294e+003, 1.539448e+002
1.135776e+003, 1.533260e+002
1.136259e+003, 1.528146e+002
1.136741e+003, 1.532422e+002
1.137223e+003, 1.539894e+002
1.137705e+003, 1.545211e+002
1.138187e+003, 1.547530e+002
1.138669e+003, 1.544292e+002
1.139151e+003, 1.532859e+002
1.139633e+003, 1.525291e+002
1.140116e+003, 1.526275e+002
1.140598e+003, 1.531992e+002
1.141080e+003, 1.540448e+002
1.141562e+003, 1.548363e+002
1.142044e+003, 1.550024e+002
1.142526e+003, 1.541787e+002
1.143008e+003, 1.535513e+002
1.143490e+003, 1.532060e+002
1.143973e+003, 1.530815e+002
1.144455e+003, 1.532157e+002
1.144937e+003, 1.534970e+002
1.145419e+003, 1.536534e+002
1.145901e+003, 1.537379e+002
1.146383e+003, 1.538989e+002
1.146865e+003, 1.544049e+002
1.147347e+003, 1.546124e+002
1.147829e+003, 1.543307e+002
1.148312e+003, 1.539015e+002
1.148794e+003, 1.535061e+002
1.149276e+003, 1.531861e+002
1.149758e+003, 1.532478e+002
1.150240e+003, 1.536239e+002
1.150722e+003, 1.539488e+002
1.151204e+003, 1.539843e+002
1.151686e+003, 1.540049e+002
1.152168e+003, 1.541031e+002
1.152651e+003, 1.542286e+002
1.153133e+003, 1.543245e+002
1.153615e+003, 1.543933e+002
1.154097e+003, 1.544687e+002
1.154579e+003, 1.545506e+002
1.155061e+003, 1.546142e+002
1.155543e+003, 1.545405e+002
1.156025e+003, 1.545479e+002
1.156508e+003, 1.548732e+002
1.156990e+003, 1.553206e+002
1.157472e+003, 1.555143e+002
1.157954e+003, 1.554521e+002
1.158436e+003, 1.553456e+002
1.158918e+003, 1.552174e+002
1.159400e+003, 1.551276e+002
1.159882e+003, 1.551884e+002
1.160365e+003, 1.552524e+002
1.160847e+003, 1.551303e+002
1.161329e+003, 1.548963e+002
1.161811e+003, 1.549608e+002
1.162293e+003, 1.553496e+002
1.162775e+003, 1.557724e+002
1.163257e+003, 1.562018e+002
1.163739e+003, 1.564758e+002
1.164221e+003, 1.562775e+002
1.164703e+003, 1.559521e+002
1.165186e+003, 1.558662e+002
1.165668e+003, 1.560652e+002
1.166150e+003, 1.562272e+002
1.166632e+003, 1.563714e+002
1.167114e+003, 1.563687e+002
1.167596e+003, 1.561542e+002
1.168078e+003, 1.558111e+002
1.168560e+003, 1.552731e+002
1.169043e+003, 1.547589e+002
1.169525e+003, 1.545923e+002
1.170007e+003, 1.549146e+002
1.170489e+003, 1.553004e+002
1.170971e+003, 1.558027e+002
1.171453e+003, 1.561598e+002
1.171935e+003, 1.561362e+002
1.172417e+003, 1.560050e+002
1.172900e+003, 1.561133e+002
1.173382e+003, 1.564496e+002
1.173864e+003, 1.570251e+002
1.174346e+003, 1.582781e+002
1.174828e+003, 1.587977e+002
1.175310e+003, 1.583621e+002
1.175792e+003, 1.577611e+002
1.176274e+003, 1.575044e+002
1.176756e+003, 1.574859e+002
1.177239e+003, 1.575370e+002
1.177721e+003, 1.576440e+002
1.178203e+003, 1.577729e+002
1.178685e+003, 1.579022e+002
1.179167e+003, 1.581143e+002
1.179649e+003, 1.585316e+002
1.180131e+003, 1.587957e+002
1.180613e+003, 1.583979e+002
1.181095e+003, 1.576767e+002
1.181578e+003, 1.574522e+002
1.182060e+003, 1.576334e+002
1.182542e+003, 1.577294e+002
1.183024e+003, 1.575479e+002
1.183506e+003, 1.572372e+002
1.183988e+003, 1.566739e+002
1.184470e+003, 1.562547e+002
1.184952e+003, 1.566484e+002
1.185435e+003, 1.574982e+002
1.185917e+003, 1.578605e+002
1.186399e+003, 1.577206e+002
1.186881e+003, 1.575781e+002
1.187363e+003, 1.576579e+002
1.187845e+003, 1.577327e+002
1.188327e+003, 1.577859e+002
1.188809e+003, 1.577551e+002
1.189292e+003, 1.574942e+002
1.189774e+003, 1.570739e+002
1.190256e+003, 1.566384e+002
1.190738e+003, 1.562090e+002
1.191220e+003, 1.560550e+002
1.191702e+003, 1.565876e+002
1.192184e+003, 1.570493e+002
1.192666e+003, 1.571982e+002
1.193148e+003, 1.571562e+002
1.193630e+003, 1.571064e+002
1.194113e+003, 1.570761e+002
1.194595e+003, 1.572145e+002
1.195077e+003, 1.575750e+002
1.195559e+003, 1.577510e+002
1.196041e+003, 1.572593e+002
1.196523e+003, 1.569023e+002
1.197005e+003, 1.570364e+002
1.197487e+003, 1.574681e+002
1.197970e+003, 1.576841e+002
1.198452e+003, 1.577387e+002
1.198934e+003, 1.578525e+002
1.199416e+003, 1.580934e+002
1.199898e+003, 1.582879e+002
1.200380e+003, 1.582219e+002
1.200862e+003, 1.582467e+002
1.201344e+003, 1.586137e+002
1.201827e+003, 1.591518e+002
1.202309e+003, 1.591673e+002
1.202791e+003, 1.587849e+002
1.203273e+003, 1.584863e+002
1.203755e+003, 1.583947e+002
1.204237e+003, 1.584663e+002
1.204719e+003, 1.588967e+002
1.205201e+003, 1.592693e+002
1.205683e+003, 1.593344e+002
1.206166e+003, 1.591576e+002
1.206648e+003, 1.590026e+002
1.207130e+003, 1.588762e+002
1.207612e+003, 1.587837e+002
1.208094e+003, 1.586669e+002
1.208576e+003, 1.587220e+002
1.209058e+003, 1.592345e+002
1.209540e+003, 1.597528e+002
1.210022e+003, 1.599780e+002
1.210505e+003, 1.599581e+002
1.210987e+003, 1.598884e+002
1.211469e+003, 1.598226e+002
1.211951e+003, 1.600360e+002
1.212433e+003, 1.609511e+002
1.212915e+003, 1.616742e+002
1.213397e+003, 1.615051e+002
1.213879e+003, 1.613704e+002
1.214362e+003, 1.621137e+002
1.214844e+003, 1.635410e+002
1.215326e+003, 1.642188e+002
1.215808e+003, 1.642435e+002
1.216290e+003, 1.641286e+002
1.216772e+003, 1.640835e+002
1.217254e+003, 1.639805e+002
1.217736e+003, 1.636191e+002
1.218219e+003, 1.633565e+002
1.218701e+003, 1.636583e+002
1.219183e+003, 1.643773e+002
1.219665e+003, 1.644387e+002
1.220147e+003, 1.639421e+002
1.220629e+003, 1.634962e+002
1.221111e+003, 1.634825e+002
1.221593e+003, 1.634519e+002
1.222075e+003, 1.633206e+002
1.222557e+003, 1.630795e+002
1.223040e+003, 1.625892e+002
1.223522e+003, 1.619649e+002
1.224004e+003, 1.618912e+002
1.224486e+003, 1.622872e+002
1.224968e+003, 1.625630e+002
1.225450e+003, 1.624650e+002
1.225932e+003, 1.621330e+002
1.226414e+003, 1.614491e+002
1.226897e+003, 1.607847e+002
1.227379e+003, 1.606170e+002
1.227861e+003, 1.608255e+002
1.228343e+003, 1.610884e+002
1.228825e+003, 1.613396e+002
1.229307e+003, 1.612978e+002
1.229789e+003, 1.602416e+002
1.230271e+003, 1.597444e+002
1.230754e+003, 1.603884e+002
1.231236e+003, 1.613181e+002
1.231718e+003, 1.613256e+002
1.232200e+003, 1.607579e+002
1.232682e+003, 1.605377e+002
1.233164e+003, 1.607045e+002
1.233646e+003, 1.610090e+002
1.234128e+003, 1.615938e+002
1.234610e+003, 1.619632e+002
1.235093e+003, 1.620183e+002
1.235575e+003, 1.618391e+002
1.236057e+003, 1.612626e+002
1.236539e+003, 1.606179e+002
1.237021e+003, 1.607993e+002
1.237503e+003, 1.617832e+002
1.237985e+003, 1.626216e+002
1.238467e+003, 1.628613e+002
1.238949e+003, 1.631520e+002
1.239432e+003, 1.636615e+002
1.239914e+003, 1.641272e+002
1.240396e+003, 1.639671e+002
1.240878e+003, 1.635943e+002
1.241360e+003, 1.639126e+002
1.241842e+003, 1.649330e+002
1.242324e+003, 1.655808e+002
1.242806e+003, 1.654093e+002
1.243289e+003, 1.653718e+002
1.243771e+003, 1.656652e+002
1.244253e+003, 1.661027e+002
1.244735e+003, 1.665156e+002
1.245217e+003, 1.668753e+002
1.245699e+003, 1.670930e+002
1.246181e+003, 1.671768e+002
1.246663e+003, 1.673948e+002
1.247146e+003, 1.677745e+002
1.247628e+003, 1.682785e+002
1.248110e+003, 1.689225e+002
1.248592e+003, 1.696052e+002
1.249074e+003, 1.704180e+002
1.249556e+003, 1.710420e+002
1.250038e+003, 1.707935e+002
1.250520e+003, 1.697430e+002
1.251002e+003, 1.698751e+002
1.251484e+003, 1.715577e+002
1.251967e+003, 1.730162e+002
1.252449e+003, 1.738437e+002
1.252931e+003, 1.743595e+002
1.253413e+003, 1.747951e+002
1.253895e+003, 1.752017e+002
1.254377e+003, 1.755459e+002
1.254859e+003, 1.758722e+002
1.255341e+003, 1.766264e+002
1.255824e+003, 1.778915e+002
1.256306e+003, 1.788259e+002
1.256788e+003, 1.791810e+002
1.257270e+003, 1.794014e+002
1.257752e+003, 1.799563e+002
1.258234e+003, 1.805095e+002
1.258716e+003, 1.806881e+002
1.259198e+003, 1.805874e+002
1.259681e+003, 1.806884e+002
1.260163e+003, 1.809943e+002
1.260645e+003, 1.813528e+002
1.261127e+003, 1.817558e+002
1.261609e+003, 1.820667e+002
1.262091e+003, 1.820913e+002
1.262573e+003, 1.820742e+002
1.263055e+003, 1.821737e+002
1.263537e+003, 1.823719e+002
1.264020e+003, 1.826290e+002
1.264502e+003, 1.829313e+002
1.264984e+003, 1.831780e+002
1.265466e+003, 1.833558e+002
1.265948e+003, 1.833968e+002
1.266430e+003, 1.832597e+002
1.266912e+003, 1.829530e+002
1.267394e+003, 1.824335e+002
1.267876e+003, 1.818048e+002
1.268359e+003, 1.813257e+002
1.268841e+003, 1.809667e+002
1.269323e+003, 1.805897e+002
1.269805e+003, 1.801445e+002
1.270287e+003, 1.798856e+002
1.270769e+003, 1.802560e+002
1.271251e+003, 1.803980e+002
1.271733e+003, 1.799600e+002
1.272216e+003, 1.792039e+002
1.272698e+003, 1.786126e+002
1.273180e+003, 1.781776e+002
1.273662e+003, 1.779270e+002
1.274144e+003, 1.778867e+002
1.274626e+003, 1.778250e+002
1.275108e+003, 1.778082e+002
1.275590e+003, 1.775046e+002
1.276073e+003, 1.766829e+002
1.276555e+003, 1.757768e+002
1.277037e+003, 1.755897e+002
1.277519e+003, 1.757712e+002
1.278001e+003, 1.758666e+002
1.278483e+003, 1.758086e+002
1.278965e+003, 1.752336e+002
1.279447e+003, 1.738758e+002
1.279929e+003, 1.730226e+002
1.280411e+003, 1.732079e+002
1.280894e+003, 1.736444e+002
1.281376e+003, 1.734371e+002
1.281858e+003, 1.728881e+002
1.282340e+003, 1.723137e+002
1.282822e+003, 1.717346e+002
1.283304e+003, 1.710157e+002
1.283786e+003, 1.701127e+002
1.284268e+003, 1.696243e+002
1.284751e+003, 1.698110e+002
1.285233e+003, 1.700222e+002
1.285715e+003, 1.695290e+002
1.286197e+003, 1.689187e+002
1.286679e+003, 1.687917e+002
1.287161e+003, 1.689771e+002
1.287643e+003, 1.685339e+002
1.288125e+003, 1.675357e+002
1.288608e+003, 1.669932e+002
1.289090e+003, 1.672348e+002
1.289572e+003, 1.673940e+002
1.290054e+003, 1.667552e+002
1.290536e+003, 1.660647e+002
1.291018e+003, 1.656639e+002
1.291500e+003, 1.655344e+002
1.291982e+003, 1.657657e+002
1.292464e+003, 1.662284e+002
1.292947e+003, 1.664531e+002
1.293429e+003, 1.663350e+002
1.293911e+003, 1.661101e+002
1.294393e+003, 1.656460e+002
1.294875e+003, 1.654151e+002
1.295357e+003, 1.656802e+002
1.295839e+003, 1.660514e+002
1.296321e+003, 1.657509e+002
1.296803e+003, 1.650708e+002
1.297286e+003, 1.644943e+002
1.297768e+003, 1.640871e+002
1.298250e+003, 1.639344e+002
1.298732e+003, 1.641515e+002
1.299214e+003, 1.642699e+002
1.299696e+003, 1.641589e+002
1.300178e+003, 1.639587e+002
1.300660e+003, 1.638572e+002
1.301143e+003, 1.638491e+002
##END=



