##NAMES=Tetrawickmanite
##RRUFFID=R170046
##IDEAL CHEMISTRY=Mn^2+^Sn^4+^(OH)_6_
##LOCALITY=Mina San Martin, Sombrerete, Zacatecas, Mexico
##OWNER=RRUFF
##SOURCE=Peter Megaw
##DESCRIPTION=Yellow cubic or pseudo-octahedral crystals on quartz, associated with colorless cubic fluorite
##STATUS=The identification of this mineral has been confirmed only by single crystal X-ray diffraction.
##URL=rruff.info/R170046
8.758203e+001, 4.027747e+002
8.806415e+001, 4.039709e+002
8.854626e+001, 4.042094e+002
8.902838e+001, 4.031477e+002
8.951050e+001, 4.017170e+002
8.999261e+001, 4.001321e+002
9.047473e+001, 3.984597e+002
9.095685e+001, 3.969046e+002
9.143896e+001, 3.957826e+002
9.192108e+001, 3.950737e+002
9.240320e+001, 3.938174e+002
9.288531e+001, 3.865714e+002
9.336743e+001, 3.723878e+002
9.384955e+001, 3.551361e+002
9.433167e+001, 3.409726e+002
9.481378e+001, 3.273542e+002
9.529590e+001, 3.144526e+002
9.577802e+001, 3.023392e+002
9.626013e+001, 2.915446e+002
9.674225e+001, 2.822774e+002
9.722437e+001, 2.743160e+002
9.770648e+001, 2.672184e+002
9.818860e+001, 2.610933e+002
9.867072e+001, 2.554455e+002
9.915283e+001, 2.500781e+002
9.963495e+001, 2.449057e+002
1.001171e+002, 2.398694e+002
1.005992e+002, 2.348101e+002
1.010813e+002, 2.291295e+002
1.015634e+002, 2.246541e+002
1.020455e+002, 2.217072e+002
1.025277e+002, 2.194025e+002
1.030098e+002, 2.170050e+002
1.034919e+002, 2.142073e+002
1.039740e+002, 2.112556e+002
1.044561e+002, 2.090052e+002
1.049382e+002, 2.087993e+002
1.054204e+002, 2.077377e+002
1.059025e+002, 2.050946e+002
1.063846e+002, 2.013946e+002
1.068667e+002, 1.974858e+002
1.073488e+002, 1.938009e+002
1.078309e+002, 1.903825e+002
1.083131e+002, 1.874394e+002
1.087952e+002, 1.848476e+002
1.092773e+002, 1.827106e+002
1.097594e+002, 1.813120e+002
1.102415e+002, 1.806091e+002
1.107236e+002, 1.799480e+002
1.112058e+002, 1.786865e+002
1.116879e+002, 1.770475e+002
1.121700e+002, 1.757627e+002
1.126521e+002, 1.752145e+002
1.131342e+002, 1.750454e+002
1.136163e+002, 1.746841e+002
1.140985e+002, 1.740850e+002
1.145806e+002, 1.733310e+002
1.150627e+002, 1.723363e+002
1.155448e+002, 1.712274e+002
1.160269e+002, 1.703085e+002
1.165090e+002, 1.699517e+002
1.169912e+002, 1.701400e+002
1.174733e+002, 1.699499e+002
1.179554e+002, 1.687584e+002
1.184375e+002, 1.676717e+002
1.189196e+002, 1.671163e+002
1.194017e+002, 1.670984e+002
1.198839e+002, 1.674020e+002
1.203660e+002, 1.678002e+002
1.208481e+002, 1.682946e+002
1.213302e+002, 1.688828e+002
1.218123e+002, 1.696138e+002
1.222944e+002, 1.703740e+002
1.227766e+002, 1.710964e+002
1.232587e+002, 1.717585e+002
1.237408e+002, 1.723876e+002
1.242229e+002, 1.730332e+002
1.247050e+002, 1.737991e+002
1.251871e+002, 1.744320e+002
1.256693e+002, 1.752010e+002
1.261514e+002, 1.757645e+002
1.266335e+002, 1.756899e+002
1.271156e+002, 1.747837e+002
1.275977e+002, 1.731398e+002
1.280798e+002, 1.709519e+002
1.285620e+002, 1.680156e+002
1.290441e+002, 1.649986e+002
1.295262e+002, 1.620951e+002
1.300083e+002, 1.593003e+002
1.304904e+002, 1.566161e+002
1.309725e+002, 1.539285e+002
1.314547e+002, 1.514588e+002
1.319368e+002, 1.495607e+002
1.324189e+002, 1.483658e+002
1.329010e+002, 1.476122e+002
1.333831e+002, 1.471600e+002
1.338652e+002, 1.470784e+002
1.343474e+002, 1.469325e+002
1.348295e+002, 1.463157e+002
1.353116e+002, 1.455638e+002
1.357937e+002, 1.450411e+002
1.362758e+002, 1.449121e+002
1.367579e+002, 1.450809e+002
1.372401e+002, 1.453011e+002
1.377222e+002, 1.455544e+002
1.382043e+002, 1.459015e+002
1.386864e+002, 1.464538e+002
1.391685e+002, 1.470857e+002
1.396507e+002, 1.476004e+002
1.401328e+002, 1.478321e+002
1.406149e+002, 1.477953e+002
1.410970e+002, 1.479348e+002
1.415791e+002, 1.485443e+002
1.420612e+002, 1.490616e+002
1.425434e+002, 1.493009e+002
1.430255e+002, 1.493089e+002
1.435076e+002, 1.492398e+002
1.439897e+002, 1.492272e+002
1.444718e+002, 1.492755e+002
1.449539e+002, 1.493675e+002
1.454361e+002, 1.496454e+002
1.459182e+002, 1.498481e+002
1.464003e+002, 1.498598e+002
1.468824e+002, 1.496572e+002
1.473645e+002, 1.492443e+002
1.478466e+002, 1.485944e+002
1.483288e+002, 1.476015e+002
1.488109e+002, 1.467104e+002
1.492930e+002, 1.460824e+002
1.497751e+002, 1.454850e+002
1.502572e+002, 1.446298e+002
1.507393e+002, 1.434238e+002
1.512215e+002, 1.421264e+002
1.517036e+002, 1.411646e+002
1.521857e+002, 1.405311e+002
1.526678e+002, 1.397794e+002
1.531499e+002, 1.386731e+002
1.536320e+002, 1.373427e+002
1.541142e+002, 1.361171e+002
1.545963e+002, 1.351064e+002
1.550784e+002, 1.341928e+002
1.555605e+002, 1.331973e+002
1.560426e+002, 1.321232e+002
1.565247e+002, 1.311443e+002
1.570069e+002, 1.304780e+002
1.574890e+002, 1.301161e+002
1.579711e+002, 1.295927e+002
1.584532e+002, 1.286275e+002
1.589353e+002, 1.275979e+002
1.594174e+002, 1.267388e+002
1.598996e+002, 1.260808e+002
1.603817e+002, 1.255420e+002
1.608638e+002, 1.250446e+002
1.613459e+002, 1.246149e+002
1.618280e+002, 1.241367e+002
1.623102e+002, 1.236920e+002
1.627923e+002, 1.231410e+002
1.632744e+002, 1.222732e+002
1.637565e+002, 1.210498e+002
1.642386e+002, 1.197752e+002
1.647207e+002, 1.190403e+002
1.652029e+002, 1.193235e+002
1.656850e+002, 1.194097e+002
1.661671e+002, 1.191608e+002
1.666492e+002, 1.187297e+002
1.671313e+002, 1.182300e+002
1.676134e+002, 1.177143e+002
1.680956e+002, 1.171906e+002
1.685777e+002, 1.166826e+002
1.690598e+002, 1.161115e+002
1.695419e+002, 1.156533e+002
1.700240e+002, 1.153772e+002
1.705061e+002, 1.152101e+002
1.709883e+002, 1.150457e+002
1.714704e+002, 1.148286e+002
1.719525e+002, 1.145840e+002
1.724346e+002, 1.144246e+002
1.729167e+002, 1.143678e+002
1.733988e+002, 1.143531e+002
1.738810e+002, 1.144060e+002
1.743631e+002, 1.144947e+002
1.748452e+002, 1.145348e+002
1.753273e+002, 1.144782e+002
1.758094e+002, 1.143360e+002
1.762915e+002, 1.141642e+002
1.767737e+002, 1.137994e+002
1.772558e+002, 1.135807e+002
1.777379e+002, 1.139120e+002
1.782200e+002, 1.147262e+002
1.787021e+002, 1.152629e+002
1.791842e+002, 1.149252e+002
1.796664e+002, 1.140677e+002
1.801485e+002, 1.134004e+002
1.806306e+002, 1.130009e+002
1.811127e+002, 1.128084e+002
1.815948e+002, 1.128153e+002
1.820769e+002, 1.130532e+002
1.825591e+002, 1.133071e+002
1.830412e+002, 1.134340e+002
1.835233e+002, 1.135221e+002
1.840054e+002, 1.136720e+002
1.844875e+002, 1.139345e+002
1.849696e+002, 1.142512e+002
1.854518e+002, 1.145193e+002
1.859339e+002, 1.147340e+002
1.864160e+002, 1.149038e+002
1.868981e+002, 1.150620e+002
1.873802e+002, 1.151767e+002
1.878623e+002, 1.151713e+002
1.883445e+002, 1.149579e+002
1.888266e+002, 1.146607e+002
1.893087e+002, 1.147258e+002
1.897908e+002, 1.154649e+002
1.902729e+002, 1.161530e+002
1.907550e+002, 1.166748e+002
1.912372e+002, 1.170321e+002
1.917193e+002, 1.171965e+002
1.922014e+002, 1.171244e+002
1.926835e+002, 1.168741e+002
1.931656e+002, 1.168411e+002
1.936477e+002, 1.172974e+002
1.941299e+002, 1.177159e+002
1.946120e+002, 1.179876e+002
1.950941e+002, 1.181643e+002
1.955762e+002, 1.183602e+002
1.960583e+002, 1.186673e+002
1.965404e+002, 1.190663e+002
1.970226e+002, 1.191967e+002
1.975047e+002, 1.187865e+002
1.979868e+002, 1.184122e+002
1.984689e+002, 1.182279e+002
1.989510e+002, 1.182058e+002
1.994331e+002, 1.182695e+002
1.999153e+002, 1.183820e+002
2.003974e+002, 1.185372e+002
2.008795e+002, 1.185494e+002
2.013616e+002, 1.183330e+002
2.018437e+002, 1.180897e+002
2.023258e+002, 1.179154e+002
2.028080e+002, 1.177939e+002
2.032901e+002, 1.176628e+002
2.037722e+002, 1.175073e+002
2.042543e+002, 1.172974e+002
2.047364e+002, 1.168431e+002
2.052185e+002, 1.159610e+002
2.057007e+002, 1.150105e+002
2.061828e+002, 1.141388e+002
2.066649e+002, 1.133681e+002
2.071470e+002, 1.128283e+002
2.076291e+002, 1.127605e+002
2.081112e+002, 1.130152e+002
2.085934e+002, 1.128714e+002
2.090755e+002, 1.119826e+002
2.095576e+002, 1.108932e+002
2.100397e+002, 1.100767e+002
2.105218e+002, 1.095441e+002
2.110039e+002, 1.090710e+002
2.114861e+002, 1.085395e+002
2.119682e+002, 1.079579e+002
2.124503e+002, 1.073317e+002
2.129324e+002, 1.066178e+002
2.134145e+002, 1.058923e+002
2.138967e+002, 1.052819e+002
2.143788e+002, 1.048216e+002
2.148609e+002, 1.043037e+002
2.153430e+002, 1.035284e+002
2.158251e+002, 1.026343e+002
2.163072e+002, 1.017956e+002
2.167894e+002, 1.011097e+002
2.172715e+002, 1.004553e+002
2.177536e+002, 9.958467e+001
2.182357e+002, 9.840482e+001
2.187178e+002, 9.726817e+001
2.191999e+002, 9.628556e+001
2.196821e+002, 9.543269e+001
2.201642e+002, 9.472132e+001
2.206463e+002, 9.419434e+001
2.211284e+002, 9.375711e+001
2.216105e+002, 9.318229e+001
2.220926e+002, 9.240679e+001
2.225748e+002, 9.161826e+001
2.230569e+002, 9.080545e+001
2.235390e+002, 9.004046e+001
2.240211e+002, 8.939875e+001
2.245032e+002, 8.891645e+001
2.249853e+002, 8.857757e+001
2.254675e+002, 8.833949e+001
2.259496e+002, 8.827599e+001
2.264317e+002, 8.820588e+001
2.269138e+002, 8.814456e+001
2.273959e+002, 8.803928e+001
2.278780e+002, 8.778214e+001
2.283602e+002, 8.730318e+001
2.288423e+002, 8.673716e+001
2.293244e+002, 8.654639e+001
2.298065e+002, 8.723373e+001
2.302886e+002, 8.760464e+001
2.307707e+002, 8.719639e+001
2.312529e+002, 8.652087e+001
2.317350e+002, 8.618808e+001
2.322171e+002, 8.649511e+001
2.326992e+002, 8.723003e+001
2.331813e+002, 8.771281e+001
2.336634e+002, 8.772343e+001
2.341456e+002, 8.771573e+001
2.346277e+002, 8.769943e+001
2.351098e+002, 8.769166e+001
2.355919e+002, 8.771609e+001
2.360740e+002, 8.778416e+001
2.365561e+002, 8.787502e+001
2.370383e+002, 8.792684e+001
2.375204e+002, 8.789629e+001
2.380025e+002, 8.787685e+001
2.384846e+002, 8.785167e+001
2.389667e+002, 8.784879e+001
2.394488e+002, 8.790657e+001
2.399310e+002, 8.804247e+001
2.404131e+002, 8.823493e+001
2.408952e+002, 8.842822e+001
2.413773e+002, 8.853050e+001
2.418594e+002, 8.876417e+001
2.423415e+002, 8.924425e+001
2.428237e+002, 8.983831e+001
2.433058e+002, 9.040761e+001
2.437879e+002, 9.090897e+001
2.442700e+002, 9.130723e+001
2.447521e+002, 9.150910e+001
2.452342e+002, 9.142846e+001
2.457164e+002, 9.133796e+001
2.461985e+002, 9.121436e+001
2.466806e+002, 9.112060e+001
2.471627e+002, 9.115639e+001
2.476448e+002, 9.136192e+001
2.481269e+002, 9.166340e+001
2.486091e+002, 9.194147e+001
2.490912e+002, 9.218816e+001
2.495733e+002, 9.244402e+001
2.500554e+002, 9.273022e+001
2.505375e+002, 9.302937e+001
2.510196e+002, 9.331297e+001
2.515018e+002, 9.357175e+001
2.519839e+002, 9.382292e+001
2.524660e+002, 9.407475e+001
2.529481e+002, 9.431860e+001
2.534302e+002, 9.463633e+001
2.539123e+002, 9.502194e+001
2.543945e+002, 9.550151e+001
2.548766e+002, 9.614220e+001
2.553587e+002, 9.698231e+001
2.558408e+002, 9.789939e+001
2.563229e+002, 9.871852e+001
2.568051e+002, 9.945606e+001
2.572872e+002, 1.003172e+002
2.577693e+002, 1.013761e+002
2.582514e+002, 1.025919e+002
2.587335e+002, 1.039152e+002
2.592156e+002, 1.053415e+002
2.596978e+002, 1.068414e+002
2.601799e+002, 1.084345e+002
2.606620e+002, 1.100967e+002
2.611441e+002, 1.117076e+002
2.616262e+002, 1.131336e+002
2.621083e+002, 1.145178e+002
2.625905e+002, 1.161684e+002
2.630726e+002, 1.181767e+002
2.635547e+002, 1.201488e+002
2.640368e+002, 1.216508e+002
2.645189e+002, 1.228768e+002
2.650010e+002, 1.241834e+002
2.654832e+002, 1.256385e+002
2.659653e+002, 1.272570e+002
2.664474e+002, 1.291143e+002
2.669295e+002, 1.312699e+002
2.674116e+002, 1.334324e+002
2.678937e+002, 1.352422e+002
2.683759e+002, 1.369757e+002
2.688580e+002, 1.390608e+002
2.693401e+002, 1.416628e+002
2.698222e+002, 1.446369e+002
2.703043e+002, 1.477620e+002
2.707864e+002, 1.510098e+002
2.712686e+002, 1.545254e+002
2.717507e+002, 1.584642e+002
2.722328e+002, 1.627154e+002
2.727149e+002, 1.672130e+002
2.731970e+002, 1.719858e+002
2.736791e+002, 1.769437e+002
2.741613e+002, 1.818705e+002
2.746434e+002, 1.867415e+002
2.751255e+002, 1.919118e+002
2.756076e+002, 1.977041e+002
2.760897e+002, 2.038056e+002
2.765718e+002, 2.100972e+002
2.770540e+002, 2.165906e+002
2.775361e+002, 2.230807e+002
2.780182e+002, 2.294001e+002
2.785003e+002, 2.355325e+002
2.789824e+002, 2.415209e+002
2.794645e+002, 2.478004e+002
2.799467e+002, 2.536313e+002
2.804288e+002, 2.585005e+002
2.809109e+002, 2.623279e+002
2.813930e+002, 2.652432e+002
2.818751e+002, 2.674619e+002
2.823572e+002, 2.690244e+002
2.828394e+002, 2.693971e+002
2.833215e+002, 2.682203e+002
2.838036e+002, 2.658979e+002
2.842857e+002, 2.624693e+002
2.847678e+002, 2.580325e+002
2.852499e+002, 2.529083e+002
2.857321e+002, 2.471052e+002
2.862142e+002, 2.406170e+002
2.866963e+002, 2.346238e+002
2.871784e+002, 2.295377e+002
2.876605e+002, 2.246746e+002
2.881426e+002, 2.196190e+002
2.886248e+002, 2.144687e+002
2.891069e+002, 2.096164e+002
2.895890e+002, 2.054143e+002
2.900711e+002, 2.018032e+002
2.905532e+002, 1.982492e+002
2.910353e+002, 1.946371e+002
2.915175e+002, 1.912241e+002
2.919996e+002, 1.881234e+002
2.924817e+002, 1.852679e+002
2.929638e+002, 1.825561e+002
2.934459e+002, 1.799206e+002
2.939280e+002, 1.773718e+002
2.944102e+002, 1.750392e+002
2.948923e+002, 1.729766e+002
2.953744e+002, 1.710658e+002
2.958565e+002, 1.693085e+002
2.963386e+002, 1.676449e+002
2.968207e+002, 1.659935e+002
2.973029e+002, 1.643081e+002
2.977850e+002, 1.626575e+002
2.982671e+002, 1.612893e+002
2.987492e+002, 1.605309e+002
2.992313e+002, 1.593769e+002
2.997134e+002, 1.574061e+002
3.001956e+002, 1.551022e+002
3.006777e+002, 1.529556e+002
3.011598e+002, 1.511304e+002
3.016419e+002, 1.493362e+002
3.021240e+002, 1.470553e+002
3.026061e+002, 1.441101e+002
3.030883e+002, 1.411699e+002
3.035704e+002, 1.382822e+002
3.040525e+002, 1.354451e+002
3.045346e+002, 1.326570e+002
3.050167e+002, 1.299200e+002
3.054988e+002, 1.272605e+002
3.059810e+002, 1.247244e+002
3.064631e+002, 1.223383e+002
3.069452e+002, 1.199667e+002
3.074273e+002, 1.175539e+002
3.079094e+002, 1.152006e+002
3.083915e+002, 1.129273e+002
3.088737e+002, 1.107500e+002
3.093558e+002, 1.086745e+002
3.098379e+002, 1.067200e+002
3.103200e+002, 1.048769e+002
3.108021e+002, 1.032057e+002
3.112842e+002, 1.019007e+002
3.117664e+002, 1.005744e+002
3.122485e+002, 9.902053e+001
3.127306e+002, 9.734080e+001
3.132127e+002, 9.574821e+001
3.136948e+002, 9.440247e+001
3.141769e+002, 9.327464e+001
3.146591e+002, 9.216890e+001
3.151412e+002, 9.105812e+001
3.156233e+002, 9.001408e+001
3.161054e+002, 8.904978e+001
3.165875e+002, 8.815888e+001
3.170696e+002, 8.734970e+001
3.175518e+002, 8.664061e+001
3.180339e+002, 8.597434e+001
3.185160e+002, 8.517473e+001
3.189981e+002, 8.405222e+001
3.194802e+002, 8.320346e+001
3.199623e+002, 8.284224e+001
3.204445e+002, 8.271694e+001
3.209266e+002, 8.268909e+001
3.214087e+002, 8.271072e+001
3.218908e+002, 8.264668e+001
3.223729e+002, 8.222649e+001
3.228550e+002, 8.129247e+001
3.233372e+002, 8.055949e+001
3.238193e+002, 8.015755e+001
3.243014e+002, 7.995393e+001
3.247835e+002, 7.994509e+001
3.252656e+002, 8.009978e+001
3.257477e+002, 8.028925e+001
3.262299e+002, 8.039746e+001
3.267120e+002, 8.042156e+001
3.271941e+002, 8.037386e+001
3.276762e+002, 8.008948e+001
3.281583e+002, 7.989236e+001
3.286404e+002, 7.992155e+001
3.291226e+002, 8.015403e+001
3.296047e+002, 8.051144e+001
3.300868e+002, 8.101073e+001
3.305689e+002, 8.160229e+001
3.310510e+002, 8.191989e+001
3.315331e+002, 8.170390e+001
3.320153e+002, 8.160042e+001
3.324974e+002, 8.194617e+001
3.329795e+002, 8.251531e+001
3.334616e+002, 8.296696e+001
3.339437e+002, 8.311341e+001
3.344258e+002, 8.310580e+001
3.349080e+002, 8.327546e+001
3.353901e+002, 8.365463e+001
3.358722e+002, 8.414075e+001
3.363543e+002, 8.469849e+001
3.368365e+002, 8.534834e+001
3.373186e+002, 8.615685e+001
3.378007e+002, 8.714906e+001
3.382828e+002, 8.816591e+001
3.387649e+002, 8.894656e+001
3.392470e+002, 8.942545e+001
3.397292e+002, 9.014340e+001
3.402113e+002, 9.141105e+001
3.406934e+002, 9.279721e+001
3.411755e+002, 9.390489e+001
3.416576e+002, 9.476782e+001
3.421397e+002, 9.590482e+001
3.426219e+002, 9.795542e+001
3.431040e+002, 1.008037e+002
3.435861e+002, 1.031893e+002
3.440682e+002, 1.047570e+002
3.445503e+002, 1.062066e+002
3.450324e+002, 1.079510e+002
3.455146e+002, 1.099092e+002
3.459967e+002, 1.118779e+002
3.464788e+002, 1.136743e+002
3.469609e+002, 1.154244e+002
3.474430e+002, 1.174502e+002
3.479251e+002, 1.198281e+002
3.484073e+002, 1.222790e+002
3.488894e+002, 1.246744e+002
3.493715e+002, 1.270669e+002
3.498536e+002, 1.295448e+002
3.503357e+002, 1.321490e+002
3.508178e+002, 1.348215e+002
3.513000e+002, 1.375482e+002
3.517821e+002, 1.403392e+002
3.522642e+002, 1.430074e+002
3.527463e+002, 1.455628e+002
3.532284e+002, 1.479078e+002
3.537105e+002, 1.499402e+002
3.541927e+002, 1.516389e+002
3.546748e+002, 1.531876e+002
3.551569e+002, 1.547873e+002
3.556390e+002, 1.563685e+002
3.561211e+002, 1.575668e+002
3.566032e+002, 1.581184e+002
3.570854e+002, 1.586164e+002
3.575675e+002, 1.597017e+002
3.580496e+002, 1.612597e+002
3.585317e+002, 1.627114e+002
3.590138e+002, 1.638905e+002
3.594959e+002, 1.648125e+002
3.599781e+002, 1.654997e+002
3.604602e+002, 1.659433e+002
3.609423e+002, 1.661866e+002
3.614244e+002, 1.661056e+002
3.619065e+002, 1.658508e+002
3.623886e+002, 1.658146e+002
3.628708e+002, 1.663090e+002
3.633529e+002, 1.667688e+002
3.638350e+002, 1.666924e+002
3.643171e+002, 1.661386e+002
3.647992e+002, 1.654937e+002
3.652813e+002, 1.648987e+002
3.657635e+002, 1.643343e+002
3.662456e+002, 1.637935e+002
3.667277e+002, 1.633628e+002
3.672098e+002, 1.627187e+002
3.676919e+002, 1.615117e+002
3.681740e+002, 1.600379e+002
3.686562e+002, 1.589247e+002
3.691383e+002, 1.583796e+002
3.696204e+002, 1.579471e+002
3.701025e+002, 1.570810e+002
3.705846e+002, 1.557725e+002
3.710667e+002, 1.542828e+002
3.715489e+002, 1.524312e+002
3.720310e+002, 1.505456e+002
3.725131e+002, 1.490338e+002
3.729952e+002, 1.478694e+002
3.734773e+002, 1.465835e+002
3.739594e+002, 1.448080e+002
3.744416e+002, 1.425728e+002
3.749237e+002, 1.404503e+002
3.754058e+002, 1.385581e+002
3.758879e+002, 1.366427e+002
3.763700e+002, 1.346981e+002
3.768521e+002, 1.326478e+002
3.773343e+002, 1.303047e+002
3.778164e+002, 1.275535e+002
3.782985e+002, 1.246006e+002
3.787806e+002, 1.219469e+002
3.792627e+002, 1.199863e+002
3.797448e+002, 1.176528e+002
3.802270e+002, 1.145076e+002
3.807091e+002, 1.111725e+002
3.811912e+002, 1.082005e+002
3.816733e+002, 1.056979e+002
3.821554e+002, 1.034790e+002
3.826375e+002, 1.013248e+002
3.831197e+002, 9.925040e+001
3.836018e+002, 9.717596e+001
3.840839e+002, 9.513100e+001
3.845660e+002, 9.306335e+001
3.850481e+002, 9.081709e+001
3.855302e+002, 8.851978e+001
3.860124e+002, 8.650697e+001
3.864945e+002, 8.502224e+001
3.869766e+002, 8.394971e+001
3.874587e+002, 8.265122e+001
3.879408e+002, 8.087263e+001
3.884229e+002, 7.915719e+001
3.889051e+002, 7.743148e+001
3.893872e+002, 7.585778e+001
3.898693e+002, 7.465645e+001
3.903514e+002, 7.388477e+001
3.908335e+002, 7.329807e+001
3.913156e+002, 7.249892e+001
3.917978e+002, 7.136272e+001
3.922799e+002, 7.035178e+001
3.927620e+002, 6.963986e+001
3.932441e+002, 6.889568e+001
3.937262e+002, 6.787768e+001
3.942083e+002, 6.664486e+001
3.946905e+002, 6.546304e+001
3.951726e+002, 6.455153e+001
3.956547e+002, 6.388408e+001
3.961368e+002, 6.318695e+001
3.966189e+002, 6.242634e+001
3.971010e+002, 6.169014e+001
3.975832e+002, 6.097039e+001
3.980653e+002, 6.029602e+001
3.985474e+002, 5.970784e+001
3.990295e+002, 5.921968e+001
3.995116e+002, 5.881773e+001
3.999937e+002, 5.850484e+001
4.004759e+002, 5.830820e+001
4.009580e+002, 5.806348e+001
4.014401e+002, 5.775508e+001
4.019222e+002, 5.736297e+001
4.024043e+002, 5.683569e+001
4.028864e+002, 5.618145e+001
4.033686e+002, 5.552642e+001
4.038507e+002, 5.489325e+001
4.043328e+002, 5.431987e+001
4.048149e+002, 5.401424e+001
4.052970e+002, 5.410564e+001
4.057791e+002, 5.422520e+001
4.062613e+002, 5.409693e+001
4.067434e+002, 5.381470e+001
4.072255e+002, 5.356294e+001
4.077076e+002, 5.345410e+001
4.081897e+002, 5.334558e+001
4.086718e+002, 5.303284e+001
4.091540e+002, 5.252479e+001
4.096361e+002, 5.209044e+001
4.101182e+002, 5.188128e+001
4.106003e+002, 5.178225e+001
4.110824e+002, 5.159085e+001
4.115645e+002, 5.129374e+001
4.120467e+002, 5.096282e+001
4.125288e+002, 5.058318e+001
4.130109e+002, 5.020104e+001
4.134930e+002, 4.993439e+001
4.139751e+002, 4.982154e+001
4.144572e+002, 4.968318e+001
4.149394e+002, 4.929004e+001
4.154215e+002, 4.862947e+001
4.159036e+002, 4.816447e+001
4.163857e+002, 4.808225e+001
4.168678e+002, 4.805665e+001
4.173499e+002, 4.787449e+001
4.178321e+002, 4.756402e+001
4.183142e+002, 4.723924e+001
4.187963e+002, 4.694881e+001
4.192784e+002, 4.671793e+001
4.197605e+002, 4.664385e+001
4.202426e+002, 4.683161e+001
4.207248e+002, 4.702468e+001
4.212069e+002, 4.721965e+001
4.216890e+002, 4.739509e+001
4.221711e+002, 4.754160e+001
4.226532e+002, 4.765157e+001
4.231353e+002, 4.769659e+001
4.236175e+002, 4.763245e+001
4.240996e+002, 4.742931e+001
4.245817e+002, 4.727082e+001
4.250638e+002, 4.700489e+001
4.255459e+002, 4.692765e+001
4.260280e+002, 4.732233e+001
4.265102e+002, 4.798370e+001
4.269923e+002, 4.849410e+001
4.274744e+002, 4.859813e+001
4.279565e+002, 4.842714e+001
4.284386e+002, 4.841821e+001
4.289207e+002, 4.865798e+001
4.294029e+002, 4.891073e+001
4.298850e+002, 4.910838e+001
4.303671e+002, 4.932611e+001
4.308492e+002, 4.964563e+001
4.313313e+002, 5.007032e+001
4.318134e+002, 5.050008e+001
4.322956e+002, 5.080422e+001
4.327777e+002, 5.097808e+001
4.332598e+002, 5.124092e+001
4.337419e+002, 5.160719e+001
4.342241e+002, 5.205644e+001
4.347062e+002, 5.263204e+001
4.351883e+002, 5.326880e+001
4.356704e+002, 5.383073e+001
4.361525e+002, 5.421930e+001
4.366346e+002, 5.456043e+001
4.371168e+002, 5.506337e+001
4.375989e+002, 5.574081e+001
4.380810e+002, 5.644049e+001
4.385631e+002, 5.714583e+001
4.390452e+002, 5.781615e+001
4.395273e+002, 5.839879e+001
4.400095e+002, 5.888447e+001
4.404916e+002, 5.937622e+001
4.409737e+002, 5.984497e+001
4.414558e+002, 6.037475e+001
4.419379e+002, 6.119775e+001
4.424200e+002, 6.238982e+001
4.429022e+002, 6.358623e+001
4.433843e+002, 6.443958e+001
4.438664e+002, 6.502625e+001
4.443485e+002, 6.584201e+001
4.448306e+002, 6.710606e+001
4.453127e+002, 6.842126e+001
4.457949e+002, 6.961459e+001
4.462770e+002, 7.068543e+001
4.467591e+002, 7.164256e+001
4.472412e+002, 7.249191e+001
4.477233e+002, 7.323856e+001
4.482054e+002, 7.388145e+001
4.486876e+002, 7.435433e+001
4.491697e+002, 7.488367e+001
4.496518e+002, 7.543810e+001
4.501339e+002, 7.607982e+001
4.506160e+002, 7.689236e+001
4.510981e+002, 7.785143e+001
4.515803e+002, 7.884397e+001
4.520624e+002, 7.976558e+001
4.525445e+002, 8.062804e+001
4.530266e+002, 8.156478e+001
4.535087e+002, 8.242554e+001
4.539908e+002, 8.354853e+001
4.544730e+002, 8.496812e+001
4.549551e+002, 8.667847e+001
4.554372e+002, 8.871931e+001
4.559193e+002, 9.108134e+001
4.564014e+002, 9.360773e+001
4.568835e+002, 9.601559e+001
4.573657e+002, 9.817996e+001
4.578478e+002, 1.007707e+002
4.583299e+002, 1.039289e+002
4.588120e+002, 1.074306e+002
4.592941e+002, 1.114678e+002
4.597762e+002, 1.157767e+002
4.602584e+002, 1.198181e+002
4.607405e+002, 1.233186e+002
4.612226e+002, 1.263454e+002
4.617047e+002, 1.292365e+002
4.621868e+002, 1.321973e+002
4.626689e+002, 1.340822e+002
4.631511e+002, 1.343441e+002
4.636332e+002, 1.333513e+002
4.641153e+002, 1.314173e+002
4.645974e+002, 1.285369e+002
4.650795e+002, 1.249622e+002
4.655616e+002, 1.206390e+002
4.660438e+002, 1.157550e+002
4.665259e+002, 1.105567e+002
4.670080e+002, 1.050234e+002
4.674901e+002, 9.960788e+001
4.679722e+002, 9.460006e+001
4.684543e+002, 9.003120e+001
4.689365e+002, 8.585532e+001
4.694186e+002, 8.207778e+001
4.699007e+002, 7.868530e+001
4.703828e+002, 7.570433e+001
4.708649e+002, 7.312965e+001
4.713470e+002, 7.099937e+001
4.718292e+002, 6.934309e+001
4.723113e+002, 6.799759e+001
4.727934e+002, 6.672999e+001
4.732755e+002, 6.561380e+001
4.737576e+002, 6.437674e+001
4.742397e+002, 6.272451e+001
4.747219e+002, 6.121362e+001
4.752040e+002, 6.025772e+001
4.756861e+002, 5.974299e+001
4.761682e+002, 5.928123e+001
4.766503e+002, 5.862352e+001
4.771324e+002, 5.784389e+001
4.776146e+002, 5.724371e+001
4.780967e+002, 5.689252e+001
4.785788e+002, 5.661643e+001
4.790609e+002, 5.645482e+001
4.795430e+002, 5.631237e+001
4.800251e+002, 5.610801e+001
4.805073e+002, 5.583676e+001
4.809894e+002, 5.555379e+001
4.814715e+002, 5.530878e+001
4.819536e+002, 5.510046e+001
4.824357e+002, 5.490847e+001
4.829178e+002, 5.473119e+001
4.834000e+002, 5.457351e+001
4.838821e+002, 5.441438e+001
4.843642e+002, 5.428132e+001
4.848463e+002, 5.422058e+001
4.853284e+002, 5.425621e+001
4.858105e+002, 5.432372e+001
4.862927e+002, 5.441830e+001
4.867748e+002, 5.451266e+001
4.872569e+002, 5.438308e+001
4.877390e+002, 5.385621e+001
4.882211e+002, 5.335138e+001
4.887032e+002, 5.343766e+001
4.891854e+002, 5.400193e+001
4.896675e+002, 5.442529e+001
4.901496e+002, 5.451282e+001
4.906317e+002, 5.447956e+001
4.911138e+002, 5.444660e+001
4.915959e+002, 5.443121e+001
4.920781e+002, 5.447633e+001
4.925602e+002, 5.460777e+001
4.930423e+002, 5.479700e+001
4.935244e+002, 5.498825e+001
4.940065e+002, 5.522398e+001
4.944886e+002, 5.537396e+001
4.949708e+002, 5.536380e+001
4.954529e+002, 5.531870e+001
4.959350e+002, 5.530502e+001
4.964171e+002, 5.534139e+001
4.968992e+002, 5.543337e+001
4.973813e+002, 5.557892e+001
4.978635e+002, 5.578867e+001
4.983456e+002, 5.615180e+001
4.988277e+002, 5.689711e+001
4.993098e+002, 5.744865e+001
4.997919e+002, 5.760155e+001
5.002740e+002, 5.761969e+001
5.007562e+002, 5.773201e+001
5.012383e+002, 5.797963e+001
5.017204e+002, 5.825734e+001
5.022025e+002, 5.845950e+001
5.026846e+002, 5.859320e+001
5.031667e+002, 5.874453e+001
5.036489e+002, 5.893140e+001
5.041310e+002, 5.910470e+001
5.046131e+002, 5.923436e+001
5.050952e+002, 5.933648e+001
5.055773e+002, 5.942565e+001
5.060594e+002, 5.949133e+001
5.065416e+002, 5.958025e+001
5.070237e+002, 5.976819e+001
5.075058e+002, 6.001606e+001
5.079879e+002, 6.017658e+001
5.084700e+002, 6.020185e+001
5.089521e+002, 6.018268e+001
5.094343e+002, 6.018892e+001
5.099164e+002, 6.022371e+001
5.103985e+002, 6.036255e+001
5.108806e+002, 6.077427e+001
5.113627e+002, 6.113148e+001
5.118448e+002, 6.121962e+001
5.123270e+002, 6.111276e+001
5.128091e+002, 6.097015e+001
5.132912e+002, 6.085646e+001
5.137733e+002, 6.079568e+001
5.142554e+002, 6.083738e+001
5.147375e+002, 6.103471e+001
5.152197e+002, 6.121532e+001
5.157018e+002, 6.131746e+001
5.161839e+002, 6.146233e+001
5.166660e+002, 6.176242e+001
5.171481e+002, 6.215764e+001
5.176302e+002, 6.248309e+001
5.181124e+002, 6.262404e+001
5.185945e+002, 6.268254e+001
5.190766e+002, 6.294358e+001
5.195587e+002, 6.348393e+001
5.200408e+002, 6.397212e+001
5.205229e+002, 6.438850e+001
5.210051e+002, 6.468098e+001
5.214872e+002, 6.473020e+001
5.219693e+002, 6.457735e+001
5.224514e+002, 6.448487e+001
5.229335e+002, 6.462614e+001
5.234156e+002, 6.492172e+001
5.238978e+002, 6.525121e+001
5.243799e+002, 6.561826e+001
5.248620e+002, 6.594015e+001
5.253441e+002, 6.614939e+001
5.258262e+002, 6.630943e+001
5.263083e+002, 6.656595e+001
5.267905e+002, 6.696994e+001
5.272726e+002, 6.730067e+001
5.277547e+002, 6.740636e+001
5.282368e+002, 6.745795e+001
5.287189e+002, 6.765793e+001
5.292010e+002, 6.801288e+001
5.296832e+002, 6.838125e+001
5.301653e+002, 6.865435e+001
5.306474e+002, 6.885159e+001
5.311295e+002, 6.911790e+001
5.316116e+002, 6.950964e+001
5.320938e+002, 6.990108e+001
5.325759e+002, 7.022996e+001
5.330580e+002, 7.058635e+001
5.335401e+002, 7.114125e+001
5.340222e+002, 7.186131e+001
5.345043e+002, 7.244983e+001
5.349865e+002, 7.251767e+001
5.354686e+002, 7.214501e+001
5.359507e+002, 7.231463e+001
5.364328e+002, 7.336423e+001
5.369149e+002, 7.432634e+001
5.373970e+002, 7.483797e+001
5.378792e+002, 7.509594e+001
5.383613e+002, 7.521767e+001
5.388434e+002, 7.520544e+001
5.393255e+002, 7.531180e+001
5.398076e+002, 7.584069e+001
5.402897e+002, 7.662647e+001
5.407719e+002, 7.719906e+001
5.412540e+002, 7.747318e+001
5.417361e+002, 7.773733e+001
5.422182e+002, 7.820349e+001
5.427003e+002, 7.883598e+001
5.431824e+002, 7.943368e+001
5.436646e+002, 7.995528e+001
5.441467e+002, 8.049422e+001
5.446288e+002, 8.107421e+001
5.451109e+002, 8.169498e+001
5.455930e+002, 8.234865e+001
5.460751e+002, 8.303746e+001
5.465573e+002, 8.378416e+001
5.470394e+002, 8.462439e+001
5.475215e+002, 8.555875e+001
5.480036e+002, 8.647994e+001
5.484857e+002, 8.732860e+001
5.489678e+002, 8.824585e+001
5.494500e+002, 8.923540e+001
5.499321e+002, 9.031548e+001
5.504142e+002, 9.156223e+001
5.508963e+002, 9.297945e+001
5.513784e+002, 9.437704e+001
5.518605e+002, 9.552578e+001
5.523427e+002, 9.644257e+001
5.528248e+002, 9.736608e+001
5.533069e+002, 9.825134e+001
5.537890e+002, 9.925021e+001
5.542711e+002, 1.004865e+002
5.547532e+002, 1.018728e+002
5.552354e+002, 1.032841e+002
5.557175e+002, 1.046689e+002
5.561996e+002, 1.061613e+002
5.566817e+002, 1.079334e+002
5.571638e+002, 1.098540e+002
5.576459e+002, 1.116669e+002
5.581281e+002, 1.133164e+002
5.586102e+002, 1.149222e+002
5.590923e+002, 1.165582e+002
5.595744e+002, 1.182338e+002
5.600565e+002, 1.200771e+002
5.605386e+002, 1.220740e+002
5.610208e+002, 1.242158e+002
5.615029e+002, 1.265742e+002
5.619850e+002, 1.290570e+002
5.624671e+002, 1.315360e+002
5.629492e+002, 1.340029e+002
5.634313e+002, 1.366047e+002
5.639135e+002, 1.395221e+002
5.643956e+002, 1.427587e+002
5.648777e+002, 1.458901e+002
5.653598e+002, 1.486984e+002
5.658419e+002, 1.517619e+002
5.663240e+002, 1.551153e+002
5.668062e+002, 1.588689e+002
5.672883e+002, 1.631550e+002
5.677704e+002, 1.679875e+002
5.682525e+002, 1.732375e+002
5.687346e+002, 1.788709e+002
5.692167e+002, 1.848475e+002
5.696989e+002, 1.909688e+002
5.701810e+002, 1.972217e+002
5.706631e+002, 2.037950e+002
5.711452e+002, 2.107219e+002
5.716273e+002, 2.181344e+002
5.721094e+002, 2.261678e+002
5.725916e+002, 2.347335e+002
5.730737e+002, 2.440093e+002
5.735558e+002, 2.541855e+002
5.740379e+002, 2.650278e+002
5.745200e+002, 2.760391e+002
5.750021e+002, 2.872588e+002
5.754843e+002, 2.992616e+002
5.759664e+002, 3.124684e+002
5.764485e+002, 3.267645e+002
5.769306e+002, 3.415197e+002
5.774127e+002, 3.565809e+002
5.778948e+002, 3.723573e+002
5.783770e+002, 3.888372e+002
5.788591e+002, 4.058824e+002
5.793412e+002, 4.231897e+002
5.798233e+002, 4.408257e+002
5.803054e+002, 4.597854e+002
5.807875e+002, 4.811339e+002
5.812697e+002, 5.041111e+002
5.817518e+002, 5.262595e+002
5.822339e+002, 5.473929e+002
5.827161e+002, 5.697834e+002
5.831982e+002, 5.941664e+002
5.836803e+002, 6.203656e+002
5.841624e+002, 6.481115e+002
5.846445e+002, 6.776462e+002
5.851266e+002, 7.078524e+002
5.856088e+002, 7.387012e+002
5.860909e+002, 7.699391e+002
5.865730e+002, 8.018904e+002
5.870551e+002, 8.340660e+002
5.875372e+002, 8.653668e+002
5.880193e+002, 8.949772e+002
5.885015e+002, 9.231766e+002
5.889836e+002, 9.507889e+002
5.894657e+002, 9.804009e+002
5.899478e+002, 1.003514e+003
5.904299e+002, 1.019550e+003
5.909120e+002, 1.030511e+003
5.913942e+002, 1.037268e+003
5.918763e+002, 1.039642e+003
5.923584e+002, 1.037051e+003
5.928405e+002, 1.029191e+003
5.933226e+002, 1.016221e+003
5.938047e+002, 9.983237e+002
5.942869e+002, 9.754244e+002
5.947690e+002, 9.475770e+002
5.952511e+002, 9.135314e+002
5.957332e+002, 8.764593e+002
5.962153e+002, 8.381570e+002
5.966974e+002, 7.988851e+002
5.971796e+002, 7.596241e+002
5.976617e+002, 7.193740e+002
5.981438e+002, 6.801592e+002
5.986259e+002, 6.430219e+002
5.991080e+002, 6.076478e+002
5.995901e+002, 5.733592e+002
6.000723e+002, 5.400262e+002
6.005544e+002, 5.083065e+002
6.010365e+002, 4.789239e+002
6.015186e+002, 4.518549e+002
6.020007e+002, 4.263473e+002
6.024828e+002, 4.023074e+002
6.029650e+002, 3.800191e+002
6.034471e+002, 3.596850e+002
6.039292e+002, 3.410655e+002
6.044113e+002, 3.239479e+002
6.048934e+002, 3.082910e+002
6.053755e+002, 2.936619e+002
6.058577e+002, 2.797415e+002
6.063398e+002, 2.665706e+002
6.068219e+002, 2.541758e+002
6.073040e+002, 2.425340e+002
6.077861e+002, 2.318209e+002
6.082682e+002, 2.221937e+002
6.087504e+002, 2.134709e+002
6.092325e+002, 2.052515e+002
6.097146e+002, 1.975480e+002
6.101967e+002, 1.902248e+002
6.106788e+002, 1.831606e+002
6.111609e+002, 1.764751e+002
6.116431e+002, 1.703970e+002
6.121252e+002, 1.648187e+002
6.126073e+002, 1.594085e+002
6.130894e+002, 1.539881e+002
6.135715e+002, 1.486830e+002
6.140536e+002, 1.437278e+002
6.145358e+002, 1.390494e+002
6.150179e+002, 1.349713e+002
6.155000e+002, 1.321309e+002
6.159821e+002, 1.292512e+002
6.164642e+002, 1.256169e+002
6.169464e+002, 1.215740e+002
6.174285e+002, 1.177988e+002
6.179106e+002, 1.145296e+002
6.183927e+002, 1.116387e+002
6.188748e+002, 1.090099e+002
6.193569e+002, 1.066292e+002
6.198391e+002, 1.044125e+002
6.203212e+002, 1.023699e+002
6.208033e+002, 1.004081e+002
6.212854e+002, 9.853252e+001
6.217675e+002, 9.669680e+001
6.222496e+002, 9.466766e+001
6.227318e+002, 9.216187e+001
6.232139e+002, 8.983361e+001
6.236960e+002, 8.790563e+001
6.241781e+002, 8.623067e+001
6.246602e+002, 8.471456e+001
6.251423e+002, 8.331100e+001
6.256245e+002, 8.195350e+001
6.261066e+002, 8.057935e+001
6.265887e+002, 7.921919e+001
6.270708e+002, 7.798994e+001
6.275529e+002, 7.692476e+001
6.280350e+002, 7.592274e+001
6.285172e+002, 7.503307e+001
6.289993e+002, 7.413715e+001
6.294814e+002, 7.311391e+001
6.299635e+002, 7.199618e+001
6.304456e+002, 7.096301e+001
6.309277e+002, 7.008607e+001
6.314099e+002, 6.933362e+001
6.318920e+002, 6.876448e+001
6.323741e+002, 6.830923e+001
6.328562e+002, 6.763363e+001
6.333383e+002, 6.660265e+001
6.338204e+002, 6.552388e+001
6.343026e+002, 6.477114e+001
6.347847e+002, 6.438228e+001
6.352668e+002, 6.396655e+001
6.357489e+002, 6.359608e+001
6.362310e+002, 6.311506e+001
6.367131e+002, 6.232589e+001
6.371953e+002, 6.148152e+001
6.376774e+002, 6.092086e+001
6.381595e+002, 6.069019e+001
6.386416e+002, 6.050682e+001
6.391237e+002, 6.008319e+001
6.396058e+002, 5.947404e+001
6.400880e+002, 5.895630e+001
6.405701e+002, 5.854876e+001
6.410522e+002, 5.816308e+001
6.415343e+002, 5.776243e+001
6.420164e+002, 5.736834e+001
6.424985e+002, 5.699486e+001
6.429807e+002, 5.663923e+001
6.434628e+002, 5.634902e+001
6.439449e+002, 5.619809e+001
6.444270e+002, 5.606587e+001
6.449091e+002, 5.584313e+001
6.453912e+002, 5.555632e+001
6.458734e+002, 5.530907e+001
6.463555e+002, 5.514516e+001
6.468376e+002, 5.495362e+001
6.473197e+002, 5.453804e+001
6.478018e+002, 5.382503e+001
6.482839e+002, 5.329546e+001
6.487661e+002, 5.302551e+001
6.492482e+002, 5.285415e+001
6.497303e+002, 5.284295e+001
6.502124e+002, 5.284776e+001
6.506945e+002, 5.265493e+001
6.511766e+002, 5.221415e+001
6.516588e+002, 5.179043e+001
6.521409e+002, 5.161256e+001
6.526230e+002, 5.158708e+001
6.531051e+002, 5.153393e+001
6.535872e+002, 5.144255e+001
6.540693e+002, 5.134320e+001
6.545515e+002, 5.126454e+001
6.550336e+002, 5.116526e+001
6.555157e+002, 5.094140e+001
6.559978e+002, 5.046503e+001
6.564799e+002, 5.017498e+001
6.569620e+002, 5.018082e+001
6.574442e+002, 5.026897e+001
6.579263e+002, 5.037035e+001
6.584084e+002, 5.046065e+001
6.588905e+002, 5.053400e+001
6.593726e+002, 5.058688e+001
6.598547e+002, 5.057401e+001
6.603369e+002, 5.043239e+001
6.608190e+002, 5.016612e+001
6.613011e+002, 4.980110e+001
6.617832e+002, 4.927873e+001
6.622653e+002, 4.882571e+001
6.627474e+002, 4.859856e+001
6.632296e+002, 4.851191e+001
6.637117e+002, 4.840040e+001
6.641938e+002, 4.826439e+001
6.646759e+002, 4.809132e+001
6.651580e+002, 4.781792e+001
6.656401e+002, 4.755021e+001
6.661223e+002, 4.742757e+001
6.666044e+002, 4.740380e+001
6.670865e+002, 4.730409e+001
6.675686e+002, 4.703442e+001
6.680507e+002, 4.669830e+001
6.685328e+002, 4.651103e+001
6.690150e+002, 4.653294e+001
6.694971e+002, 4.644419e+001
6.699792e+002, 4.621447e+001
6.704613e+002, 4.589920e+001
6.709434e+002, 4.547337e+001
6.714255e+002, 4.500322e+001
6.719077e+002, 4.457147e+001
6.723898e+002, 4.418507e+001
6.728719e+002, 4.389162e+001
6.733540e+002, 4.380497e+001
6.738361e+002, 4.379169e+001
6.743182e+002, 4.365700e+001
6.748004e+002, 4.338702e+001
6.752825e+002, 4.300774e+001
6.757646e+002, 4.251126e+001
6.762467e+002, 4.198533e+001
6.767288e+002, 4.163011e+001
6.772109e+002, 4.150125e+001
6.776931e+002, 4.141503e+001
6.781752e+002, 4.138255e+001
6.786573e+002, 4.137654e+001
6.791394e+002, 4.145695e+001
6.796215e+002, 4.153380e+001
6.801036e+002, 4.145162e+001
6.805858e+002, 4.115216e+001
6.810679e+002, 4.078064e+001
6.815500e+002, 4.045188e+001
6.820321e+002, 4.016459e+001
6.825142e+002, 3.989898e+001
6.829963e+002, 3.965215e+001
6.834785e+002, 3.949309e+001
6.839606e+002, 3.948470e+001
6.844427e+002, 3.955851e+001
6.849248e+002, 3.954896e+001
6.854069e+002, 3.938775e+001
6.858890e+002, 3.930568e+001
6.863712e+002, 3.943480e+001
6.868533e+002, 3.951868e+001
6.873354e+002, 3.934633e+001
6.878175e+002, 3.904904e+001
6.882996e+002, 3.889821e+001
6.887817e+002, 3.899370e+001
6.892639e+002, 3.911782e+001
6.897460e+002, 3.896448e+001
6.902281e+002, 3.858582e+001
6.907102e+002, 3.837470e+001
6.911923e+002, 3.839770e+001
6.916744e+002, 3.834145e+001
6.921566e+002, 3.793425e+001
6.926387e+002, 3.743596e+001
6.931208e+002, 3.741771e+001
6.936029e+002, 3.800802e+001
6.940850e+002, 3.843244e+001
6.945671e+002, 3.848128e+001
6.950493e+002, 3.840735e+001
6.955314e+002, 3.834592e+001
6.960135e+002, 3.828953e+001
6.964956e+002, 3.818501e+001
6.969777e+002, 3.801660e+001
6.974598e+002, 3.784458e+001
6.979420e+002, 3.774815e+001
6.984241e+002, 3.772486e+001
6.989062e+002, 3.771267e+001
6.993883e+002, 3.770501e+001
6.998704e+002, 3.773381e+001
7.003525e+002, 3.791805e+001
7.008347e+002, 3.807040e+001
7.013168e+002, 3.788638e+001
7.017989e+002, 3.732776e+001
7.022810e+002, 3.691158e+001
7.027631e+002, 3.684560e+001
7.032452e+002, 3.690598e+001
7.037274e+002, 3.698837e+001
7.042095e+002, 3.706499e+001
7.046916e+002, 3.710267e+001
7.051737e+002, 3.709024e+001
7.056558e+002, 3.703265e+001
7.061379e+002, 3.692108e+001
7.066201e+002, 3.676154e+001
7.071022e+002, 3.666081e+001
7.075843e+002, 3.659591e+001
7.080664e+002, 3.664680e+001
7.085485e+002, 3.700598e+001
7.090306e+002, 3.736761e+001
7.095128e+002, 3.739435e+001
7.099949e+002, 3.710750e+001
7.104770e+002, 3.690293e+001
7.109591e+002, 3.700531e+001
7.114412e+002, 3.713785e+001
7.119233e+002, 3.708479e+001
7.124055e+002, 3.692027e+001
7.128876e+002, 3.678407e+001
7.133697e+002, 3.671365e+001
7.138518e+002, 3.667714e+001
7.143339e+002, 3.664865e+001
7.148160e+002, 3.662553e+001
7.152982e+002, 3.657528e+001
7.157803e+002, 3.644749e+001
7.162624e+002, 3.641359e+001
7.167445e+002, 3.664205e+001
7.172266e+002, 3.685956e+001
7.177087e+002, 3.682753e+001
7.181909e+002, 3.660781e+001
7.186730e+002, 3.647570e+001
7.191551e+002, 3.656363e+001
7.196372e+002, 3.669845e+001
7.201193e+002, 3.679208e+001
7.206014e+002, 3.684240e+001
7.210836e+002, 3.681921e+001
7.215657e+002, 3.673222e+001
7.220478e+002, 3.668414e+001
7.225299e+002, 3.676387e+001
7.230120e+002, 3.691593e+001
7.234941e+002, 3.692973e+001
7.239763e+002, 3.674504e+001
7.244584e+002, 3.658928e+001
7.249405e+002, 3.648556e+001
7.254226e+002, 3.641525e+001
7.259047e+002, 3.635303e+001
7.263868e+002, 3.631872e+001
7.268690e+002, 3.636349e+001
7.273511e+002, 3.652746e+001
7.278332e+002, 3.669022e+001
7.283153e+002, 3.678774e+001
7.287974e+002, 3.683723e+001
7.292795e+002, 3.686992e+001
7.297617e+002, 3.688100e+001
7.302438e+002, 3.681288e+001
7.307259e+002, 3.662406e+001
7.312080e+002, 3.641160e+001
7.316901e+002, 3.639019e+001
7.321722e+002, 3.662268e+001
7.326544e+002, 3.677883e+001
7.331365e+002, 3.680066e+001
7.336186e+002, 3.682606e+001
7.341007e+002, 3.697266e+001
7.345828e+002, 3.712522e+001
7.350649e+002, 3.711638e+001
7.355471e+002, 3.691209e+001
7.360292e+002, 3.670736e+001
7.365113e+002, 3.658091e+001
7.369934e+002, 3.650641e+001
7.374755e+002, 3.646939e+001
7.379576e+002, 3.646137e+001
7.384398e+002, 3.648918e+001
7.389219e+002, 3.655176e+001
7.394040e+002, 3.655661e+001
7.398861e+002, 3.636548e+001
7.403682e+002, 3.598268e+001
7.408503e+002, 3.572466e+001
7.413325e+002, 3.561000e+001
7.418146e+002, 3.558199e+001
7.422967e+002, 3.572699e+001
7.427788e+002, 3.587493e+001
7.432609e+002, 3.582882e+001
7.437430e+002, 3.562119e+001
7.442252e+002, 3.554473e+001
7.447073e+002, 3.585262e+001
7.451894e+002, 3.614406e+001
7.456715e+002, 3.611256e+001
7.461536e+002, 3.591445e+001
7.466357e+002, 3.576725e+001
7.471179e+002, 3.572237e+001
7.476000e+002, 3.578917e+001
7.480821e+002, 3.600060e+001
7.485642e+002, 3.627357e+001
7.490463e+002, 3.630648e+001
7.495284e+002, 3.602599e+001
7.500106e+002, 3.584755e+001
7.504927e+002, 3.588793e+001
7.509748e+002, 3.595468e+001
7.514569e+002, 3.588886e+001
7.519390e+002, 3.575750e+001
7.524211e+002, 3.570949e+001
7.529033e+002, 3.579189e+001
7.533854e+002, 3.588298e+001
7.538675e+002, 3.597138e+001
7.543496e+002, 3.602275e+001
7.548317e+002, 3.597969e+001
7.553138e+002, 3.587103e+001
7.557960e+002, 3.577729e+001
7.562781e+002, 3.573513e+001
7.567602e+002, 3.572171e+001
7.572423e+002, 3.572996e+001
7.577244e+002, 3.575616e+001
7.582065e+002, 3.564735e+001
7.586887e+002, 3.534397e+001
7.591708e+002, 3.510430e+001
7.596529e+002, 3.504755e+001
7.601350e+002, 3.510593e+001
7.606171e+002, 3.521668e+001
7.610992e+002, 3.539325e+001
7.615814e+002, 3.545458e+001
7.620635e+002, 3.527198e+001
7.625456e+002, 3.509060e+001
7.630277e+002, 3.503114e+001
7.635098e+002, 3.503426e+001
7.639919e+002, 3.500444e+001
7.644741e+002, 3.493618e+001
7.649562e+002, 3.491950e+001
7.654383e+002, 3.505113e+001
7.659204e+002, 3.524628e+001
7.664025e+002, 3.529057e+001
7.668846e+002, 3.519036e+001
7.673668e+002, 3.515152e+001
7.678489e+002, 3.523451e+001
7.683310e+002, 3.532262e+001
7.688131e+002, 3.531299e+001
7.692952e+002, 3.522538e+001
7.697773e+002, 3.517398e+001
7.702595e+002, 3.516755e+001
7.707416e+002, 3.518182e+001
7.712237e+002, 3.521885e+001
7.717058e+002, 3.527282e+001
7.721879e+002, 3.537716e+001
7.726700e+002, 3.548734e+001
7.731522e+002, 3.551319e+001
7.736343e+002, 3.541748e+001
7.741164e+002, 3.527895e+001
7.745985e+002, 3.515234e+001
7.750806e+002, 3.504391e+001
7.755627e+002, 3.494784e+001
7.760449e+002, 3.487128e+001
7.765270e+002, 3.491894e+001
7.770091e+002, 3.516167e+001
7.774912e+002, 3.542981e+001
7.779733e+002, 3.544976e+001
7.784554e+002, 3.517619e+001
7.789376e+002, 3.503296e+001
7.794197e+002, 3.508612e+001
7.799019e+002, 3.518372e+001
7.803840e+002, 3.541339e+001
7.808661e+002, 3.558518e+001
7.813482e+002, 3.543346e+001
7.818303e+002, 3.502178e+001
7.823124e+002, 3.479181e+001
7.827946e+002, 3.509393e+001
7.832767e+002, 3.543776e+001
7.837588e+002, 3.536641e+001
7.842409e+002, 3.507951e+001
7.847230e+002, 3.491000e+001
7.852051e+002, 3.491448e+001
7.856873e+002, 3.504488e+001
7.861694e+002, 3.528738e+001
7.866515e+002, 3.555768e+001
7.871336e+002, 3.560887e+001
7.876157e+002, 3.538216e+001
7.880978e+002, 3.527285e+001
7.885800e+002, 3.538721e+001
7.890621e+002, 3.548433e+001
7.895442e+002, 3.541258e+001
7.900263e+002, 3.525196e+001
7.905084e+002, 3.511036e+001
7.909905e+002, 3.497863e+001
7.914727e+002, 3.494185e+001
7.919548e+002, 3.509983e+001
7.924369e+002, 3.528031e+001
7.929190e+002, 3.537711e+001
7.934011e+002, 3.542080e+001
7.938832e+002, 3.547969e+001
7.943654e+002, 3.556551e+001
7.948475e+002, 3.562291e+001
7.953296e+002, 3.559354e+001
7.958117e+002, 3.550628e+001
7.962938e+002, 3.542273e+001
7.967759e+002, 3.534338e+001
7.972581e+002, 3.534614e+001
7.977402e+002, 3.548354e+001
7.982223e+002, 3.556134e+001
7.987044e+002, 3.536003e+001
7.991865e+002, 3.495417e+001
7.996686e+002, 3.478923e+001
8.001508e+002, 3.511851e+001
8.006329e+002, 3.532723e+001
8.011150e+002, 3.532774e+001
8.015971e+002, 3.528352e+001
8.020792e+002, 3.522255e+001
8.025613e+002, 3.520380e+001
8.030435e+002, 3.534304e+001
8.035256e+002, 3.568578e+001
8.040077e+002, 3.602773e+001
8.044898e+002, 3.625834e+001
8.049719e+002, 3.637295e+001
8.054540e+002, 3.631887e+001
8.059362e+002, 3.613554e+001
8.064183e+002, 3.595848e+001
8.069004e+002, 3.583617e+001
8.073825e+002, 3.579243e+001
8.078646e+002, 3.588916e+001
8.083467e+002, 3.609900e+001
8.088289e+002, 3.603359e+001
8.093110e+002, 3.554567e+001
8.097931e+002, 3.518646e+001
8.102752e+002, 3.517085e+001
8.107573e+002, 3.521302e+001
8.112394e+002, 3.507300e+001
8.117216e+002, 3.480386e+001
8.122037e+002, 3.457671e+001
8.126858e+002, 3.438757e+001
8.131679e+002, 3.428661e+001
8.136500e+002, 3.439720e+001
8.141321e+002, 3.451545e+001
8.146143e+002, 3.445380e+001
8.150964e+002, 3.425011e+001
8.155785e+002, 3.399294e+001
8.160606e+002, 3.372156e+001
8.165427e+002, 3.354791e+001
8.170248e+002, 3.368219e+001
8.175070e+002, 3.401568e+001
8.179891e+002, 3.414661e+001
8.184712e+002, 3.406947e+001
8.189533e+002, 3.399840e+001
8.194354e+002, 3.401547e+001
8.199175e+002, 3.403528e+001
8.203997e+002, 3.394435e+001
8.208818e+002, 3.374611e+001
8.213639e+002, 3.364833e+001
8.218460e+002, 3.373752e+001
8.223281e+002, 3.380023e+001
8.228102e+002, 3.383395e+001
8.232924e+002, 3.381792e+001
8.237745e+002, 3.365902e+001
8.242566e+002, 3.344750e+001
8.247387e+002, 3.342079e+001
8.252208e+002, 3.369787e+001
8.257029e+002, 3.399519e+001
8.261851e+002, 3.419130e+001
8.266672e+002, 3.428015e+001
8.271493e+002, 3.421434e+001
8.276314e+002, 3.403456e+001
8.281135e+002, 3.384419e+001
8.285956e+002, 3.368594e+001
8.290778e+002, 3.357834e+001
8.295599e+002, 3.355301e+001
8.300420e+002, 3.359912e+001
8.305241e+002, 3.364190e+001
8.310062e+002, 3.367665e+001
8.314883e+002, 3.373254e+001
8.319705e+002, 3.380438e+001
8.324526e+002, 3.393077e+001
8.329347e+002, 3.421197e+001
8.334168e+002, 3.460851e+001
8.338989e+002, 3.473661e+001
8.343810e+002, 3.431713e+001
8.348632e+002, 3.406060e+001
8.353453e+002, 3.415819e+001
8.358274e+002, 3.431202e+001
8.363095e+002, 3.436366e+001
8.367916e+002, 3.432452e+001
8.372737e+002, 3.421223e+001
8.377559e+002, 3.402302e+001
8.382380e+002, 3.392860e+001
8.387201e+002, 3.418191e+001
8.392022e+002, 3.451847e+001
8.396843e+002, 3.456380e+001
8.401664e+002, 3.437377e+001
8.406486e+002, 3.413673e+001
8.411307e+002, 3.391742e+001
8.416128e+002, 3.375701e+001
8.420949e+002, 3.368609e+001
8.425770e+002, 3.371911e+001
8.430591e+002, 3.397900e+001
8.435413e+002, 3.454854e+001
8.440234e+002, 3.490597e+001
8.445055e+002, 3.488670e+001
8.449876e+002, 3.480043e+001
8.454697e+002, 3.487156e+001
8.459518e+002, 3.503059e+001
8.464340e+002, 3.507143e+001
8.469161e+002, 3.494571e+001
8.473982e+002, 3.483790e+001
8.478803e+002, 3.471165e+001
8.483624e+002, 3.466851e+001
8.488445e+002, 3.479895e+001
8.493267e+002, 3.502385e+001
8.498088e+002, 3.529573e+001
8.502909e+002, 3.557543e+001
8.507730e+002, 3.568933e+001
8.512551e+002, 3.537854e+001
8.517372e+002, 3.499445e+001
8.522194e+002, 3.497056e+001
8.527015e+002, 3.520506e+001
8.531836e+002, 3.548806e+001
8.536657e+002, 3.576773e+001
8.541478e+002, 3.596674e+001
8.546299e+002, 3.601918e+001
8.551121e+002, 3.602666e+001
8.555942e+002, 3.628167e+001
8.560763e+002, 3.684846e+001
8.565584e+002, 3.705507e+001
8.570405e+002, 3.667956e+001
8.575226e+002, 3.648560e+001
8.580048e+002, 3.693835e+001
8.584869e+002, 3.762675e+001
8.589690e+002, 3.792066e+001
8.594511e+002, 3.778846e+001
8.599332e+002, 3.783809e+001
8.604153e+002, 3.834301e+001
8.608975e+002, 3.870916e+001
8.613796e+002, 3.865651e+001
8.618617e+002, 3.849276e+001
8.623438e+002, 3.844376e+001
8.628259e+002, 3.852983e+001
8.633080e+002, 3.872116e+001
8.637902e+002, 3.902899e+001
8.642723e+002, 3.934575e+001
8.647544e+002, 3.956725e+001
8.652365e+002, 3.975060e+001
8.657186e+002, 4.001501e+001
8.662007e+002, 4.032904e+001
8.666829e+002, 4.053924e+001
8.671650e+002, 4.058930e+001
8.676471e+002, 4.056236e+001
8.681292e+002, 4.052906e+001
8.686113e+002, 4.051060e+001
8.690934e+002, 4.065893e+001
8.695756e+002, 4.100138e+001
8.700577e+002, 4.131985e+001
8.705398e+002, 4.159144e+001
8.710219e+002, 4.177081e+001
8.715040e+002, 4.181250e+001
8.719861e+002, 4.173590e+001
8.724683e+002, 4.160817e+001
8.729504e+002, 4.137130e+001
8.734325e+002, 4.119273e+001
8.739146e+002, 4.114076e+001
8.743967e+002, 4.107203e+001
8.748788e+002, 4.092146e+001
8.753610e+002, 4.072143e+001
8.758431e+002, 4.049998e+001
8.763252e+002, 4.026661e+001
8.768073e+002, 4.007090e+001
8.772894e+002, 4.007875e+001
8.777715e+002, 3.998381e+001
8.782537e+002, 3.942685e+001
8.787358e+002, 3.867532e+001
8.792179e+002, 3.813082e+001
8.797000e+002, 3.781826e+001
8.801821e+002, 3.754665e+001
8.806642e+002, 3.720502e+001
8.811464e+002, 3.687326e+001
8.816285e+002, 3.674428e+001
8.821106e+002, 3.675142e+001
8.825927e+002, 3.645547e+001
8.830748e+002, 3.582880e+001
8.835569e+002, 3.529626e+001
8.840391e+002, 3.503902e+001
8.845212e+002, 3.485254e+001
8.850033e+002, 3.448027e+001
8.854854e+002, 3.393800e+001
8.859675e+002, 3.350256e+001
8.864496e+002, 3.322038e+001
8.869318e+002, 3.295550e+001
8.874139e+002, 3.261137e+001
8.878960e+002, 3.236771e+001
8.883781e+002, 3.240353e+001
8.888602e+002, 3.258662e+001
8.893423e+002, 3.266651e+001
8.898245e+002, 3.261839e+001
8.903066e+002, 3.246358e+001
8.907887e+002, 3.217995e+001
8.912708e+002, 3.182210e+001
8.917529e+002, 3.131930e+001
8.922350e+002, 3.081763e+001
8.927172e+002, 3.052803e+001
8.931993e+002, 3.045983e+001
8.936814e+002, 3.044828e+001
8.941635e+002, 3.041021e+001
8.946456e+002, 3.035142e+001
8.951277e+002, 3.025263e+001
8.956099e+002, 3.014597e+001
8.960920e+002, 3.015466e+001
8.965741e+002, 3.025446e+001
8.970562e+002, 3.020385e+001
8.975383e+002, 2.988124e+001
8.980204e+002, 2.949176e+001
8.985026e+002, 2.935287e+001
8.989847e+002, 2.943806e+001
8.994668e+002, 2.939222e+001
8.999489e+002, 2.918692e+001
9.004310e+002, 2.900351e+001
9.009131e+002, 2.888192e+001
9.013953e+002, 2.880882e+001
9.018774e+002, 2.878296e+001
9.023595e+002, 2.879519e+001
9.028416e+002, 2.880642e+001
9.033237e+002, 2.887087e+001
9.038058e+002, 2.883516e+001
9.042880e+002, 2.858080e+001
9.047701e+002, 2.836801e+001
9.052522e+002, 2.838684e+001
9.057343e+002, 2.845569e+001
9.062164e+002, 2.831460e+001
9.066985e+002, 2.795293e+001
9.071807e+002, 2.765295e+001
9.076628e+002, 2.751558e+001
9.081449e+002, 2.746403e+001
9.086270e+002, 2.755093e+001
9.091091e+002, 2.763468e+001
9.095912e+002, 2.751817e+001
9.100734e+002, 2.724778e+001
9.105555e+002, 2.701885e+001
9.110376e+002, 2.691854e+001
9.115197e+002, 2.686107e+001
9.120018e+002, 2.672198e+001
9.124839e+002, 2.657579e+001
9.129661e+002, 2.661347e+001
9.134482e+002, 2.679900e+001
9.139303e+002, 2.696014e+001
9.144124e+002, 2.704724e+001
9.148945e+002, 2.702467e+001
9.153766e+002, 2.684064e+001
9.158588e+002, 2.656729e+001
9.163409e+002, 2.644305e+001
9.168230e+002, 2.648672e+001
9.173051e+002, 2.650584e+001
9.177872e+002, 2.649131e+001
9.182693e+002, 2.642520e+001
9.187515e+002, 2.627640e+001
9.192336e+002, 2.609888e+001
9.197157e+002, 2.596677e+001
9.201978e+002, 2.587554e+001
9.206799e+002, 2.587092e+001
9.211620e+002, 2.609683e+001
9.216442e+002, 2.620849e+001
9.221263e+002, 2.606800e+001
9.226084e+002, 2.588518e+001
9.230905e+002, 2.581530e+001
9.235726e+002, 2.581006e+001
9.240547e+002, 2.572151e+001
9.245369e+002, 2.547894e+001
9.250190e+002, 2.534076e+001
9.255011e+002, 2.554421e+001
9.259832e+002, 2.573029e+001
9.264653e+002, 2.559297e+001
9.269474e+002, 2.532292e+001
9.274296e+002, 2.521685e+001
9.279117e+002, 2.529723e+001
9.283938e+002, 2.537000e+001
9.288759e+002, 2.531700e+001
9.293580e+002, 2.522408e+001
9.298401e+002, 2.515448e+001
9.303223e+002, 2.512608e+001
9.308044e+002, 2.520332e+001
9.312865e+002, 2.536103e+001
9.317686e+002, 2.550261e+001
9.322507e+002, 2.558572e+001
9.327328e+002, 2.556022e+001
9.332150e+002, 2.532026e+001
9.336971e+002, 2.495508e+001
9.341792e+002, 2.484861e+001
9.346613e+002, 2.500041e+001
9.351434e+002, 2.506360e+001
9.356255e+002, 2.496957e+001
9.361077e+002, 2.480761e+001
9.365898e+002, 2.460980e+001
9.370719e+002, 2.442947e+001
9.375540e+002, 2.439219e+001
9.380361e+002, 2.452802e+001
9.385182e+002, 2.464581e+001
9.390004e+002, 2.475797e+001
9.394825e+002, 2.482886e+001
9.399646e+002, 2.486386e+001
9.404467e+002, 2.483890e+001
9.409288e+002, 2.470342e+001
9.414109e+002, 2.448314e+001
9.418931e+002, 2.428705e+001
9.423752e+002, 2.404133e+001
9.428573e+002, 2.396297e+001
9.433394e+002, 2.427748e+001
9.438215e+002, 2.454432e+001
9.443036e+002, 2.443286e+001
9.447858e+002, 2.419925e+001
9.452679e+002, 2.425264e+001
9.457500e+002, 2.460257e+001
9.462321e+002, 2.478731e+001
9.467142e+002, 2.448658e+001
9.471964e+002, 2.412997e+001
9.476785e+002, 2.395420e+001
9.481606e+002, 2.387532e+001
9.486427e+002, 2.379226e+001
9.491248e+002, 2.372297e+001
9.496069e+002, 2.376618e+001
9.500891e+002, 2.395236e+001
9.505712e+002, 2.412881e+001
9.510533e+002, 2.413311e+001
9.515354e+002, 2.405284e+001
9.520175e+002, 2.404556e+001
9.524996e+002, 2.407369e+001
9.529818e+002, 2.401350e+001
9.534639e+002, 2.385372e+001
9.539460e+002, 2.368332e+001
9.544281e+002, 2.355224e+001
9.549102e+002, 2.348963e+001
9.553923e+002, 2.359768e+001
9.558745e+002, 2.384551e+001
9.563566e+002, 2.390506e+001
9.568387e+002, 2.376208e+001
9.573208e+002, 2.366185e+001
9.578029e+002, 2.368277e+001
9.582850e+002, 2.374112e+001
9.587672e+002, 2.376179e+001
9.592493e+002, 2.375505e+001
9.597314e+002, 2.376708e+001
9.602135e+002, 2.381421e+001
9.606956e+002, 2.381997e+001
9.611777e+002, 2.377532e+001
9.616599e+002, 2.370006e+001
9.621420e+002, 2.358852e+001
9.626241e+002, 2.346356e+001
9.631062e+002, 2.334052e+001
9.635883e+002, 2.321982e+001
9.640704e+002, 2.316132e+001
9.645526e+002, 2.319802e+001
9.650347e+002, 2.324498e+001
9.655168e+002, 2.331296e+001
9.659989e+002, 2.337039e+001
9.664810e+002, 2.339299e+001
9.669631e+002, 2.339749e+001
9.674453e+002, 2.343029e+001
9.679274e+002, 2.350010e+001
9.684095e+002, 2.347921e+001
9.688916e+002, 2.321633e+001
9.693737e+002, 2.300003e+001
9.698558e+002, 2.299730e+001
9.703380e+002, 2.306688e+001
9.708201e+002, 2.309167e+001
9.713022e+002, 2.306716e+001
9.717843e+002, 2.299968e+001
9.722664e+002, 2.288399e+001
9.727485e+002, 2.285199e+001
9.732307e+002, 2.308718e+001
9.737128e+002, 2.336071e+001
9.741949e+002, 2.347989e+001
9.746770e+002, 2.346201e+001
9.751591e+002, 2.327690e+001
9.756412e+002, 2.298219e+001
9.761234e+002, 2.282005e+001
9.766055e+002, 2.294166e+001
9.770876e+002, 2.308984e+001
9.775698e+002, 2.284675e+001
9.780519e+002, 2.244630e+001
9.785340e+002, 2.246066e+001
9.790161e+002, 2.280527e+001
9.794982e+002, 2.303956e+001
9.799803e+002, 2.305226e+001
9.804625e+002, 2.302190e+001
9.809446e+002, 2.309484e+001
9.814267e+002, 2.320337e+001
9.819088e+002, 2.317581e+001
9.823909e+002, 2.303241e+001
9.828730e+002, 2.298328e+001
9.833552e+002, 2.304338e+001
9.838373e+002, 2.308785e+001
9.843194e+002, 2.306545e+001
9.848015e+002, 2.305968e+001
9.852836e+002, 2.318507e+001
9.857657e+002, 2.338086e+001
9.862479e+002, 2.329846e+001
9.867300e+002, 2.284660e+001
9.872121e+002, 2.262744e+001
9.876942e+002, 2.277224e+001
9.881763e+002, 2.290094e+001
9.886584e+002, 2.282874e+001
9.891406e+002, 2.266318e+001
9.896227e+002, 2.251716e+001
9.901048e+002, 2.239159e+001
9.905869e+002, 2.248084e+001
9.910690e+002, 2.300624e+001
9.915511e+002, 2.331023e+001
9.920333e+002, 2.318402e+001
9.925154e+002, 2.300471e+001
9.929975e+002, 2.296672e+001
9.934796e+002, 2.300044e+001
9.939617e+002, 2.301166e+001
9.944438e+002, 2.300331e+001
9.949260e+002, 2.293036e+001
9.954081e+002, 2.259208e+001
9.958902e+002, 2.246440e+001
9.963723e+002, 2.286841e+001
9.968544e+002, 2.329830e+001
9.973365e+002, 2.336984e+001
9.978187e+002, 2.323064e+001
9.983008e+002, 2.323018e+001
9.987829e+002, 2.344818e+001
9.992650e+002, 2.349810e+001
9.997471e+002, 2.308827e+001
1.000229e+003, 2.270124e+001
1.000711e+003, 2.255851e+001
1.001193e+003, 2.254368e+001
1.001676e+003, 2.253232e+001
1.002158e+003, 2.254596e+001
1.002640e+003, 2.271210e+001
1.003122e+003, 2.309142e+001
1.003604e+003, 2.337020e+001
1.004086e+003, 2.326987e+001
1.004568e+003, 2.310544e+001
1.005050e+003, 2.314920e+001
1.005533e+003, 2.327669e+001
1.006015e+003, 2.330342e+001
1.006497e+003, 2.323092e+001
1.006979e+003, 2.316899e+001
1.007461e+003, 2.316754e+001
1.007943e+003, 2.317202e+001
1.008425e+003, 2.312288e+001
1.008907e+003, 2.306145e+001
1.009389e+003, 2.304596e+001
1.009872e+003, 2.305938e+001
1.010354e+003, 2.307084e+001
1.010836e+003, 2.306977e+001
1.011318e+003, 2.302374e+001
1.011800e+003, 2.290112e+001
1.012282e+003, 2.283849e+001
1.012764e+003, 2.311761e+001
1.013246e+003, 2.353288e+001
1.013729e+003, 2.358868e+001
1.014211e+003, 2.336734e+001
1.014693e+003, 2.323308e+001
1.015175e+003, 2.326216e+001
1.015657e+003, 2.328670e+001
1.016139e+003, 2.318637e+001
1.016621e+003, 2.303833e+001
1.017103e+003, 2.296079e+001
1.017585e+003, 2.295065e+001
1.018068e+003, 2.301155e+001
1.018550e+003, 2.313525e+001
1.019032e+003, 2.326937e+001
1.019514e+003, 2.339798e+001
1.019996e+003, 2.341963e+001
1.020478e+003, 2.323208e+001
1.020960e+003, 2.295366e+001
1.021442e+003, 2.287539e+001
1.021924e+003, 2.298885e+001
1.022407e+003, 2.305778e+001
1.022889e+003, 2.307009e+001
1.023371e+003, 2.314057e+001
1.023853e+003, 2.332589e+001
1.024335e+003, 2.343204e+001
1.024817e+003, 2.325976e+001
1.025299e+003, 2.292273e+001
1.025781e+003, 2.277530e+001
1.026264e+003, 2.283357e+001
1.026746e+003, 2.295422e+001
1.027228e+003, 2.314730e+001
1.027710e+003, 2.335183e+001
1.028192e+003, 2.357867e+001
1.028674e+003, 2.371286e+001
1.029156e+003, 2.360683e+001
1.029638e+003, 2.334366e+001
1.030120e+003, 2.327113e+001
1.030603e+003, 2.345504e+001
1.031085e+003, 2.358017e+001
1.031567e+003, 2.360511e+001
1.032049e+003, 2.366974e+001
1.032531e+003, 2.387502e+001
1.033013e+003, 2.404920e+001
1.033495e+003, 2.398540e+001
1.033977e+003, 2.374671e+001
1.034459e+003, 2.365614e+001
1.034942e+003, 2.378782e+001
1.035424e+003, 2.389485e+001
1.035906e+003, 2.400283e+001
1.036388e+003, 2.403855e+001
1.036870e+003, 2.392011e+001
1.037352e+003, 2.377818e+001
1.037834e+003, 2.374509e+001
1.038316e+003, 2.380377e+001
1.038799e+003, 2.385071e+001
1.039281e+003, 2.386437e+001
1.039763e+003, 2.390841e+001
1.040245e+003, 2.398328e+001
1.040727e+003, 2.408863e+001
1.041209e+003, 2.431911e+001
1.041691e+003, 2.450663e+001
1.042173e+003, 2.442951e+001
1.042656e+003, 2.415283e+001
1.043138e+003, 2.402345e+001
1.043620e+003, 2.416203e+001
1.044102e+003, 2.423050e+001
1.044584e+003, 2.408873e+001
1.045066e+003, 2.402310e+001
1.045548e+003, 2.426052e+001
1.046030e+003, 2.452713e+001
1.046512e+003, 2.451821e+001
1.046995e+003, 2.429043e+001
1.047477e+003, 2.414389e+001
1.047959e+003, 2.413619e+001
1.048441e+003, 2.415279e+001
1.048923e+003, 2.423409e+001
1.049405e+003, 2.426744e+001
1.049887e+003, 2.414098e+001
1.050369e+003, 2.399506e+001
1.050851e+003, 2.397785e+001
1.051334e+003, 2.407047e+001
1.051816e+003, 2.417092e+001
1.052298e+003, 2.429675e+001
1.052780e+003, 2.433392e+001
1.053262e+003, 2.415878e+001
1.053744e+003, 2.400731e+001
1.054226e+003, 2.405615e+001
1.054708e+003, 2.412883e+001
1.055191e+003, 2.401253e+001
1.055673e+003, 2.375504e+001
1.056155e+003, 2.356597e+001
1.056637e+003, 2.348962e+001
1.057119e+003, 2.348287e+001
1.057601e+003, 2.362469e+001
1.058083e+003, 2.372283e+001
1.058565e+003, 2.358406e+001
1.059047e+003, 2.343095e+001
1.059530e+003, 2.354426e+001
1.060012e+003, 2.384200e+001
1.060494e+003, 2.401252e+001
1.060976e+003, 2.395614e+001
1.061458e+003, 2.388982e+001
1.061940e+003, 2.390252e+001
1.062422e+003, 2.390961e+001
1.062904e+003, 2.383303e+001
1.063386e+003, 2.375586e+001
1.063869e+003, 2.379504e+001
1.064351e+003, 2.390190e+001
1.064833e+003, 2.392823e+001
1.065315e+003, 2.383196e+001
1.065797e+003, 2.369601e+001
1.066279e+003, 2.347901e+001
1.066761e+003, 2.332318e+001
1.067243e+003, 2.334201e+001
1.067726e+003, 2.342901e+001
1.068208e+003, 2.351721e+001
1.068690e+003, 2.357517e+001
1.069172e+003, 2.354082e+001
1.069654e+003, 2.339124e+001
1.070136e+003, 2.329436e+001
1.070618e+003, 2.338084e+001
1.071100e+003, 2.346657e+001
1.071583e+003, 2.338980e+001
1.072065e+003, 2.332230e+001
1.072547e+003, 2.348002e+001
1.073029e+003, 2.376095e+001
1.073511e+003, 2.390614e+001
1.073993e+003, 2.385894e+001
1.074475e+003, 2.388026e+001
1.074957e+003, 2.413717e+001
1.075439e+003, 2.442251e+001
1.075922e+003, 2.476131e+001
1.076404e+003, 2.496614e+001
1.076886e+003, 2.475360e+001
1.077368e+003, 2.433020e+001
1.077850e+003, 2.408259e+001
1.078332e+003, 2.407737e+001
1.078814e+003, 2.412027e+001
1.079296e+003, 2.412787e+001
1.079779e+003, 2.416529e+001
1.080261e+003, 2.423436e+001
1.080743e+003, 2.437411e+001
1.081225e+003, 2.473118e+001
1.081707e+003, 2.512269e+001
1.082189e+003, 2.521444e+001
1.082671e+003, 2.500214e+001
1.083153e+003, 2.487965e+001
1.083635e+003, 2.506020e+001
1.084118e+003, 2.523856e+001
1.084600e+003, 2.534001e+001
1.085082e+003, 2.532369e+001
1.085564e+003, 2.502952e+001
1.086046e+003, 2.467656e+001
1.086528e+003, 2.457488e+001
1.087010e+003, 2.472227e+001
1.087492e+003, 2.489428e+001
1.087974e+003, 2.506228e+001
1.088457e+003, 2.513202e+001
1.088939e+003, 2.496554e+001
1.089421e+003, 2.480072e+001
1.089903e+003, 2.475729e+001
1.090385e+003, 2.481881e+001
1.090867e+003, 2.503366e+001
1.091349e+003, 2.532693e+001
1.091831e+003, 2.545625e+001
1.092314e+003, 2.531903e+001
1.092796e+003, 2.517253e+001
1.093278e+003, 2.509233e+001
1.093760e+003, 2.504803e+001
1.094242e+003, 2.501265e+001
1.094724e+003, 2.501473e+001
1.095206e+003, 2.511104e+001
1.095688e+003, 2.526281e+001
1.096171e+003, 2.537379e+001
1.096653e+003, 2.542358e+001
1.097135e+003, 2.544193e+001
1.097617e+003, 2.541307e+001
1.098099e+003, 2.538683e+001
1.098581e+003, 2.537630e+001
1.099063e+003, 2.538220e+001
1.099545e+003, 2.542838e+001
1.100027e+003, 2.548231e+001
1.100510e+003, 2.550088e+001
1.100992e+003, 2.547928e+001
1.101474e+003, 2.535430e+001
1.101956e+003, 2.494341e+001
1.102438e+003, 2.466936e+001
1.102920e+003, 2.477595e+001
1.103402e+003, 2.491011e+001
1.103884e+003, 2.477958e+001
1.104366e+003, 2.458280e+001
1.104849e+003, 2.466234e+001
1.105331e+003, 2.501211e+001
1.105813e+003, 2.520473e+001
1.106295e+003, 2.503568e+001
1.106777e+003, 2.492964e+001
1.107259e+003, 2.496302e+001
1.107741e+003, 2.504683e+001
1.108223e+003, 2.531175e+001
1.108706e+003, 2.548015e+001
1.109188e+003, 2.510504e+001
1.109670e+003, 2.433052e+001
1.110152e+003, 2.396297e+001
1.110634e+003, 2.426079e+001
1.111116e+003, 2.448474e+001
1.111598e+003, 2.462826e+001
1.112080e+003, 2.465548e+001
1.112563e+003, 2.444526e+001
1.113045e+003, 2.421512e+001
1.113527e+003, 2.415697e+001
1.114009e+003, 2.420572e+001
1.114491e+003, 2.418762e+001
1.114973e+003, 2.408632e+001
1.115455e+003, 2.398756e+001
1.115937e+003, 2.385613e+001
1.116419e+003, 2.378980e+001
1.116901e+003, 2.382234e+001
1.117384e+003, 2.390352e+001
1.117866e+003, 2.403501e+001
1.118348e+003, 2.417142e+001
1.118830e+003, 2.424262e+001
1.119312e+003, 2.424859e+001
1.119794e+003, 2.416888e+001
1.120276e+003, 2.396022e+001
1.120758e+003, 2.376235e+001
1.121241e+003, 2.351226e+001
1.121723e+003, 2.346223e+001
1.122205e+003, 2.382054e+001
1.122687e+003, 2.426577e+001
1.123169e+003, 2.441880e+001
1.123651e+003, 2.431966e+001
1.124133e+003, 2.418800e+001
1.124615e+003, 2.401849e+001
1.125098e+003, 2.382697e+001
1.125580e+003, 2.358078e+001
1.126062e+003, 2.347907e+001
1.126544e+003, 2.363376e+001
1.127026e+003, 2.378061e+001
1.127508e+003, 2.369186e+001
1.127990e+003, 2.344803e+001
1.128472e+003, 2.322572e+001
1.128954e+003, 2.302243e+001
1.129437e+003, 2.295099e+001
1.129919e+003, 2.301929e+001
1.130401e+003, 2.310170e+001
1.130883e+003, 2.317661e+001
1.131365e+003, 2.320301e+001
1.131847e+003, 2.315021e+001
1.132329e+003, 2.307633e+001
1.132811e+003, 2.307316e+001
1.133293e+003, 2.312187e+001
1.133776e+003, 2.312327e+001
1.134258e+003, 2.308710e+001
1.134740e+003, 2.313342e+001
1.135222e+003, 2.326378e+001
1.135704e+003, 2.328578e+001
1.136186e+003, 2.312323e+001
1.136668e+003, 2.298217e+001
1.137150e+003, 2.307001e+001
1.137633e+003, 2.329462e+001
1.138115e+003, 2.355563e+001
1.138597e+003, 2.378082e+001
1.139079e+003, 2.366332e+001
1.139561e+003, 2.329339e+001
1.140043e+003, 2.309959e+001
1.140525e+003, 2.317105e+001
1.141007e+003, 2.329978e+001
1.141490e+003, 2.336319e+001
1.141972e+003, 2.335257e+001
1.142454e+003, 2.320016e+001
1.142936e+003, 2.300739e+001
1.143418e+003, 2.293129e+001
1.143900e+003, 2.294799e+001
1.144382e+003, 2.304536e+001
1.144864e+003, 2.317729e+001
1.145346e+003, 2.321112e+001
1.145828e+003, 2.309691e+001
1.146311e+003, 2.294530e+001
1.146793e+003, 2.279334e+001
1.147275e+003, 2.269655e+001
1.147757e+003, 2.276295e+001
1.148239e+003, 2.286963e+001
1.148721e+003, 2.283603e+001
1.149203e+003, 2.273935e+001
1.149685e+003, 2.278074e+001
1.150168e+003, 2.297415e+001
1.150650e+003, 2.309893e+001
1.151132e+003, 2.300082e+001
1.151614e+003, 2.295096e+001
1.152096e+003, 2.317875e+001
1.152578e+003, 2.340293e+001
1.153060e+003, 2.337976e+001
1.153542e+003, 2.328220e+001
1.154025e+003, 2.328836e+001
1.154507e+003, 2.341636e+001
1.154989e+003, 2.369585e+001
1.155471e+003, 2.421927e+001
1.155953e+003, 2.444744e+001
1.156435e+003, 2.404372e+001
1.156917e+003, 2.361872e+001
1.157399e+003, 2.332723e+001
1.157881e+003, 2.312027e+001
1.158364e+003, 2.297296e+001
1.158846e+003, 2.287795e+001
1.159328e+003, 2.284331e+001
1.159810e+003, 2.287110e+001
1.160292e+003, 2.285553e+001
1.160774e+003, 2.279057e+001
1.161256e+003, 2.269356e+001
1.161738e+003, 2.257931e+001
1.162220e+003, 2.239616e+001
1.162703e+003, 2.199542e+001
1.163185e+003, 2.171472e+001
1.163667e+003, 2.198567e+001
1.164149e+003, 2.256738e+001
1.164631e+003, 2.263108e+001
1.165113e+003, 2.208246e+001
1.165595e+003, 2.156866e+001
1.166077e+003, 2.105088e+001
1.166560e+003, 2.074452e+001
1.167042e+003, 2.071957e+001
1.167524e+003, 2.079503e+001
1.168006e+003, 2.087341e+001
1.168488e+003, 2.096067e+001
1.168970e+003, 2.108035e+001
1.169452e+003, 2.120552e+001
1.169934e+003, 2.116995e+001
1.170417e+003, 2.098774e+001
1.170899e+003, 2.088151e+001
1.171381e+003, 2.086443e+001
1.171863e+003, 2.077224e+001
1.172345e+003, 2.055426e+001
1.172827e+003, 2.038151e+001
1.173309e+003, 2.040339e+001
1.173791e+003, 2.050336e+001
1.174273e+003, 2.047779e+001
1.174755e+003, 2.038627e+001
1.175238e+003, 2.039009e+001
1.175720e+003, 2.044773e+001
1.176202e+003, 2.041630e+001
1.176684e+003, 2.029514e+001
1.177166e+003, 2.019418e+001
1.177648e+003, 2.016058e+001
1.178130e+003, 2.016107e+001
1.178612e+003, 2.018821e+001
1.179095e+003, 2.021099e+001
1.179577e+003, 2.018707e+001
1.180059e+003, 2.014980e+001
1.180541e+003, 2.017196e+001
1.181023e+003, 2.019974e+001
1.181505e+003, 2.006496e+001
1.181987e+003, 1.979324e+001
1.182469e+003, 1.971082e+001
1.182952e+003, 2.005193e+001
1.183434e+003, 2.029847e+001
1.183916e+003, 2.008461e+001
1.184398e+003, 1.987650e+001
1.184880e+003, 1.996948e+001
1.185362e+003, 2.015937e+001
1.185844e+003, 2.029135e+001
1.186326e+003, 2.033984e+001
1.186808e+003, 2.027802e+001
1.187291e+003, 2.009411e+001
1.187773e+003, 1.988190e+001
1.188255e+003, 1.950709e+001
1.188737e+003, 1.933081e+001
1.189219e+003, 1.953322e+001
1.189701e+003, 1.973703e+001
1.190183e+003, 1.978360e+001
1.190665e+003, 1.975252e+001
1.191147e+003, 1.969513e+001
1.191630e+003, 1.964382e+001
1.192112e+003, 1.978371e+001
1.192594e+003, 2.023807e+001
1.193076e+003, 2.017926e+001
1.193558e+003, 1.944366e+001
1.194040e+003, 1.908500e+001
1.194522e+003, 1.940526e+001
1.195004e+003, 1.972090e+001
1.195487e+003, 1.960516e+001
1.195969e+003, 1.936786e+001
1.196451e+003, 1.944735e+001
1.196933e+003, 1.976596e+001
1.197415e+003, 2.008463e+001
1.197897e+003, 2.037643e+001
1.198379e+003, 2.045379e+001
1.198861e+003, 2.033006e+001
1.199344e+003, 2.017001e+001
1.199826e+003, 2.002645e+001
1.200308e+003, 1.988501e+001
1.200790e+003, 1.973127e+001
1.201272e+003, 1.960024e+001
1.201754e+003, 1.954723e+001
1.202236e+003, 1.953165e+001
1.202718e+003, 1.951187e+001
1.203200e+003, 1.947854e+001
1.203682e+003, 1.937303e+001
1.204165e+003, 1.924995e+001
1.204647e+003, 1.930295e+001
1.205129e+003, 1.956643e+001
1.205611e+003, 1.972504e+001
1.206093e+003, 1.948455e+001
1.206575e+003, 1.931202e+001
1.207057e+003, 1.955985e+001
1.207539e+003, 1.983302e+001
1.208022e+003, 1.987042e+001
1.208504e+003, 1.977346e+001
1.208986e+003, 1.960411e+001
1.209468e+003, 1.942817e+001
1.209950e+003, 1.944781e+001
1.210432e+003, 1.975767e+001
1.210914e+003, 1.995850e+001
1.211396e+003, 2.000186e+001
1.211879e+003, 1.995931e+001
1.212361e+003, 1.975773e+001
1.212843e+003, 1.960346e+001
1.213325e+003, 1.963113e+001
1.213807e+003, 1.971408e+001
1.214289e+003, 1.969703e+001
1.214771e+003, 1.960292e+001
1.215253e+003, 1.954348e+001
1.215735e+003, 1.952404e+001
1.216218e+003, 1.947521e+001
1.216700e+003, 1.938581e+001
1.217182e+003, 1.943505e+001
1.217664e+003, 1.967333e+001
1.218146e+003, 1.981861e+001
1.218628e+003, 1.969677e+001
1.219110e+003, 1.950336e+001
1.219592e+003, 1.951189e+001
1.220074e+003, 1.961441e+001
1.220557e+003, 1.952592e+001
1.221039e+003, 1.933195e+001
1.221521e+003, 1.923210e+001
1.222003e+003, 1.924313e+001
1.222485e+003, 1.938798e+001
1.222967e+003, 1.963832e+001
1.223449e+003, 1.984220e+001
1.223931e+003, 1.992072e+001
1.224414e+003, 1.991352e+001
1.224896e+003, 1.976741e+001
1.225378e+003, 1.964190e+001
1.225860e+003, 1.970547e+001
1.226342e+003, 1.982454e+001
1.226824e+003, 1.987529e+001
1.227306e+003, 1.986037e+001
1.227788e+003, 1.976542e+001
1.228271e+003, 1.960850e+001
1.228753e+003, 1.962151e+001
1.229235e+003, 2.000994e+001
1.229717e+003, 2.028658e+001
1.230199e+003, 2.039849e+001
1.230681e+003, 2.037012e+001
1.231163e+003, 2.016169e+001
1.231645e+003, 1.987062e+001
1.232127e+003, 1.947081e+001
1.232609e+003, 1.912898e+001
1.233092e+003, 1.921010e+001
1.233574e+003, 1.970146e+001
1.234056e+003, 2.001068e+001
1.234538e+003, 2.012808e+001
1.235020e+003, 2.011550e+001
1.235502e+003, 1.996566e+001
1.235984e+003, 1.988460e+001
1.236466e+003, 1.994436e+001
1.236949e+003, 2.005675e+001
1.237431e+003, 2.016109e+001
1.237913e+003, 2.022675e+001
1.238395e+003, 2.019864e+001
1.238877e+003, 2.009704e+001
1.239359e+003, 1.993940e+001
1.239841e+003, 1.975982e+001
1.240323e+003, 1.963717e+001
1.240806e+003, 1.956933e+001
1.241288e+003, 1.950671e+001
1.241770e+003, 1.944050e+001
1.242252e+003, 1.942755e+001
1.242734e+003, 1.952387e+001
1.243216e+003, 1.961563e+001
1.243698e+003, 1.961020e+001
1.244180e+003, 1.959631e+001
1.244662e+003, 1.967335e+001
1.245145e+003, 1.974051e+001
1.245627e+003, 1.963981e+001
1.246109e+003, 1.946228e+001
1.246591e+003, 1.944928e+001
1.247073e+003, 1.963691e+001
1.247555e+003, 1.971484e+001
1.248037e+003, 1.956203e+001
1.248519e+003, 1.950333e+001
1.249001e+003, 1.963096e+001
1.249484e+003, 1.967744e+001
1.249966e+003, 1.949521e+001
1.250448e+003, 1.935932e+001
1.250930e+003, 1.950938e+001
1.251412e+003, 1.979385e+001
1.251894e+003, 1.992997e+001
1.252376e+003, 1.992807e+001
1.252858e+003, 1.982644e+001
1.253341e+003, 1.964428e+001
1.253823e+003, 1.954910e+001
1.254305e+003, 1.955303e+001
1.254787e+003, 1.963861e+001
1.255269e+003, 1.978193e+001
1.255751e+003, 1.982801e+001
1.256233e+003, 1.966223e+001
1.256715e+003, 1.944266e+001
1.257198e+003, 1.929066e+001
1.257680e+003, 1.922310e+001
1.258162e+003, 1.930931e+001
1.258644e+003, 1.945166e+001
1.259126e+003, 1.954726e+001
1.259608e+003, 1.958978e+001
1.260090e+003, 1.956378e+001
1.260572e+003, 1.948721e+001
1.261054e+003, 1.951484e+001
1.261536e+003, 1.976226e+001
1.262019e+003, 1.994951e+001
1.262501e+003, 2.000586e+001
1.262983e+003, 2.001737e+001
1.263465e+003, 2.002341e+001
1.263947e+003, 1.996986e+001
1.264429e+003, 1.976615e+001
1.264911e+003, 1.954971e+001
1.265393e+003, 1.954186e+001
1.265876e+003, 1.970706e+001
1.266358e+003, 1.979784e+001
1.266840e+003, 1.980857e+001
1.267322e+003, 1.985814e+001
1.267804e+003, 1.995081e+001
1.268286e+003, 1.996205e+001
1.268768e+003, 1.986686e+001
1.269250e+003, 1.976317e+001
1.269733e+003, 1.970518e+001
1.270215e+003, 1.966669e+001
1.270697e+003, 1.962032e+001
1.271179e+003, 1.957555e+001
1.271661e+003, 1.953015e+001
1.272143e+003, 1.950665e+001
1.272625e+003, 1.955446e+001
1.273107e+003, 1.964004e+001
1.273589e+003, 1.969801e+001
1.274072e+003, 1.972924e+001
1.274554e+003, 1.978422e+001
1.275036e+003, 1.988195e+001
1.275518e+003, 1.995788e+001
1.276000e+003, 1.998431e+001
1.276482e+003, 1.999555e+001
1.276964e+003, 1.998822e+001
1.277446e+003, 1.998681e+001
1.277929e+003, 1.999132e+001
1.278411e+003, 2.001330e+001
1.278893e+003, 2.008382e+001
1.279375e+003, 2.016477e+001
1.279857e+003, 2.014528e+001
1.280339e+003, 2.002404e+001
1.280821e+003, 1.990380e+001
1.281303e+003, 1.978687e+001
1.281786e+003, 1.968567e+001
1.282268e+003, 1.960044e+001
##END=



