##NAMES=Thometzekite
##RRUFFID=R130618
##IDEAL CHEMISTRY=Pb^2+^Cu^2+^_2_(As^5+^O_4_)_2_&#183;2H_2_O
##LOCALITY=Tsumeb mine, Tsumeb, Otjikoto Region, Namibia
##OWNER=RRUFF
##SOURCE=Mark N. Feinglos
##DESCRIPTION=Light blue-green with unidentified deeper green material.
##STATUS=The identification of this mineral has been confirmed only by single crystal X-ray diffraction.
##URL=rruff.info/R130618
8.813672e+001, 2.437451e+003
8.861884e+001, 2.465226e+003
8.910095e+001, 2.494704e+003
8.958307e+001, 2.538101e+003
9.006519e+001, 2.590181e+003
9.054730e+001, 2.637085e+003
9.102942e+001, 2.680186e+003
9.151154e+001, 2.718312e+003
9.199365e+001, 2.749449e+003
9.247577e+001, 2.775141e+003
9.295789e+001, 2.799086e+003
9.344000e+001, 2.824070e+003
9.392212e+001, 2.847027e+003
9.440424e+001, 2.866568e+003
9.488635e+001, 2.886124e+003
9.536847e+001, 2.906430e+003
9.585059e+001, 2.926674e+003
9.633270e+001, 2.946529e+003
9.681482e+001, 2.967772e+003
9.729694e+001, 2.991890e+003
9.777905e+001, 3.018868e+003
9.826117e+001, 3.047374e+003
9.874329e+001, 3.077450e+003
9.922540e+001, 3.108500e+003
9.970752e+001, 3.137436e+003
1.001896e+002, 3.163167e+003
1.006718e+002, 3.187778e+003
1.011539e+002, 3.213498e+003
1.016360e+002, 3.240395e+003
1.021181e+002, 3.268843e+003
1.026002e+002, 3.298843e+003
1.030823e+002, 3.330473e+003
1.035645e+002, 3.363201e+003
1.040466e+002, 3.397562e+003
1.045287e+002, 3.433091e+003
1.050108e+002, 3.469778e+003
1.054929e+002, 3.507675e+003
1.059750e+002, 3.546820e+003
1.064572e+002, 3.587700e+003
1.069393e+002, 3.635271e+003
1.074214e+002, 3.676268e+003
1.079035e+002, 3.707948e+003
1.083856e+002, 3.733302e+003
1.088677e+002, 3.761066e+003
1.093499e+002, 3.793679e+003
1.098320e+002, 3.827575e+003
1.103141e+002, 3.861210e+003
1.107962e+002, 3.893066e+003
1.112783e+002, 3.927170e+003
1.117604e+002, 3.964190e+003
1.122426e+002, 4.004319e+003
1.127247e+002, 4.046225e+003
1.132068e+002, 4.090561e+003
1.136889e+002, 4.136295e+003
1.141710e+002, 4.182261e+003
1.146531e+002, 4.230040e+003
1.151353e+002, 4.276084e+003
1.156174e+002, 4.319575e+003
1.160995e+002, 4.360268e+003
1.165816e+002, 4.400747e+003
1.170637e+002, 4.441102e+003
1.175458e+002, 4.481681e+003
1.180280e+002, 4.523414e+003
1.185101e+002, 4.566773e+003
1.189922e+002, 4.610864e+003
1.194743e+002, 4.654387e+003
1.199564e+002, 4.697265e+003
1.204385e+002, 4.740850e+003
1.209207e+002, 4.784746e+003
1.214028e+002, 4.829889e+003
1.218849e+002, 4.877753e+003
1.223670e+002, 4.935287e+003
1.228491e+002, 4.993750e+003
1.233312e+002, 5.042413e+003
1.238134e+002, 5.078575e+003
1.242955e+002, 5.111616e+003
1.247776e+002, 5.148724e+003
1.252597e+002, 5.189649e+003
1.257418e+002, 5.233476e+003
1.262239e+002, 5.282519e+003
1.267061e+002, 5.334204e+003
1.271882e+002, 5.381827e+003
1.276703e+002, 5.424247e+003
1.281524e+002, 5.463921e+003
1.286345e+002, 5.503421e+003
1.291166e+002, 5.542814e+003
1.295988e+002, 5.583014e+003
1.300809e+002, 5.626825e+003
1.305630e+002, 5.672595e+003
1.310451e+002, 5.713531e+003
1.315272e+002, 5.747007e+003
1.320093e+002, 5.774969e+003
1.324915e+002, 5.801274e+003
1.329736e+002, 5.825534e+003
1.334557e+002, 5.850614e+003
1.339378e+002, 5.879542e+003
1.344199e+002, 5.912212e+003
1.349020e+002, 5.943494e+003
1.353842e+002, 5.971927e+003
1.358663e+002, 5.997381e+003
1.363484e+002, 6.022638e+003
1.368305e+002, 6.047532e+003
1.373126e+002, 6.072003e+003
1.377947e+002, 6.096396e+003
1.382769e+002, 6.121358e+003
1.387590e+002, 6.142919e+003
1.392411e+002, 6.160341e+003
1.397232e+002, 6.173784e+003
1.402053e+002, 6.179728e+003
1.406874e+002, 6.175838e+003
1.411696e+002, 6.167907e+003
1.416517e+002, 6.163900e+003
1.421338e+002, 6.165795e+003
1.426159e+002, 6.167923e+003
1.430980e+002, 6.169492e+003
1.435801e+002, 6.171415e+003
1.440623e+002, 6.169194e+003
1.445444e+002, 6.160706e+003
1.450265e+002, 6.149735e+003
1.455086e+002, 6.142780e+003
1.459907e+002, 6.141782e+003
1.464728e+002, 6.142602e+003
1.469550e+002, 6.144415e+003
1.474371e+002, 6.148815e+003
1.479192e+002, 6.150653e+003
1.484013e+002, 6.147101e+003
1.488834e+002, 6.141291e+003
1.493655e+002, 6.140123e+003
1.498477e+002, 6.147603e+003
1.503298e+002, 6.156248e+003
1.508119e+002, 6.163471e+003
1.512940e+002, 6.170465e+003
1.517761e+002, 6.174218e+003
1.522583e+002, 6.171901e+003
1.527404e+002, 6.165815e+003
1.532225e+002, 6.162513e+003
1.537046e+002, 6.169422e+003
1.541867e+002, 6.174275e+003
1.546688e+002, 6.171225e+003
1.551510e+002, 6.149234e+003
1.556331e+002, 6.132042e+003
1.561152e+002, 6.127424e+003
1.565973e+002, 6.131839e+003
1.570794e+002, 6.131357e+003
1.575615e+002, 6.121261e+003
1.580437e+002, 6.106466e+003
1.585258e+002, 6.089962e+003
1.590079e+002, 6.068863e+003
1.594900e+002, 6.049830e+003
1.599721e+002, 6.035186e+003
1.604542e+002, 6.024463e+003
1.609364e+002, 6.014885e+003
1.614185e+002, 6.006433e+003
1.619006e+002, 5.998247e+003
1.623827e+002, 5.989629e+003
1.628648e+002, 5.979882e+003
1.633469e+002, 5.970064e+003
1.638291e+002, 5.960151e+003
1.643112e+002, 5.950334e+003
1.647933e+002, 5.941665e+003
1.652754e+002, 5.935873e+003
1.657575e+002, 5.931077e+003
1.662396e+002, 5.925303e+003
1.667218e+002, 5.914503e+003
1.672039e+002, 5.904997e+003
1.676860e+002, 5.901250e+003
1.681681e+002, 5.903250e+003
1.686502e+002, 5.907300e+003
1.691323e+002, 5.911604e+003
1.696145e+002, 5.916421e+003
1.700966e+002, 5.922080e+003
1.705787e+002, 5.930718e+003
1.710608e+002, 5.939080e+003
1.715429e+002, 5.943814e+003
1.720250e+002, 5.944774e+003
1.725072e+002, 5.945135e+003
1.729893e+002, 5.944224e+003
1.734714e+002, 5.944611e+003
1.739535e+002, 5.951033e+003
1.744356e+002, 5.972247e+003
1.749177e+002, 5.997641e+003
1.753999e+002, 6.014569e+003
1.758820e+002, 6.022211e+003
1.763641e+002, 6.025839e+003
1.768462e+002, 6.028946e+003
1.773283e+002, 6.031766e+003
1.778104e+002, 6.034995e+003
1.782926e+002, 6.037951e+003
1.787747e+002, 6.041632e+003
1.792568e+002, 6.048823e+003
1.797389e+002, 6.060127e+003
1.802210e+002, 6.070976e+003
1.807031e+002, 6.075763e+003
1.811853e+002, 6.075451e+003
1.816674e+002, 6.073379e+003
1.821495e+002, 6.070921e+003
1.826316e+002, 6.067956e+003
1.831137e+002, 6.064066e+003
1.835958e+002, 6.059083e+003
1.840780e+002, 6.054015e+003
1.845601e+002, 6.050374e+003
1.850422e+002, 6.048092e+003
1.855243e+002, 6.045710e+003
1.860064e+002, 6.043239e+003
1.864885e+002, 6.040330e+003
1.869707e+002, 6.034905e+003
1.874528e+002, 6.026078e+003
1.879349e+002, 6.017025e+003
1.884170e+002, 6.012695e+003
1.888991e+002, 6.012912e+003
1.893812e+002, 6.014617e+003
1.898634e+002, 6.017577e+003
1.903455e+002, 6.021134e+003
1.908276e+002, 6.020701e+003
1.913097e+002, 6.014805e+003
1.917918e+002, 6.007115e+003
1.922739e+002, 6.003708e+003
1.927561e+002, 6.004561e+003
1.932382e+002, 6.007883e+003
1.937203e+002, 6.014499e+003
1.942024e+002, 6.023854e+003
1.946845e+002, 6.028622e+003
1.951666e+002, 6.027178e+003
1.956488e+002, 6.022598e+003
1.961309e+002, 6.020607e+003
1.966130e+002, 6.021345e+003
1.970951e+002, 6.023634e+003
1.975772e+002, 6.027616e+003
1.980593e+002, 6.033353e+003
1.985415e+002, 6.037274e+003
1.990236e+002, 6.038492e+003
1.995057e+002, 6.038607e+003
1.999878e+002, 6.041222e+003
2.004699e+002, 6.046622e+003
2.009520e+002, 6.053170e+003
2.014342e+002, 6.061158e+003
2.019163e+002, 6.071124e+003
2.023984e+002, 6.075946e+003
2.028805e+002, 6.073630e+003
2.033626e+002, 6.067241e+003
2.038447e+002, 6.064570e+003
2.043269e+002, 6.066333e+003
2.048090e+002, 6.069158e+003
2.052911e+002, 6.071131e+003
2.057732e+002, 6.072079e+003
2.062553e+002, 6.073320e+003
2.067374e+002, 6.074789e+003
2.072196e+002, 6.076716e+003
2.077017e+002, 6.080034e+003
2.081838e+002, 6.085354e+003
2.086659e+002, 6.090458e+003
2.091480e+002, 6.093017e+003
2.096301e+002, 6.091429e+003
2.101123e+002, 6.095447e+003
2.105944e+002, 6.107752e+003
2.110765e+002, 6.124953e+003
2.115586e+002, 6.136958e+003
2.120407e+002, 6.142033e+003
2.125228e+002, 6.145878e+003
2.130050e+002, 6.151723e+003
2.134871e+002, 6.160297e+003
2.139692e+002, 6.167790e+003
2.144513e+002, 6.173122e+003
2.149334e+002, 6.177476e+003
2.154155e+002, 6.185731e+003
2.158977e+002, 6.201320e+003
2.163798e+002, 6.213894e+003
2.168619e+002, 6.216214e+003
2.173440e+002, 6.203212e+003
2.178261e+002, 6.195782e+003
2.183082e+002, 6.196400e+003
2.187904e+002, 6.202654e+003
2.192725e+002, 6.207269e+003
2.197546e+002, 6.209136e+003
2.202367e+002, 6.211255e+003
2.207188e+002, 6.215512e+003
2.212009e+002, 6.223549e+003
2.216831e+002, 6.229661e+003
2.221652e+002, 6.233856e+003
2.226473e+002, 6.236142e+003
2.231294e+002, 6.235957e+003
2.236115e+002, 6.231911e+003
2.240936e+002, 6.227999e+003
2.245758e+002, 6.226167e+003
2.250579e+002, 6.227147e+003
2.255400e+002, 6.228807e+003
2.260221e+002, 6.231362e+003
2.265042e+002, 6.234603e+003
2.269863e+002, 6.237807e+003
2.274685e+002, 6.241070e+003
2.279506e+002, 6.244221e+003
2.284327e+002, 6.247171e+003
2.289148e+002, 6.249939e+003
2.293969e+002, 6.252018e+003
2.298790e+002, 6.251258e+003
2.303612e+002, 6.250326e+003
2.308433e+002, 6.256851e+003
2.313254e+002, 6.276099e+003
2.318075e+002, 6.294760e+003
2.322896e+002, 6.306793e+003
2.327717e+002, 6.309034e+003
2.332539e+002, 6.312065e+003
2.337360e+002, 6.315820e+003
2.342181e+002, 6.320210e+003
2.347002e+002, 6.325147e+003
2.351823e+002, 6.330455e+003
2.356644e+002, 6.336367e+003
2.361466e+002, 6.343451e+003
2.366287e+002, 6.353397e+003
2.371108e+002, 6.359663e+003
2.375929e+002, 6.361376e+003
2.380750e+002, 6.359677e+003
2.385571e+002, 6.356538e+003
2.390393e+002, 6.350601e+003
2.395214e+002, 6.345489e+003
2.400035e+002, 6.342908e+003
2.404856e+002, 6.344262e+003
2.409677e+002, 6.343969e+003
2.414498e+002, 6.340922e+003
2.419320e+002, 6.337014e+003
2.424141e+002, 6.335705e+003
2.428962e+002, 6.338702e+003
2.433783e+002, 6.341826e+003
2.438604e+002, 6.343797e+003
2.443425e+002, 6.344521e+003
2.448247e+002, 6.344716e+003
2.453068e+002, 6.343619e+003
2.457889e+002, 6.342553e+003
2.462710e+002, 6.343556e+003
2.467531e+002, 6.346920e+003
2.472352e+002, 6.351762e+003
2.477174e+002, 6.357932e+003
2.481995e+002, 6.365457e+003
2.486816e+002, 6.373617e+003
2.491637e+002, 6.382979e+003
2.496458e+002, 6.392439e+003
2.501279e+002, 6.400657e+003
2.506101e+002, 6.408722e+003
2.510922e+002, 6.413272e+003
2.515743e+002, 6.411275e+003
2.520564e+002, 6.400724e+003
2.525385e+002, 6.399614e+003
2.530206e+002, 6.413065e+003
2.535028e+002, 6.431321e+003
2.539849e+002, 6.442047e+003
2.544670e+002, 6.442556e+003
2.549491e+002, 6.441593e+003
2.554312e+002, 6.440372e+003
2.559133e+002, 6.438726e+003
2.563955e+002, 6.440652e+003
2.568776e+002, 6.447946e+003
2.573597e+002, 6.456830e+003
2.578418e+002, 6.462796e+003
2.583239e+002, 6.463476e+003
2.588061e+002, 6.467011e+003
2.592882e+002, 6.476182e+003
2.597703e+002, 6.490888e+003
2.602524e+002, 6.501890e+003
2.607345e+002, 6.507803e+003
2.612166e+002, 6.512109e+003
2.616988e+002, 6.518366e+003
2.621809e+002, 6.527756e+003
2.626630e+002, 6.535363e+003
2.631451e+002, 6.539733e+003
2.636272e+002, 6.541365e+003
2.641093e+002, 6.543968e+003
2.645915e+002, 6.547160e+003
2.650736e+002, 6.552169e+003
2.655557e+002, 6.561431e+003
2.660378e+002, 6.577457e+003
2.665199e+002, 6.588062e+003
2.670020e+002, 6.589585e+003
2.674842e+002, 6.584360e+003
2.679663e+002, 6.584214e+003
2.684484e+002, 6.590232e+003
2.689305e+002, 6.598714e+003
2.694126e+002, 6.607302e+003
2.698947e+002, 6.616112e+003
2.703769e+002, 6.624566e+003
2.708590e+002, 6.631982e+003
2.713411e+002, 6.639314e+003
2.718232e+002, 6.650385e+003
2.723053e+002, 6.666857e+003
2.727874e+002, 6.681876e+003
2.732696e+002, 6.691256e+003
2.737517e+002, 6.694276e+003
2.742338e+002, 6.695096e+003
2.747159e+002, 6.692179e+003
2.751980e+002, 6.689013e+003
2.756801e+002, 6.695505e+003
2.761623e+002, 6.714010e+003
2.766444e+002, 6.731882e+003
2.771265e+002, 6.740901e+003
2.776086e+002, 6.740173e+003
2.780907e+002, 6.745959e+003
2.785728e+002, 6.760354e+003
2.790550e+002, 6.778830e+003
2.795371e+002, 6.793550e+003
2.800192e+002, 6.804177e+003
2.805013e+002, 6.813747e+003
2.809834e+002, 6.822738e+003
2.814655e+002, 6.831196e+003
2.819477e+002, 6.842187e+003
2.824298e+002, 6.855742e+003
2.829119e+002, 6.871197e+003
2.833940e+002, 6.887881e+003
2.838761e+002, 6.905725e+003
2.843582e+002, 6.923842e+003
2.848404e+002, 6.941377e+003
2.853225e+002, 6.958627e+003
2.858046e+002, 6.979053e+003
2.862867e+002, 7.003327e+003
2.867688e+002, 7.026420e+003
2.872509e+002, 7.040769e+003
2.877331e+002, 7.047100e+003
2.882152e+002, 7.055604e+003
2.886973e+002, 7.070390e+003
2.891794e+002, 7.089608e+003
2.896615e+002, 7.107622e+003
2.901436e+002, 7.124781e+003
2.906258e+002, 7.139592e+003
2.911079e+002, 7.148313e+003
2.915900e+002, 7.152685e+003
2.920721e+002, 7.162554e+003
2.925542e+002, 7.183279e+003
2.930363e+002, 7.208355e+003
2.935185e+002, 7.222244e+003
2.940006e+002, 7.225271e+003
2.944827e+002, 7.228808e+003
2.949648e+002, 7.243490e+003
2.954469e+002, 7.266077e+003
2.959290e+002, 7.285833e+003
2.964112e+002, 7.299844e+003
2.968933e+002, 7.311979e+003
2.973754e+002, 7.328392e+003
2.978575e+002, 7.348345e+003
2.983396e+002, 7.368221e+003
2.988217e+002, 7.385022e+003
2.993039e+002, 7.399965e+003
2.997860e+002, 7.415557e+003
3.002681e+002, 7.432783e+003
3.007502e+002, 7.448783e+003
3.012323e+002, 7.459200e+003
3.017144e+002, 7.465249e+003
3.021966e+002, 7.470638e+003
3.026787e+002, 7.476843e+003
3.031608e+002, 7.483865e+003
3.036429e+002, 7.492257e+003
3.041250e+002, 7.502196e+003
3.046071e+002, 7.511964e+003
3.050893e+002, 7.521180e+003
3.055714e+002, 7.529065e+003
3.060535e+002, 7.533669e+003
3.065356e+002, 7.529512e+003
3.070177e+002, 7.524497e+003
3.074998e+002, 7.527344e+003
3.079820e+002, 7.538342e+003
3.084641e+002, 7.550224e+003
3.089462e+002, 7.558435e+003
3.094283e+002, 7.564333e+003
3.099104e+002, 7.569644e+003
3.103925e+002, 7.575833e+003
3.108747e+002, 7.581113e+003
3.113568e+002, 7.581367e+003
3.118389e+002, 7.577906e+003
3.123210e+002, 7.580158e+003
3.128031e+002, 7.600123e+003
3.132852e+002, 7.625292e+003
3.137674e+002, 7.643521e+003
3.142495e+002, 7.646774e+003
3.147316e+002, 7.648358e+003
3.152137e+002, 7.653637e+003
3.156958e+002, 7.662182e+003
3.161779e+002, 7.672618e+003
3.166601e+002, 7.686688e+003
3.171422e+002, 7.700843e+003
3.176243e+002, 7.712158e+003
3.181064e+002, 7.717764e+003
3.185885e+002, 7.725003e+003
3.190706e+002, 7.737266e+003
3.195528e+002, 7.752691e+003
3.200349e+002, 7.767737e+003
3.205170e+002, 7.781897e+003
3.209991e+002, 7.794986e+003
3.214812e+002, 7.806643e+003
3.219633e+002, 7.816424e+003
3.224455e+002, 7.826442e+003
3.229276e+002, 7.838398e+003
3.234097e+002, 7.850509e+003
3.238918e+002, 7.860589e+003
3.243739e+002, 7.864821e+003
3.248560e+002, 7.870532e+003
3.253382e+002, 7.880440e+003
3.258203e+002, 7.895302e+003
3.263024e+002, 7.908733e+003
3.267845e+002, 7.921548e+003
3.272666e+002, 7.932312e+003
3.277487e+002, 7.939833e+003
3.282309e+002, 7.936461e+003
3.287130e+002, 7.938913e+003
3.291951e+002, 7.951944e+003
3.296772e+002, 7.974132e+003
3.301593e+002, 7.991167e+003
3.306414e+002, 7.999771e+003
3.311236e+002, 8.006057e+003
3.316057e+002, 8.013032e+003
3.320878e+002, 8.019130e+003
3.325699e+002, 8.028631e+003
3.330520e+002, 8.042618e+003
3.335341e+002, 8.059697e+003
3.340163e+002, 8.076226e+003
3.344984e+002, 8.092286e+003
3.349805e+002, 8.107265e+003
3.354626e+002, 8.120922e+003
3.359447e+002, 8.133081e+003
3.364268e+002, 8.144896e+003
3.369090e+002, 8.156820e+003
3.373911e+002, 8.168213e+003
3.378732e+002, 8.176944e+003
3.383553e+002, 8.181326e+003
3.388374e+002, 8.189374e+003
3.393195e+002, 8.205474e+003
3.398017e+002, 8.229116e+003
3.402838e+002, 8.247596e+003
3.407659e+002, 8.260411e+003
3.412480e+002, 8.269678e+003
3.417301e+002, 8.277266e+003
3.422122e+002, 8.283068e+003
3.426944e+002, 8.287919e+003
3.431765e+002, 8.290735e+003
3.436586e+002, 8.293256e+003
3.441407e+002, 8.303017e+003
3.446228e+002, 8.320610e+003
3.451049e+002, 8.337521e+003
3.455871e+002, 8.344603e+003
3.460692e+002, 8.343852e+003
3.465513e+002, 8.349561e+003
3.470334e+002, 8.365682e+003
3.475155e+002, 8.384674e+003
3.479977e+002, 8.392329e+003
3.484798e+002, 8.389938e+003
3.489619e+002, 8.387752e+003
3.494440e+002, 8.391698e+003
3.499261e+002, 8.400129e+003
3.504082e+002, 8.411315e+003
3.508904e+002, 8.426148e+003
3.513725e+002, 8.437162e+003
3.518546e+002, 8.431599e+003
3.523367e+002, 8.415520e+003
3.528188e+002, 8.404815e+003
3.533009e+002, 8.411490e+003
3.537831e+002, 8.424489e+003
3.542652e+002, 8.431559e+003
3.547473e+002, 8.432760e+003
3.552294e+002, 8.430572e+003
3.557115e+002, 8.425162e+003
3.561936e+002, 8.417960e+003
3.566758e+002, 8.410896e+003
3.571579e+002, 8.404966e+003
3.576400e+002, 8.398701e+003
3.581221e+002, 8.389417e+003
3.586042e+002, 8.378525e+003
3.590863e+002, 8.370723e+003
3.595685e+002, 8.371243e+003
3.600506e+002, 8.374070e+003
3.605327e+002, 8.375438e+003
3.610148e+002, 8.375775e+003
3.614969e+002, 8.371821e+003
3.619790e+002, 8.358628e+003
3.624612e+002, 8.340799e+003
3.629433e+002, 8.325868e+003
3.634254e+002, 8.318269e+003
3.639075e+002, 8.312027e+003
3.643896e+002, 8.304787e+003
3.648717e+002, 8.296171e+003
3.653539e+002, 8.287622e+003
3.658360e+002, 8.280190e+003
3.663181e+002, 8.272502e+003
3.668002e+002, 8.263115e+003
3.672823e+002, 8.248936e+003
3.677644e+002, 8.236151e+003
3.682466e+002, 8.225797e+003
3.687287e+002, 8.217717e+003
3.692108e+002, 8.210440e+003
3.696929e+002, 8.204408e+003
3.701750e+002, 8.198757e+003
3.706571e+002, 8.193180e+003
3.711393e+002, 8.187965e+003
3.716214e+002, 8.182424e+003
3.721035e+002, 8.176816e+003
3.725856e+002, 8.170834e+003
3.730677e+002, 8.163717e+003
3.735498e+002, 8.154824e+003
3.740320e+002, 8.145937e+003
3.745141e+002, 8.136709e+003
3.749962e+002, 8.126405e+003
3.754783e+002, 8.123932e+003
3.759604e+002, 8.133021e+003
3.764425e+002, 8.143901e+003
3.769247e+002, 8.142376e+003
3.774068e+002, 8.125451e+003
3.778889e+002, 8.115342e+003
3.783710e+002, 8.120417e+003
3.788531e+002, 8.135993e+003
3.793352e+002, 8.140937e+003
3.798174e+002, 8.133713e+003
3.802995e+002, 8.125975e+003
3.807816e+002, 8.128050e+003
3.812637e+002, 8.138719e+003
3.817458e+002, 8.147276e+003
3.822279e+002, 8.151748e+003
3.827101e+002, 8.154869e+003
3.831922e+002, 8.160839e+003
3.836743e+002, 8.169567e+003
3.841564e+002, 8.179906e+003
3.846385e+002, 8.192450e+003
3.851206e+002, 8.206052e+003
3.856028e+002, 8.217302e+003
3.860849e+002, 8.225674e+003
3.865670e+002, 8.236341e+003
3.870491e+002, 8.258020e+003
3.875312e+002, 8.285332e+003
3.880133e+002, 8.307701e+003
3.884955e+002, 8.318371e+003
3.889776e+002, 8.324835e+003
3.894597e+002, 8.332055e+003
3.899418e+002, 8.340306e+003
3.904239e+002, 8.351389e+003
3.909060e+002, 8.368836e+003
3.913882e+002, 8.388335e+003
3.918703e+002, 8.405520e+003
3.923524e+002, 8.417998e+003
3.928345e+002, 8.431660e+003
3.933166e+002, 8.450631e+003
3.937987e+002, 8.472830e+003
3.942809e+002, 8.493772e+003
3.947630e+002, 8.513511e+003
3.952451e+002, 8.530481e+003
3.957272e+002, 8.542651e+003
3.962093e+002, 8.548528e+003
3.966914e+002, 8.557799e+003
3.971736e+002, 8.575728e+003
3.976557e+002, 8.596191e+003
3.981378e+002, 8.613615e+003
3.986199e+002, 8.627390e+003
3.991020e+002, 8.637678e+003
3.995841e+002, 8.643605e+003
4.000663e+002, 8.645618e+003
4.005484e+002, 8.646797e+003
4.010305e+002, 8.646688e+003
4.015126e+002, 8.646278e+003
4.019947e+002, 8.646671e+003
4.024768e+002, 8.650929e+003
4.029590e+002, 8.648583e+003
4.034411e+002, 8.636982e+003
4.039232e+002, 8.621001e+003
4.044053e+002, 8.609596e+003
4.048874e+002, 8.604646e+003
4.053695e+002, 8.598796e+003
4.058517e+002, 8.588130e+003
4.063338e+002, 8.573533e+003
4.068159e+002, 8.567557e+003
4.072980e+002, 8.572246e+003
4.077801e+002, 8.578620e+003
4.082622e+002, 8.576907e+003
4.087444e+002, 8.567522e+003
4.092265e+002, 8.560920e+003
4.097086e+002, 8.559687e+003
4.101907e+002, 8.561206e+003
4.106728e+002, 8.560357e+003
4.111549e+002, 8.557186e+003
4.116371e+002, 8.553197e+003
4.121192e+002, 8.547741e+003
4.126013e+002, 8.542245e+003
4.130834e+002, 8.540972e+003
4.135655e+002, 8.544757e+003
4.140476e+002, 8.548403e+003
4.145298e+002, 8.545979e+003
4.150119e+002, 8.539753e+003
4.154940e+002, 8.534255e+003
4.159761e+002, 8.530923e+003
4.164582e+002, 8.529441e+003
4.169403e+002, 8.530720e+003
4.174225e+002, 8.534283e+003
4.179046e+002, 8.536997e+003
4.183867e+002, 8.534677e+003
4.188688e+002, 8.532155e+003
4.193509e+002, 8.533914e+003
4.198330e+002, 8.542998e+003
4.203152e+002, 8.551953e+003
4.207973e+002, 8.557811e+003
4.212794e+002, 8.561800e+003
4.217615e+002, 8.566157e+003
4.222436e+002, 8.570486e+003
4.227257e+002, 8.576304e+003
4.232079e+002, 8.584737e+003
4.236900e+002, 8.596206e+003
4.241721e+002, 8.607166e+003
4.246542e+002, 8.617104e+003
4.251363e+002, 8.626638e+003
4.256184e+002, 8.636192e+003
4.261006e+002, 8.643267e+003
4.265827e+002, 8.653881e+003
4.270648e+002, 8.669801e+003
4.275469e+002, 8.689396e+003
4.280290e+002, 8.706111e+003
4.285111e+002, 8.716985e+003
4.289933e+002, 8.730324e+003
4.294754e+002, 8.750741e+003
4.299575e+002, 8.779670e+003
4.304396e+002, 8.803965e+003
4.309217e+002, 8.821839e+003
4.314038e+002, 8.838803e+003
4.318860e+002, 8.862200e+003
4.323681e+002, 8.892277e+003
4.328502e+002, 8.922455e+003
4.333323e+002, 8.951479e+003
4.338144e+002, 8.979333e+003
4.342965e+002, 9.004208e+003
4.347787e+002, 9.026323e+003
4.352608e+002, 9.051682e+003
4.357429e+002, 9.089672e+003
4.362250e+002, 9.134088e+003
4.367071e+002, 9.169829e+003
4.371892e+002, 9.195279e+003
4.376714e+002, 9.211853e+003
4.381535e+002, 9.221154e+003
4.386356e+002, 9.222681e+003
4.391177e+002, 9.215021e+003
4.395998e+002, 9.194563e+003
4.400819e+002, 9.166639e+003
4.405641e+002, 9.131306e+003
4.410462e+002, 9.089735e+003
4.415283e+002, 9.053770e+003
4.420104e+002, 9.029515e+003
4.424925e+002, 9.013923e+003
4.429746e+002, 9.005310e+003
4.434568e+002, 9.005728e+003
4.439389e+002, 9.008116e+003
4.444210e+002, 9.010056e+003
4.449031e+002, 9.012453e+003
4.453852e+002, 9.017112e+003
4.458673e+002, 9.027828e+003
4.463495e+002, 9.037589e+003
4.468316e+002, 9.043315e+003
4.473137e+002, 9.043965e+003
4.477958e+002, 9.048799e+003
4.482779e+002, 9.062042e+003
4.487600e+002, 9.076124e+003
4.492422e+002, 9.085307e+003
4.497243e+002, 9.087343e+003
4.502064e+002, 9.089806e+003
4.506885e+002, 9.095224e+003
4.511706e+002, 9.100637e+003
4.516527e+002, 9.096832e+003
4.521349e+002, 9.081475e+003
4.526170e+002, 9.064842e+003
4.530991e+002, 9.050115e+003
4.535812e+002, 9.037222e+003
4.540633e+002, 9.031165e+003
4.545454e+002, 9.032689e+003
4.550276e+002, 9.036516e+003
4.555097e+002, 9.037121e+003
4.559918e+002, 9.034952e+003
4.564739e+002, 9.032932e+003
4.569560e+002, 9.032059e+003
4.574381e+002, 9.031105e+003
4.579203e+002, 9.027532e+003
4.584024e+002, 9.021922e+003
4.588845e+002, 9.016868e+003
4.593666e+002, 9.016134e+003
4.598488e+002, 9.015911e+003
4.603309e+002, 9.009993e+003
4.608130e+002, 8.997310e+003
4.612951e+002, 8.986843e+003
4.617772e+002, 8.988788e+003
4.622593e+002, 8.995326e+003
4.627415e+002, 8.997228e+003
4.632236e+002, 8.988113e+003
4.637057e+002, 8.977339e+003
4.641878e+002, 8.967228e+003
4.646699e+002, 8.958223e+003
4.651520e+002, 8.951613e+003
4.656342e+002, 8.947637e+003
4.661163e+002, 8.946498e+003
4.665984e+002, 8.948745e+003
4.670805e+002, 8.955751e+003
4.675626e+002, 8.962557e+003
4.680447e+002, 8.970603e+003
4.685269e+002, 8.977479e+003
4.690090e+002, 8.980092e+003
4.694911e+002, 8.973292e+003
4.699732e+002, 8.972220e+003
4.704553e+002, 8.980948e+003
4.709374e+002, 8.996844e+003
4.714196e+002, 9.008765e+003
4.719017e+002, 9.015629e+003
4.723838e+002, 9.021248e+003
4.728659e+002, 9.027073e+003
4.733480e+002, 9.033049e+003
4.738301e+002, 9.039881e+003
4.743123e+002, 9.047058e+003
4.747944e+002, 9.056830e+003
4.752765e+002, 9.075598e+003
4.757586e+002, 9.100806e+003
4.762407e+002, 9.118436e+003
4.767228e+002, 9.120317e+003
4.772050e+002, 9.116987e+003
4.776871e+002, 9.124730e+003
4.781692e+002, 9.142071e+003
4.786513e+002, 9.161601e+003
4.791334e+002, 9.179202e+003
4.796155e+002, 9.196513e+003
4.800977e+002, 9.216003e+003
4.805798e+002, 9.238524e+003
4.810619e+002, 9.259766e+003
4.815440e+002, 9.273638e+003
4.820261e+002, 9.285953e+003
4.825082e+002, 9.303571e+003
4.829904e+002, 9.336465e+003
4.834725e+002, 9.366678e+003
4.839546e+002, 9.385542e+003
4.844367e+002, 9.396214e+003
4.849188e+002, 9.412229e+003
4.854009e+002, 9.439482e+003
4.858831e+002, 9.468913e+003
4.863652e+002, 9.497246e+003
4.868473e+002, 9.523530e+003
4.873294e+002, 9.550779e+003
4.878115e+002, 9.581284e+003
4.882936e+002, 9.610277e+003
4.887758e+002, 9.632043e+003
4.892579e+002, 9.643233e+003
4.897400e+002, 9.657935e+003
4.902221e+002, 9.679246e+003
4.907042e+002, 9.704970e+003
4.911863e+002, 9.728058e+003
4.916685e+002, 9.748502e+003
4.921506e+002, 9.767897e+003
4.926327e+002, 9.788135e+003
4.931148e+002, 9.808519e+003
4.935969e+002, 9.823584e+003
4.940790e+002, 9.833337e+003
4.945612e+002, 9.840829e+003
4.950433e+002, 9.849513e+003
4.955254e+002, 9.858432e+003
4.960075e+002, 9.865413e+003
4.964896e+002, 9.869229e+003
4.969717e+002, 9.872040e+003
4.974539e+002, 9.876469e+003
4.979360e+002, 9.881559e+003
4.984181e+002, 9.884577e+003
4.989002e+002, 9.880280e+003
4.993823e+002, 9.876438e+003
4.998644e+002, 9.880418e+003
5.003466e+002, 9.893580e+003
5.008287e+002, 9.899319e+003
5.013108e+002, 9.886896e+003
5.017929e+002, 9.868068e+003
5.022750e+002, 9.851816e+003
5.027571e+002, 9.837845e+003
5.032393e+002, 9.827835e+003
5.037214e+002, 9.826416e+003
5.042035e+002, 9.827823e+003
5.046856e+002, 9.818874e+003
5.051677e+002, 9.792353e+003
5.056498e+002, 9.769083e+003
5.061320e+002, 9.757797e+003
5.066141e+002, 9.757650e+003
5.070962e+002, 9.744954e+003
5.075783e+002, 9.716705e+003
5.080604e+002, 9.686525e+003
5.085425e+002, 9.666432e+003
5.090247e+002, 9.655684e+003
5.095068e+002, 9.643740e+003
5.099889e+002, 9.629687e+003
5.104710e+002, 9.613652e+003
5.109531e+002, 9.593466e+003
5.114352e+002, 9.570870e+003
5.119174e+002, 9.552231e+003
5.123995e+002, 9.544574e+003
5.128816e+002, 9.539366e+003
5.133637e+002, 9.524436e+003
5.138458e+002, 9.501546e+003
5.143279e+002, 9.481748e+003
5.148101e+002, 9.477815e+003
5.152922e+002, 9.475529e+003
5.157743e+002, 9.461396e+003
5.162564e+002, 9.428701e+003
5.167385e+002, 9.400217e+003
5.172206e+002, 9.386440e+003
5.177028e+002, 9.380078e+003
5.181849e+002, 9.372972e+003
5.186670e+002, 9.364915e+003
5.191491e+002, 9.354866e+003
5.196312e+002, 9.341703e+003
5.201133e+002, 9.326476e+003
5.205955e+002, 9.312910e+003
5.210776e+002, 9.302304e+003
5.215597e+002, 9.291824e+003
5.220418e+002, 9.279124e+003
5.225239e+002, 9.263404e+003
5.230060e+002, 9.257019e+003
5.234882e+002, 9.262423e+003
5.239703e+002, 9.270658e+003
5.244524e+002, 9.272785e+003
5.249345e+002, 9.269056e+003
5.254166e+002, 9.262359e+003
5.258987e+002, 9.251521e+003
5.263809e+002, 9.241052e+003
5.268630e+002, 9.238661e+003
5.273451e+002, 9.242896e+003
5.278272e+002, 9.248093e+003
5.283093e+002, 9.249426e+003
5.287914e+002, 9.251131e+003
5.292736e+002, 9.260044e+003
5.297557e+002, 9.275472e+003
5.302378e+002, 9.287248e+003
5.307199e+002, 9.286177e+003
5.312020e+002, 9.280941e+003
5.316841e+002, 9.278771e+003
5.321663e+002, 9.282281e+003
5.326484e+002, 9.285943e+003
5.331305e+002, 9.290061e+003
5.336126e+002, 9.293110e+003
5.340947e+002, 9.292879e+003
5.345768e+002, 9.282766e+003
5.350590e+002, 9.277713e+003
5.355411e+002, 9.282343e+003
5.360232e+002, 9.294825e+003
5.365053e+002, 9.303468e+003
5.369874e+002, 9.307816e+003
5.374695e+002, 9.309656e+003
5.379517e+002, 9.309136e+003
5.384338e+002, 9.306116e+003
5.389159e+002, 9.304262e+003
5.393980e+002, 9.303316e+003
5.398801e+002, 9.304457e+003
5.403622e+002, 9.310553e+003
5.408444e+002, 9.320293e+003
5.413265e+002, 9.327499e+003
5.418086e+002, 9.329816e+003
5.422907e+002, 9.330970e+003
5.427728e+002, 9.334765e+003
5.432549e+002, 9.341183e+003
5.437371e+002, 9.350223e+003
5.442192e+002, 9.368071e+003
5.447013e+002, 9.383827e+003
5.451834e+002, 9.386316e+003
5.456655e+002, 9.376400e+003
5.461476e+002, 9.370079e+003
5.466298e+002, 9.377740e+003
5.471119e+002, 9.388908e+003
5.475940e+002, 9.396532e+003
5.480761e+002, 9.397075e+003
5.485582e+002, 9.399710e+003
5.490403e+002, 9.406474e+003
5.495225e+002, 9.415157e+003
5.500046e+002, 9.423232e+003
5.504867e+002, 9.431252e+003
5.509688e+002, 9.437184e+003
5.514509e+002, 9.439091e+003
5.519330e+002, 9.439016e+003
5.524152e+002, 9.445128e+003
5.528973e+002, 9.458282e+003
5.533794e+002, 9.471902e+003
5.538615e+002, 9.482432e+003
5.543436e+002, 9.490344e+003
5.548257e+002, 9.498824e+003
5.553079e+002, 9.507821e+003
5.557900e+002, 9.516024e+003
5.562721e+002, 9.522235e+003
5.567542e+002, 9.526755e+003
5.572363e+002, 9.529732e+003
5.577184e+002, 9.530594e+003
5.582006e+002, 9.531903e+003
5.586827e+002, 9.537391e+003
5.591648e+002, 9.544502e+003
5.596469e+002, 9.548969e+003
5.601290e+002, 9.545924e+003
5.606111e+002, 9.543265e+003
5.610933e+002, 9.543529e+003
5.615754e+002, 9.546751e+003
5.620575e+002, 9.552569e+003
5.625396e+002, 9.563765e+003
5.630217e+002, 9.574976e+003
5.635038e+002, 9.584044e+003
5.639860e+002, 9.590315e+003
5.644681e+002, 9.597720e+003
5.649502e+002, 9.607291e+003
5.654323e+002, 9.616308e+003
5.659144e+002, 9.621098e+003
5.663965e+002, 9.621137e+003
5.668787e+002, 9.623979e+003
5.673608e+002, 9.631353e+003
5.678429e+002, 9.640675e+003
5.683250e+002, 9.647303e+003
5.688071e+002, 9.651675e+003
5.692892e+002, 9.655641e+003
5.697714e+002, 9.658808e+003
5.702535e+002, 9.662801e+003
5.707356e+002, 9.670234e+003
5.712177e+002, 9.680760e+003
5.716998e+002, 9.691756e+003
5.721819e+002, 9.701641e+003
5.726641e+002, 9.711559e+003
5.731462e+002, 9.722911e+003
5.736283e+002, 9.736512e+003
5.741104e+002, 9.747938e+003
5.745925e+002, 9.755127e+003
5.750746e+002, 9.759866e+003
5.755568e+002, 9.763858e+003
5.760389e+002, 9.765794e+003
5.765210e+002, 9.768737e+003
5.770031e+002, 9.772314e+003
5.774852e+002, 9.777251e+003
5.779673e+002, 9.786213e+003
5.784495e+002, 9.802026e+003
5.789316e+002, 9.813226e+003
5.794137e+002, 9.814874e+003
5.798958e+002, 9.809576e+003
5.803779e+002, 9.807379e+003
5.808600e+002, 9.808355e+003
5.813422e+002, 9.813474e+003
5.818243e+002, 9.826096e+003
5.823064e+002, 9.843022e+003
5.827885e+002, 9.855917e+003
5.832706e+002, 9.863951e+003
5.837527e+002, 9.872152e+003
5.842349e+002, 9.888150e+003
5.847170e+002, 9.905374e+003
5.851991e+002, 9.915056e+003
5.856812e+002, 9.910591e+003
5.861633e+002, 9.905618e+003
5.866454e+002, 9.902364e+003
5.871276e+002, 9.902896e+003
5.876097e+002, 9.911033e+003
5.880918e+002, 9.938908e+003
5.885739e+002, 9.961497e+003
5.890560e+002, 9.971468e+003
5.895381e+002, 9.970798e+003
5.900203e+002, 9.973728e+003
5.905024e+002, 9.981062e+003
5.909845e+002, 9.990679e+003
5.914666e+002, 1.000233e+004
5.919487e+002, 1.001622e+004
5.924308e+002, 1.002889e+004
5.929130e+002, 1.004080e+004
5.933951e+002, 1.005002e+004
5.938772e+002, 1.005213e+004
5.943593e+002, 1.004977e+004
5.948414e+002, 1.005066e+004
5.953235e+002, 1.005544e+004
5.958057e+002, 1.006633e+004
5.962878e+002, 1.009194e+004
5.967699e+002, 1.012456e+004
5.972520e+002, 1.014938e+004
5.977341e+002, 1.015463e+004
5.982162e+002, 1.015647e+004
5.986984e+002, 1.016038e+004
5.991805e+002, 1.016674e+004
5.996626e+002, 1.017718e+004
6.001447e+002, 1.019900e+004
6.006268e+002, 1.021809e+004
6.011089e+002, 1.022747e+004
6.015911e+002, 1.022596e+004
6.020732e+002, 1.023041e+004
6.025553e+002, 1.024444e+004
6.030374e+002, 1.025867e+004
6.035195e+002, 1.026487e+004
6.040016e+002, 1.026204e+004
6.044838e+002, 1.026617e+004
6.049659e+002, 1.028018e+004
6.054480e+002, 1.029449e+004
6.059301e+002, 1.029350e+004
6.064122e+002, 1.028138e+004
6.068943e+002, 1.027547e+004
6.073765e+002, 1.028272e+004
6.078586e+002, 1.029428e+004
6.083407e+002, 1.030251e+004
6.088228e+002, 1.030739e+004
6.093049e+002, 1.030868e+004
6.097870e+002, 1.030032e+004
6.102692e+002, 1.029356e+004
6.107513e+002, 1.029614e+004
6.112334e+002, 1.030730e+004
6.117155e+002, 1.031616e+004
6.121976e+002, 1.031716e+004
6.126797e+002, 1.031858e+004
6.131619e+002, 1.032425e+004
6.136440e+002, 1.033515e+004
6.141261e+002, 1.034681e+004
6.146082e+002, 1.036130e+004
6.150903e+002, 1.037366e+004
6.155724e+002, 1.037785e+004
6.160546e+002, 1.037344e+004
6.165367e+002, 1.037296e+004
6.170188e+002, 1.037794e+004
6.175009e+002, 1.038721e+004
6.179830e+002, 1.040186e+004
6.184651e+002, 1.041982e+004
6.189473e+002, 1.043375e+004
6.194294e+002, 1.043880e+004
6.199115e+002, 1.044117e+004
6.203936e+002, 1.044673e+004
6.208757e+002, 1.045457e+004
6.213578e+002, 1.046212e+004
6.218400e+002, 1.046716e+004
6.223221e+002, 1.047258e+004
6.228042e+002, 1.048106e+004
6.232863e+002, 1.049282e+004
6.237684e+002, 1.050049e+004
6.242505e+002, 1.050104e+004
6.247327e+002, 1.049974e+004
6.252148e+002, 1.049844e+004
6.256969e+002, 1.049607e+004
6.261790e+002, 1.049920e+004
6.266611e+002, 1.050991e+004
6.271432e+002, 1.052181e+004
6.276254e+002, 1.052780e+004
6.281075e+002, 1.052823e+004
6.285896e+002, 1.052792e+004
6.290717e+002, 1.052717e+004
6.295538e+002, 1.052722e+004
6.300359e+002, 1.053093e+004
6.305181e+002, 1.053672e+004
6.310002e+002, 1.054076e+004
6.314823e+002, 1.053962e+004
6.319644e+002, 1.053792e+004
6.324465e+002, 1.053742e+004
6.329286e+002, 1.053874e+004
6.334108e+002, 1.054390e+004
6.338929e+002, 1.055861e+004
6.343750e+002, 1.057251e+004
6.348571e+002, 1.058163e+004
6.353392e+002, 1.058573e+004
6.358214e+002, 1.058774e+004
6.363035e+002, 1.058666e+004
6.367856e+002, 1.058519e+004
6.372677e+002, 1.058435e+004
6.377498e+002, 1.058390e+004
6.382319e+002, 1.058740e+004
6.387141e+002, 1.059550e+004
6.391962e+002, 1.060563e+004
6.396783e+002, 1.061628e+004
6.401604e+002, 1.062704e+004
6.406425e+002, 1.063621e+004
6.411246e+002, 1.064378e+004
6.416068e+002, 1.064903e+004
6.420889e+002, 1.064956e+004
6.425710e+002, 1.064756e+004
6.430531e+002, 1.064674e+004
6.435352e+002, 1.064848e+004
6.440173e+002, 1.065159e+004
6.444995e+002, 1.065499e+004
6.449816e+002, 1.065922e+004
6.454637e+002, 1.066617e+004
6.459458e+002, 1.067960e+004
6.464279e+002, 1.069155e+004
6.469100e+002, 1.069911e+004
6.473922e+002, 1.070281e+004
6.478743e+002, 1.070975e+004
6.483564e+002, 1.072119e+004
6.488385e+002, 1.073209e+004
6.493206e+002, 1.073773e+004
6.498027e+002, 1.073928e+004
6.502849e+002, 1.074872e+004
6.507670e+002, 1.076654e+004
6.512491e+002, 1.078375e+004
6.517312e+002, 1.079025e+004
6.522133e+002, 1.079114e+004
6.526954e+002, 1.079505e+004
6.531776e+002, 1.080433e+004
6.536597e+002, 1.081330e+004
6.541418e+002, 1.081844e+004
6.546239e+002, 1.082154e+004
6.551060e+002, 1.082472e+004
6.555881e+002, 1.082517e+004
6.560703e+002, 1.082986e+004
6.565524e+002, 1.084496e+004
6.570345e+002, 1.086353e+004
6.575166e+002, 1.087246e+004
6.579987e+002, 1.086738e+004
6.584808e+002, 1.086373e+004
6.589630e+002, 1.086500e+004
6.594451e+002, 1.087024e+004
6.599272e+002, 1.087687e+004
6.604093e+002, 1.088491e+004
6.608914e+002, 1.089253e+004
6.613735e+002, 1.089814e+004
6.618557e+002, 1.090296e+004
6.623378e+002, 1.090940e+004
6.628199e+002, 1.091741e+004
6.633020e+002, 1.092602e+004
6.637841e+002, 1.093693e+004
6.642662e+002, 1.094676e+004
6.647484e+002, 1.095113e+004
6.652305e+002, 1.094801e+004
6.657126e+002, 1.095000e+004
6.661947e+002, 1.096360e+004
6.666768e+002, 1.098110e+004
6.671589e+002, 1.099724e+004
6.676411e+002, 1.101372e+004
6.681232e+002, 1.102451e+004
6.686053e+002, 1.102782e+004
6.690874e+002, 1.102758e+004
6.695695e+002, 1.102752e+004
6.700516e+002, 1.102755e+004
6.705338e+002, 1.103243e+004
6.710159e+002, 1.104455e+004
6.714980e+002, 1.105829e+004
6.719801e+002, 1.106395e+004
6.724622e+002, 1.106425e+004
6.729443e+002, 1.106653e+004
6.734265e+002, 1.107676e+004
6.739086e+002, 1.108740e+004
6.743907e+002, 1.109190e+004
6.748728e+002, 1.109263e+004
6.753549e+002, 1.109658e+004
6.758370e+002, 1.110913e+004
6.763192e+002, 1.112224e+004
6.768013e+002, 1.113344e+004
6.772834e+002, 1.114289e+004
6.777655e+002, 1.115037e+004
6.782476e+002, 1.115389e+004
6.787297e+002, 1.115953e+004
6.792119e+002, 1.117185e+004
6.796940e+002, 1.119029e+004
6.801761e+002, 1.120280e+004
6.806582e+002, 1.120883e+004
6.811403e+002, 1.121362e+004
6.816224e+002, 1.122059e+004
6.821046e+002, 1.122961e+004
6.825867e+002, 1.124102e+004
6.830688e+002, 1.125531e+004
6.835509e+002, 1.126853e+004
6.840330e+002, 1.127800e+004
6.845151e+002, 1.128512e+004
6.849973e+002, 1.129124e+004
6.854794e+002, 1.129461e+004
6.859615e+002, 1.130041e+004
6.864436e+002, 1.130960e+004
6.869257e+002, 1.132172e+004
6.874078e+002, 1.133744e+004
6.878900e+002, 1.136098e+004
6.883721e+002, 1.137675e+004
6.888542e+002, 1.137981e+004
6.893363e+002, 1.137730e+004
6.898184e+002, 1.138534e+004
6.903005e+002, 1.140286e+004
6.907827e+002, 1.141649e+004
6.912648e+002, 1.141792e+004
6.917469e+002, 1.141584e+004
6.922290e+002, 1.142351e+004
6.927111e+002, 1.143843e+004
6.931932e+002, 1.145238e+004
6.936754e+002, 1.145694e+004
6.941575e+002, 1.146300e+004
6.946396e+002, 1.147919e+004
6.951217e+002, 1.150441e+004
6.956038e+002, 1.152429e+004
6.960859e+002, 1.153194e+004
6.965681e+002, 1.153815e+004
6.970502e+002, 1.154642e+004
6.975323e+002, 1.155677e+004
6.980144e+002, 1.156935e+004
6.984965e+002, 1.158536e+004
6.989786e+002, 1.159956e+004
6.994608e+002, 1.160648e+004
6.999429e+002, 1.160806e+004
7.004250e+002, 1.161358e+004
7.009071e+002, 1.162392e+004
7.013892e+002, 1.163325e+004
7.018713e+002, 1.163324e+004
7.023535e+002, 1.163071e+004
7.028356e+002, 1.163478e+004
7.033177e+002, 1.164937e+004
7.037998e+002, 1.166402e+004
7.042819e+002, 1.167206e+004
7.047640e+002, 1.167940e+004
7.052462e+002, 1.169295e+004
7.057283e+002, 1.172118e+004
7.062104e+002, 1.174067e+004
7.066925e+002, 1.174638e+004
7.071746e+002, 1.174670e+004
7.076567e+002, 1.175500e+004
7.081389e+002, 1.177166e+004
7.086210e+002, 1.178991e+004
7.091031e+002, 1.180897e+004
7.095852e+002, 1.182760e+004
7.100673e+002, 1.184413e+004
7.105494e+002, 1.185849e+004
7.110316e+002, 1.187096e+004
7.115137e+002, 1.188031e+004
7.119958e+002, 1.188892e+004
7.124779e+002, 1.189695e+004
7.129600e+002, 1.190548e+004
7.134421e+002, 1.191753e+004
7.139243e+002, 1.193948e+004
7.144064e+002, 1.195923e+004
7.148885e+002, 1.197154e+004
7.153706e+002, 1.197782e+004
7.158527e+002, 1.198890e+004
7.163348e+002, 1.200619e+004
7.168170e+002, 1.202382e+004
7.172991e+002, 1.203854e+004
7.177812e+002, 1.205108e+004
7.182633e+002, 1.206477e+004
7.187454e+002, 1.207969e+004
7.192275e+002, 1.209435e+004
7.197097e+002, 1.210810e+004
7.201918e+002, 1.212113e+004
7.206739e+002, 1.213169e+004
7.211560e+002, 1.213957e+004
7.216381e+002, 1.215483e+004
7.221202e+002, 1.219514e+004
7.226024e+002, 1.223510e+004
7.230845e+002, 1.225430e+004
7.235666e+002, 1.223884e+004
7.240487e+002, 1.224349e+004
7.245308e+002, 1.228007e+004
7.250129e+002, 1.232134e+004
7.254951e+002, 1.234300e+004
7.259772e+002, 1.234395e+004
7.264593e+002, 1.234966e+004
7.269414e+002, 1.236245e+004
7.274235e+002, 1.237761e+004
7.279056e+002, 1.239092e+004
7.283878e+002, 1.240230e+004
7.288699e+002, 1.241082e+004
7.293520e+002, 1.241460e+004
7.298341e+002, 1.242041e+004
7.303162e+002, 1.243719e+004
7.307983e+002, 1.245697e+004
7.312805e+002, 1.246998e+004
7.317626e+002, 1.246493e+004
7.322447e+002, 1.246480e+004
7.327268e+002, 1.247363e+004
7.332089e+002, 1.248744e+004
7.336910e+002, 1.249937e+004
7.341732e+002, 1.250836e+004
7.346553e+002, 1.252181e+004
7.351374e+002, 1.254392e+004
7.356195e+002, 1.256714e+004
7.361016e+002, 1.257294e+004
7.365837e+002, 1.256550e+004
7.370659e+002, 1.256318e+004
7.375480e+002, 1.257773e+004
7.380301e+002, 1.259617e+004
7.385122e+002, 1.260750e+004
7.389943e+002, 1.261328e+004
7.394764e+002, 1.261750e+004
7.399586e+002, 1.262046e+004
7.404407e+002, 1.262298e+004
7.409228e+002, 1.262425e+004
7.414049e+002, 1.262502e+004
7.418870e+002, 1.262874e+004
7.423691e+002, 1.263542e+004
7.428513e+002, 1.264523e+004
7.433334e+002, 1.266076e+004
7.438155e+002, 1.267914e+004
7.442976e+002, 1.268517e+004
7.447797e+002, 1.267976e+004
7.452618e+002, 1.267712e+004
7.457440e+002, 1.269128e+004
7.462261e+002, 1.271001e+004
7.467082e+002, 1.271753e+004
7.471903e+002, 1.271466e+004
7.476724e+002, 1.271392e+004
7.481545e+002, 1.271903e+004
7.486367e+002, 1.272921e+004
7.491188e+002, 1.274590e+004
7.496009e+002, 1.277015e+004
7.500830e+002, 1.279023e+004
7.505651e+002, 1.280598e+004
7.510472e+002, 1.281816e+004
7.515294e+002, 1.282551e+004
7.520115e+002, 1.282827e+004
7.524936e+002, 1.283514e+004
7.529757e+002, 1.284633e+004
7.534578e+002, 1.285822e+004
7.539399e+002, 1.286444e+004
7.544221e+002, 1.287067e+004
7.549042e+002, 1.288851e+004
7.553863e+002, 1.292070e+004
7.558684e+002, 1.294623e+004
7.563505e+002, 1.294449e+004
7.568326e+002, 1.293872e+004
7.573148e+002, 1.294815e+004
7.577969e+002, 1.298301e+004
7.582790e+002, 1.301098e+004
7.587611e+002, 1.302890e+004
7.592432e+002, 1.304458e+004
7.597253e+002, 1.306589e+004
7.602075e+002, 1.309315e+004
7.606896e+002, 1.311356e+004
7.611717e+002, 1.312495e+004
7.616538e+002, 1.313629e+004
7.621359e+002, 1.315771e+004
7.626180e+002, 1.318602e+004
7.631002e+002, 1.321611e+004
7.635823e+002, 1.324809e+004
7.640644e+002, 1.327731e+004
7.645465e+002, 1.330088e+004
7.650286e+002, 1.332107e+004
7.655107e+002, 1.334007e+004
7.659929e+002, 1.335465e+004
7.664750e+002, 1.337447e+004
7.669571e+002, 1.340297e+004
7.674392e+002, 1.343374e+004
7.679213e+002, 1.345697e+004
7.684034e+002, 1.347217e+004
7.688856e+002, 1.349449e+004
7.693677e+002, 1.352716e+004
7.698498e+002, 1.356389e+004
7.703319e+002, 1.359800e+004
7.708140e+002, 1.362992e+004
7.712961e+002, 1.366106e+004
7.717783e+002, 1.369235e+004
7.722604e+002, 1.372159e+004
7.727425e+002, 1.374289e+004
7.732246e+002, 1.376261e+004
7.737067e+002, 1.379115e+004
7.741888e+002, 1.384149e+004
7.746710e+002, 1.388268e+004
7.751531e+002, 1.390886e+004
7.756352e+002, 1.392757e+004
7.761173e+002, 1.395220e+004
7.765994e+002, 1.398282e+004
7.770815e+002, 1.401482e+004
7.775637e+002, 1.404775e+004
7.780458e+002, 1.408061e+004
7.785279e+002, 1.411237e+004
7.790100e+002, 1.414284e+004
7.794921e+002, 1.417172e+004
7.799742e+002, 1.419507e+004
7.804564e+002, 1.422066e+004
7.809385e+002, 1.425333e+004
7.814206e+002, 1.429053e+004
7.819027e+002, 1.432688e+004
7.823848e+002, 1.436013e+004
7.828669e+002, 1.439555e+004
7.833491e+002, 1.443667e+004
7.838312e+002, 1.447876e+004
7.843133e+002, 1.450636e+004
7.847954e+002, 1.451992e+004
7.852775e+002, 1.454099e+004
7.857596e+002, 1.457963e+004
7.862418e+002, 1.462506e+004
7.867239e+002, 1.466133e+004
7.872060e+002, 1.469223e+004
7.876881e+002, 1.472812e+004
7.881702e+002, 1.477910e+004
7.886523e+002, 1.482883e+004
7.891345e+002, 1.486803e+004
7.896166e+002, 1.490058e+004
7.900987e+002, 1.494005e+004
7.905808e+002, 1.499003e+004
7.910629e+002, 1.503967e+004
7.915450e+002, 1.508784e+004
7.920272e+002, 1.513273e+004
7.925093e+002, 1.516523e+004
7.929914e+002, 1.518659e+004
7.934735e+002, 1.520713e+004
7.939556e+002, 1.523210e+004
7.944377e+002, 1.525772e+004
7.949199e+002, 1.527733e+004
7.954020e+002, 1.529411e+004
7.958841e+002, 1.531554e+004
7.963662e+002, 1.534950e+004
7.968483e+002, 1.538354e+004
7.973304e+002, 1.541406e+004
7.978126e+002, 1.544134e+004
7.982947e+002, 1.546547e+004
7.987768e+002, 1.548692e+004
7.992589e+002, 1.550356e+004
7.997410e+002, 1.551273e+004
8.002231e+002, 1.551867e+004
8.007053e+002, 1.553290e+004
8.011874e+002, 1.555430e+004
8.016695e+002, 1.557674e+004
8.021516e+002, 1.559709e+004
8.026337e+002, 1.561717e+004
8.031158e+002, 1.563730e+004
8.035980e+002, 1.565821e+004
8.040801e+002, 1.568279e+004
8.045622e+002, 1.571920e+004
8.050443e+002, 1.575035e+004
8.055264e+002, 1.576897e+004
8.060085e+002, 1.577961e+004
8.064907e+002, 1.579690e+004
8.069728e+002, 1.582150e+004
8.074549e+002, 1.584976e+004
8.079370e+002, 1.588288e+004
8.084191e+002, 1.591645e+004
8.089012e+002, 1.593851e+004
8.093834e+002, 1.595244e+004
8.098655e+002, 1.597036e+004
8.103476e+002, 1.599869e+004
8.108297e+002, 1.603269e+004
8.113118e+002, 1.607155e+004
8.117939e+002, 1.611386e+004
8.122761e+002, 1.615510e+004
8.127582e+002, 1.619395e+004
8.132403e+002, 1.623289e+004
8.137224e+002, 1.627260e+004
8.142045e+002, 1.631271e+004
8.146866e+002, 1.635267e+004
8.151688e+002, 1.639187e+004
8.156509e+002, 1.642929e+004
8.161330e+002, 1.646166e+004
8.166151e+002, 1.649541e+004
8.170972e+002, 1.653773e+004
8.175793e+002, 1.658876e+004
8.180615e+002, 1.665018e+004
8.185436e+002, 1.673427e+004
8.190257e+002, 1.681559e+004
8.195078e+002, 1.687771e+004
8.199899e+002, 1.692927e+004
8.204720e+002, 1.699325e+004
8.209542e+002, 1.707024e+004
8.214363e+002, 1.715651e+004
8.219184e+002, 1.725223e+004
8.224005e+002, 1.735607e+004
8.228826e+002, 1.746610e+004
8.233647e+002, 1.758298e+004
8.238469e+002, 1.770456e+004
8.243290e+002, 1.783380e+004
8.248111e+002, 1.796424e+004
8.252932e+002, 1.808623e+004
8.257753e+002, 1.820816e+004
8.262574e+002, 1.834245e+004
8.267396e+002, 1.850541e+004
8.272217e+002, 1.866897e+004
8.277038e+002, 1.883361e+004
8.281859e+002, 1.899440e+004
8.286681e+002, 1.914458e+004
8.291502e+002, 1.928145e+004
8.296323e+002, 1.941934e+004
8.301144e+002, 1.956341e+004
8.305966e+002, 1.970309e+004
8.310787e+002, 1.982358e+004
8.315608e+002, 1.992949e+004
8.320429e+002, 2.003626e+004
8.325250e+002, 2.015741e+004
8.330071e+002, 2.026488e+004
8.334893e+002, 2.034411e+004
8.339714e+002, 2.040134e+004
8.344535e+002, 2.044754e+004
8.349356e+002, 2.048475e+004
8.354177e+002, 2.050980e+004
8.358998e+002, 2.051918e+004
8.363820e+002, 2.052039e+004
8.368641e+002, 2.052619e+004
8.373462e+002, 2.053511e+004
8.378283e+002, 2.053618e+004
8.383104e+002, 2.052860e+004
8.387925e+002, 2.050712e+004
8.392747e+002, 2.045606e+004
8.397568e+002, 2.039133e+004
8.402389e+002, 2.033532e+004
8.407210e+002, 2.030274e+004
8.412031e+002, 2.026236e+004
8.416852e+002, 2.020368e+004
8.421674e+002, 2.013831e+004
8.426495e+002, 2.007740e+004
8.431316e+002, 2.002252e+004
8.436137e+002, 1.996517e+004
8.440958e+002, 1.990496e+004
8.445779e+002, 1.984016e+004
8.450601e+002, 1.976572e+004
8.455422e+002, 1.968585e+004
8.460243e+002, 1.960763e+004
8.465064e+002, 1.953208e+004
8.469885e+002, 1.945797e+004
8.474706e+002, 1.938591e+004
8.479528e+002, 1.931301e+004
8.484349e+002, 1.923640e+004
8.489170e+002, 1.915393e+004
8.493991e+002, 1.907203e+004
8.498812e+002, 1.899107e+004
8.503633e+002, 1.890819e+004
8.508455e+002, 1.882011e+004
8.513276e+002, 1.872716e+004
8.518097e+002, 1.863524e+004
8.522918e+002, 1.854393e+004
8.527739e+002, 1.845310e+004
8.532560e+002, 1.836214e+004
8.537382e+002, 1.827117e+004
8.542203e+002, 1.817893e+004
8.547024e+002, 1.808532e+004
8.551845e+002, 1.799296e+004
8.556666e+002, 1.790469e+004
8.561487e+002, 1.781682e+004
8.566309e+002, 1.772659e+004
8.571130e+002, 1.763554e+004
8.575951e+002, 1.754775e+004
8.580772e+002, 1.746281e+004
8.585593e+002, 1.738174e+004
8.590414e+002, 1.730364e+004
8.595236e+002, 1.722909e+004
8.600057e+002, 1.716126e+004
8.604878e+002, 1.709926e+004
8.609699e+002, 1.703779e+004
8.614520e+002, 1.697139e+004
8.619341e+002, 1.690713e+004
8.624163e+002, 1.684907e+004
8.628984e+002, 1.679587e+004
8.633805e+002, 1.674125e+004
8.638626e+002, 1.668413e+004
8.643447e+002, 1.662697e+004
8.648268e+002, 1.656965e+004
8.653090e+002, 1.651289e+004
8.657911e+002, 1.646061e+004
8.662732e+002, 1.641163e+004
8.667553e+002, 1.636351e+004
8.672374e+002, 1.631196e+004
8.677195e+002, 1.626247e+004
8.682017e+002, 1.621958e+004
8.686838e+002, 1.618114e+004
8.691659e+002, 1.614311e+004
8.696480e+002, 1.610603e+004
8.701301e+002, 1.606775e+004
8.706122e+002, 1.602931e+004
8.710944e+002, 1.598850e+004
8.715765e+002, 1.593739e+004
8.720586e+002, 1.587804e+004
8.725407e+002, 1.582534e+004
8.730228e+002, 1.578512e+004
8.735049e+002, 1.575103e+004
8.739871e+002, 1.571836e+004
8.744692e+002, 1.568743e+004
8.749513e+002, 1.565838e+004
8.754334e+002, 1.563462e+004
8.759155e+002, 1.560838e+004
8.763976e+002, 1.557645e+004
8.768798e+002, 1.554432e+004
8.773619e+002, 1.551783e+004
8.778440e+002, 1.549716e+004
8.783261e+002, 1.547996e+004
8.788082e+002, 1.546617e+004
8.792903e+002, 1.545323e+004
8.797725e+002, 1.543835e+004
8.802546e+002, 1.542198e+004
8.807367e+002, 1.540448e+004
8.812188e+002, 1.538531e+004
8.817009e+002, 1.536674e+004
8.821830e+002, 1.534970e+004
8.826652e+002, 1.533304e+004
8.831473e+002, 1.531526e+004
8.836294e+002, 1.529502e+004
8.841115e+002, 1.528318e+004
8.845936e+002, 1.528138e+004
8.850757e+002, 1.528061e+004
8.855579e+002, 1.527341e+004
8.860400e+002, 1.526265e+004
8.865221e+002, 1.525561e+004
8.870042e+002, 1.525214e+004
8.874863e+002, 1.524367e+004
8.879684e+002, 1.521923e+004
8.884506e+002, 1.519458e+004
8.889327e+002, 1.517864e+004
8.894148e+002, 1.517122e+004
8.898969e+002, 1.516573e+004
8.903790e+002, 1.516262e+004
8.908611e+002, 1.515980e+004
8.913433e+002, 1.515536e+004
8.918254e+002, 1.515094e+004
8.923075e+002, 1.515171e+004
8.927896e+002, 1.515656e+004
8.932717e+002, 1.516118e+004
8.937538e+002, 1.516438e+004
8.942360e+002, 1.516538e+004
8.947181e+002, 1.516085e+004
8.952002e+002, 1.515367e+004
8.956823e+002, 1.515210e+004
8.961644e+002, 1.516020e+004
8.966465e+002, 1.516555e+004
8.971287e+002, 1.516470e+004
8.976108e+002, 1.516231e+004
8.980929e+002, 1.516920e+004
8.985750e+002, 1.518291e+004
8.990571e+002, 1.519101e+004
8.995392e+002, 1.518927e+004
9.000214e+002, 1.518496e+004
9.005035e+002, 1.518398e+004
9.009856e+002, 1.518384e+004
9.014677e+002, 1.518127e+004
9.019498e+002, 1.517026e+004
9.024319e+002, 1.516777e+004
9.029141e+002, 1.517869e+004
9.033962e+002, 1.519109e+004
9.038783e+002, 1.519189e+004
9.043604e+002, 1.518275e+004
9.048425e+002, 1.518164e+004
9.053246e+002, 1.518987e+004
9.058068e+002, 1.520056e+004
9.062889e+002, 1.520932e+004
9.067710e+002, 1.521688e+004
9.072531e+002, 1.522483e+004
9.077352e+002, 1.523350e+004
9.082173e+002, 1.523730e+004
9.086995e+002, 1.523072e+004
9.091816e+002, 1.522608e+004
9.096637e+002, 1.523083e+004
9.101458e+002, 1.524252e+004
9.106279e+002, 1.524094e+004
9.111100e+002, 1.522705e+004
9.115922e+002, 1.521984e+004
9.120743e+002, 1.523787e+004
9.125564e+002, 1.526179e+004
9.130385e+002, 1.527152e+004
9.135206e+002, 1.527071e+004
9.140027e+002, 1.527096e+004
9.144849e+002, 1.527398e+004
9.149670e+002, 1.528094e+004
9.154491e+002, 1.529526e+004
9.159312e+002, 1.531131e+004
9.164133e+002, 1.531382e+004
9.168954e+002, 1.530319e+004
9.173776e+002, 1.530393e+004
9.178597e+002, 1.532524e+004
9.183418e+002, 1.534934e+004
9.188239e+002, 1.535495e+004
9.193060e+002, 1.535140e+004
9.197881e+002, 1.535180e+004
9.202703e+002, 1.536055e+004
9.207524e+002, 1.537094e+004
9.212345e+002, 1.538360e+004
9.217166e+002, 1.539552e+004
9.221987e+002, 1.540309e+004
9.226808e+002, 1.540597e+004
9.231630e+002, 1.541378e+004
9.236451e+002, 1.542718e+004
9.241272e+002, 1.544170e+004
9.246093e+002, 1.545464e+004
9.250914e+002, 1.546588e+004
9.255735e+002, 1.547427e+004
9.260557e+002, 1.547977e+004
9.265378e+002, 1.548681e+004
9.270199e+002, 1.550118e+004
9.275020e+002, 1.551194e+004
9.279841e+002, 1.551323e+004
9.284662e+002, 1.550753e+004
9.289484e+002, 1.551134e+004
9.294305e+002, 1.552457e+004
9.299126e+002, 1.553649e+004
9.303947e+002, 1.554199e+004
9.308768e+002, 1.554381e+004
9.313589e+002, 1.554277e+004
9.318411e+002, 1.554077e+004
9.323232e+002, 1.554195e+004
9.328053e+002, 1.555305e+004
9.332874e+002, 1.556031e+004
9.337695e+002, 1.555893e+004
9.342516e+002, 1.555543e+004
9.347338e+002, 1.556061e+004
9.352159e+002, 1.557452e+004
9.356980e+002, 1.558485e+004
9.361801e+002, 1.558865e+004
9.366622e+002, 1.559412e+004
9.371443e+002, 1.561588e+004
9.376265e+002, 1.564087e+004
9.381086e+002, 1.565033e+004
9.385907e+002, 1.563487e+004
9.390728e+002, 1.563000e+004
9.395549e+002, 1.564755e+004
9.400370e+002, 1.566888e+004
9.405192e+002, 1.568304e+004
9.410013e+002, 1.569041e+004
9.414834e+002, 1.570145e+004
9.419655e+002, 1.571610e+004
9.424476e+002, 1.573003e+004
9.429297e+002, 1.574010e+004
9.434119e+002, 1.574831e+004
9.438940e+002, 1.575873e+004
9.443761e+002, 1.576962e+004
9.448582e+002, 1.577292e+004
9.453403e+002, 1.575741e+004
9.458224e+002, 1.574693e+004
9.463046e+002, 1.574606e+004
9.467867e+002, 1.575344e+004
9.472688e+002, 1.576869e+004
9.477509e+002, 1.579068e+004
9.482330e+002, 1.580955e+004
9.487151e+002, 1.582372e+004
9.491973e+002, 1.583104e+004
9.496794e+002, 1.582126e+004
9.501615e+002, 1.580751e+004
9.506436e+002, 1.580618e+004
9.511257e+002, 1.582861e+004
9.516078e+002, 1.584834e+004
9.520900e+002, 1.586424e+004
9.525721e+002, 1.587884e+004
9.530542e+002, 1.589522e+004
9.535363e+002, 1.591249e+004
9.540184e+002, 1.592418e+004
9.545005e+002, 1.593010e+004
9.549827e+002, 1.593628e+004
9.554648e+002, 1.594228e+004
9.559469e+002, 1.595368e+004
9.564290e+002, 1.597676e+004
9.569111e+002, 1.601080e+004
9.573932e+002, 1.604209e+004
9.578754e+002, 1.607036e+004
9.583575e+002, 1.609419e+004
9.588396e+002, 1.611021e+004
9.593217e+002, 1.612397e+004
9.598038e+002, 1.615075e+004
9.602859e+002, 1.618695e+004
9.607681e+002, 1.622003e+004
9.612502e+002, 1.624578e+004
9.617323e+002, 1.626656e+004
9.622144e+002, 1.627475e+004
9.626965e+002, 1.628321e+004
9.631786e+002, 1.631008e+004
9.636608e+002, 1.636510e+004
9.641429e+002, 1.640945e+004
9.646250e+002, 1.643739e+004
9.651071e+002, 1.646899e+004
9.655892e+002, 1.653224e+004
9.660714e+002, 1.661179e+004
9.665535e+002, 1.667604e+004
9.670356e+002, 1.672228e+004
9.675177e+002, 1.676623e+004
9.679998e+002, 1.680282e+004
9.684819e+002, 1.685194e+004
9.689641e+002, 1.692929e+004
9.694462e+002, 1.703028e+004
9.699283e+002, 1.712500e+004
9.704104e+002, 1.721099e+004
9.708925e+002, 1.730846e+004
9.713746e+002, 1.743030e+004
9.718568e+002, 1.756186e+004
9.723389e+002, 1.768122e+004
9.728210e+002, 1.779463e+004
9.733031e+002, 1.791659e+004
9.737852e+002, 1.805482e+004
9.742673e+002, 1.819789e+004
9.747495e+002, 1.835119e+004
9.752316e+002, 1.850355e+004
9.757137e+002, 1.864655e+004
9.761958e+002, 1.878182e+004
9.766779e+002, 1.889803e+004
9.771600e+002, 1.899590e+004
9.776422e+002, 1.906262e+004
9.781243e+002, 1.907822e+004
9.786064e+002, 1.906487e+004
9.790885e+002, 1.904313e+004
9.795706e+002, 1.901530e+004
9.800527e+002, 1.898304e+004
9.805349e+002, 1.894512e+004
9.810170e+002, 1.890565e+004
9.814991e+002, 1.886634e+004
9.819812e+002, 1.882589e+004
9.824633e+002, 1.878001e+004
9.829454e+002, 1.872878e+004
9.834276e+002, 1.867368e+004
9.839097e+002, 1.861659e+004
9.843918e+002, 1.855256e+004
9.848739e+002, 1.847412e+004
9.853560e+002, 1.838699e+004
9.858381e+002, 1.830042e+004
9.863203e+002, 1.822061e+004
9.868024e+002, 1.812858e+004
9.872845e+002, 1.802035e+004
9.877666e+002, 1.790882e+004
9.882487e+002, 1.780747e+004
9.887308e+002, 1.771376e+004
9.892130e+002, 1.761583e+004
9.896951e+002, 1.751396e+004
9.901772e+002, 1.742018e+004
9.906593e+002, 1.734306e+004
9.911414e+002, 1.727412e+004
9.916235e+002, 1.720846e+004
9.921057e+002, 1.714667e+004
9.925878e+002, 1.709133e+004
9.930699e+002, 1.704193e+004
9.935520e+002, 1.700030e+004
9.940341e+002, 1.696796e+004
9.945162e+002, 1.694107e+004
9.949984e+002, 1.691309e+004
9.954805e+002, 1.688682e+004
9.959626e+002, 1.686777e+004
9.964447e+002, 1.686480e+004
9.969268e+002, 1.685715e+004
9.974089e+002, 1.683682e+004
9.978911e+002, 1.681689e+004
9.983732e+002, 1.681352e+004
9.988553e+002, 1.682592e+004
9.993374e+002, 1.681604e+004
9.998195e+002, 1.678228e+004
1.000302e+003, 1.675760e+004
1.000784e+003, 1.678118e+004
1.001266e+003, 1.681281e+004
1.001748e+003, 1.681433e+004
1.002230e+003, 1.678801e+004
1.002712e+003, 1.677773e+004
1.003194e+003, 1.679373e+004
1.003676e+003, 1.680733e+004
1.004159e+003, 1.680893e+004
1.004641e+003, 1.680620e+004
1.005123e+003, 1.681654e+004
1.005605e+003, 1.683589e+004
1.006087e+003, 1.685209e+004
1.006569e+003, 1.686101e+004
1.007051e+003, 1.686852e+004
1.007533e+003, 1.687918e+004
1.008016e+003, 1.688914e+004
1.008498e+003, 1.689524e+004
1.008980e+003, 1.689724e+004
1.009462e+003, 1.689760e+004
1.009944e+003, 1.689619e+004
1.010426e+003, 1.689529e+004
1.010908e+003, 1.689501e+004
1.011390e+003, 1.689718e+004
1.011872e+003, 1.690485e+004
1.012355e+003, 1.691722e+004
1.012837e+003, 1.693107e+004
1.013319e+003, 1.694705e+004
1.013801e+003, 1.696176e+004
1.014283e+003, 1.697436e+004
1.014765e+003, 1.698497e+004
1.015247e+003, 1.699386e+004
1.015729e+003, 1.700114e+004
1.016211e+003, 1.700716e+004
1.016694e+003, 1.701165e+004
1.017176e+003, 1.701709e+004
1.017658e+003, 1.702703e+004
1.018140e+003, 1.703815e+004
1.018622e+003, 1.704842e+004
1.019104e+003, 1.705853e+004
1.019586e+003, 1.706288e+004
1.020068e+003, 1.706052e+004
1.020551e+003, 1.705639e+004
1.021033e+003, 1.705126e+004
1.021515e+003, 1.704750e+004
1.021997e+003, 1.705119e+004
1.022479e+003, 1.706073e+004
1.022961e+003, 1.707142e+004
1.023443e+003, 1.707690e+004
1.023925e+003, 1.708867e+004
1.024407e+003, 1.711504e+004
1.024890e+003, 1.714560e+004
1.025372e+003, 1.716650e+004
1.025854e+003, 1.717707e+004
1.026336e+003, 1.719370e+004
1.026818e+003, 1.721868e+004
1.027300e+003, 1.724073e+004
1.027782e+003, 1.724868e+004
1.028264e+003, 1.724998e+004
1.028746e+003, 1.725104e+004
1.029229e+003, 1.725243e+004
1.029711e+003, 1.725264e+004
1.030193e+003, 1.724841e+004
1.030675e+003, 1.724983e+004
1.031157e+003, 1.726111e+004
1.031639e+003, 1.727915e+004
1.032121e+003, 1.730069e+004
1.032603e+003, 1.732360e+004
1.033086e+003, 1.734035e+004
1.033568e+003, 1.734769e+004
1.034050e+003, 1.735157e+004
1.034532e+003, 1.734968e+004
1.035014e+003, 1.734946e+004
1.035496e+003, 1.735832e+004
1.035978e+003, 1.737810e+004
1.036460e+003, 1.739421e+004
1.036943e+003, 1.740628e+004
1.037425e+003, 1.741744e+004
1.037907e+003, 1.743033e+004
1.038389e+003, 1.744291e+004
1.038871e+003, 1.745143e+004
1.039353e+003, 1.745720e+004
1.039835e+003, 1.746540e+004
1.040317e+003, 1.747599e+004
1.040799e+003, 1.749036e+004
1.041281e+003, 1.750890e+004
1.041764e+003, 1.753088e+004
1.042246e+003, 1.755813e+004
1.042728e+003, 1.758802e+004
1.043210e+003, 1.761149e+004
1.043692e+003, 1.762718e+004
1.044174e+003, 1.763710e+004
1.044656e+003, 1.763463e+004
1.045138e+003, 1.763416e+004
1.045621e+003, 1.764662e+004
1.046103e+003, 1.767074e+004
1.046585e+003, 1.769067e+004
1.047067e+003, 1.770648e+004
1.047549e+003, 1.771506e+004
1.048031e+003, 1.771053e+004
1.048513e+003, 1.770414e+004
1.048995e+003, 1.770825e+004
1.049478e+003, 1.772023e+004
1.049960e+003, 1.773562e+004
1.050442e+003, 1.775758e+004
1.050924e+003, 1.777711e+004
1.051406e+003, 1.779641e+004
1.051888e+003, 1.780953e+004
1.052370e+003, 1.780484e+004
1.052852e+003, 1.779013e+004
1.053334e+003, 1.779586e+004
1.053817e+003, 1.782092e+004
1.054299e+003, 1.784172e+004
1.054781e+003, 1.783997e+004
1.055263e+003, 1.783666e+004
1.055745e+003, 1.784226e+004
1.056227e+003, 1.785309e+004
1.056709e+003, 1.785967e+004
1.057191e+003, 1.786147e+004
1.057673e+003, 1.786896e+004
1.058156e+003, 1.788590e+004
1.058638e+003, 1.790160e+004
1.059120e+003, 1.790002e+004
1.059602e+003, 1.789415e+004
1.060084e+003, 1.789993e+004
1.060566e+003, 1.792270e+004
1.061048e+003, 1.793668e+004
1.061530e+003, 1.793722e+004
1.062013e+003, 1.793853e+004
1.062495e+003, 1.795018e+004
1.062977e+003, 1.796508e+004
1.063459e+003, 1.796077e+004
1.063941e+003, 1.794479e+004
1.064423e+003, 1.793899e+004
1.064905e+003, 1.796492e+004
1.065387e+003, 1.798409e+004
1.065870e+003, 1.797633e+004
1.066352e+003, 1.796303e+004
1.066834e+003, 1.796397e+004
1.067316e+003, 1.797932e+004
1.067798e+003, 1.799117e+004
1.068280e+003, 1.799896e+004
1.068762e+003, 1.800312e+004
1.069244e+003, 1.800216e+004
1.069726e+003, 1.799936e+004
1.070208e+003, 1.799453e+004
1.070691e+003, 1.798984e+004
1.071173e+003, 1.799428e+004
1.071655e+003, 1.801190e+004
1.072137e+003, 1.802548e+004
1.072619e+003, 1.803099e+004
1.073101e+003, 1.803412e+004
1.073583e+003, 1.804283e+004
1.074065e+003, 1.805420e+004
1.074548e+003, 1.806374e+004
1.075030e+003, 1.807046e+004
1.075512e+003, 1.807629e+004
1.075994e+003, 1.807870e+004
1.076476e+003, 1.808450e+004
1.076958e+003, 1.809896e+004
1.077440e+003, 1.811791e+004
1.077922e+003, 1.812462e+004
1.078405e+003, 1.812119e+004
1.078887e+003, 1.811741e+004
1.079369e+003, 1.811622e+004
1.079851e+003, 1.811742e+004
1.080333e+003, 1.812078e+004
1.080815e+003, 1.812693e+004
1.081297e+003, 1.813694e+004
1.081779e+003, 1.815237e+004
1.082261e+003, 1.816227e+004
1.082744e+003, 1.816628e+004
1.083226e+003, 1.817000e+004
1.083708e+003, 1.817831e+004
1.084190e+003, 1.818762e+004
1.084672e+003, 1.819171e+004
1.085154e+003, 1.819335e+004
1.085636e+003, 1.820297e+004
1.086118e+003, 1.822959e+004
1.086601e+003, 1.824735e+004
1.087083e+003, 1.825094e+004
1.087565e+003, 1.825032e+004
1.088047e+003, 1.825528e+004
1.088529e+003, 1.826624e+004
1.089011e+003, 1.828844e+004
1.089493e+003, 1.832216e+004
1.089975e+003, 1.834622e+004
1.090458e+003, 1.834408e+004
1.090940e+003, 1.833871e+004
1.091422e+003, 1.833834e+004
1.091904e+003, 1.834093e+004
1.092386e+003, 1.833945e+004
1.092868e+003, 1.833478e+004
1.093350e+003, 1.833321e+004
1.093832e+003, 1.833738e+004
1.094314e+003, 1.834229e+004
1.094797e+003, 1.834296e+004
1.095279e+003, 1.834413e+004
1.095761e+003, 1.835156e+004
1.096243e+003, 1.836601e+004
1.096725e+003, 1.837422e+004
1.097207e+003, 1.837565e+004
1.097689e+003, 1.837882e+004
1.098171e+003, 1.838864e+004
1.098653e+003, 1.840263e+004
1.099136e+003, 1.842320e+004
1.099618e+003, 1.844470e+004
1.100100e+003, 1.845597e+004
1.100582e+003, 1.844695e+004
1.101064e+003, 1.844056e+004
1.101546e+003, 1.843538e+004
1.102028e+003, 1.843740e+004
1.102510e+003, 1.845745e+004
1.102993e+003, 1.848668e+004
1.103475e+003, 1.850866e+004
1.103957e+003, 1.852240e+004
1.104439e+003, 1.852685e+004
1.104921e+003, 1.850860e+004
1.105403e+003, 1.849794e+004
1.105885e+003, 1.850453e+004
1.106367e+003, 1.852030e+004
1.106849e+003, 1.853168e+004
1.107332e+003, 1.853966e+004
1.107814e+003, 1.854784e+004
1.108296e+003, 1.855669e+004
1.108778e+003, 1.856977e+004
1.109260e+003, 1.859530e+004
1.109742e+003, 1.862053e+004
1.110224e+003, 1.863874e+004
1.110706e+003, 1.864972e+004
1.111188e+003, 1.865070e+004
1.111671e+003, 1.864119e+004
1.112153e+003, 1.863617e+004
1.112635e+003, 1.864038e+004
1.113117e+003, 1.865026e+004
1.113599e+003, 1.866564e+004
1.114081e+003, 1.868273e+004
1.114563e+003, 1.869704e+004
1.115045e+003, 1.870832e+004
1.115528e+003, 1.871500e+004
1.116010e+003, 1.871591e+004
1.116492e+003, 1.871734e+004
1.116974e+003, 1.872097e+004
1.117456e+003, 1.872917e+004
1.117938e+003, 1.875424e+004
1.118420e+003, 1.878578e+004
1.118902e+003, 1.880129e+004
1.119385e+003, 1.877211e+004
1.119867e+003, 1.876224e+004
1.120349e+003, 1.878329e+004
1.120831e+003, 1.880734e+004
1.121313e+003, 1.880463e+004
1.121795e+003, 1.878537e+004
1.122277e+003, 1.877763e+004
1.122759e+003, 1.878159e+004
1.123241e+003, 1.879251e+004
1.123724e+003, 1.881209e+004
1.124206e+003, 1.883354e+004
1.124688e+003, 1.885690e+004
1.125170e+003, 1.887874e+004
1.125652e+003, 1.889339e+004
1.126134e+003, 1.890132e+004
1.126616e+003, 1.890514e+004
1.127098e+003, 1.890505e+004
1.127580e+003, 1.890464e+004
1.128063e+003, 1.890273e+004
1.128545e+003, 1.890498e+004
1.129027e+003, 1.891818e+004
1.129509e+003, 1.893835e+004
1.129991e+003, 1.895125e+004
1.130473e+003, 1.895690e+004
1.130955e+003, 1.896261e+004
1.131437e+003, 1.896966e+004
1.131920e+003, 1.898014e+004
1.132402e+003, 1.900184e+004
1.132884e+003, 1.902417e+004
1.133366e+003, 1.903441e+004
1.133848e+003, 1.903051e+004
1.134330e+003, 1.903651e+004
1.134812e+003, 1.905406e+004
1.135294e+003, 1.907169e+004
1.135776e+003, 1.908381e+004
1.136259e+003, 1.909375e+004
1.136741e+003, 1.910433e+004
1.137223e+003, 1.911625e+004
1.137705e+003, 1.913095e+004
1.138187e+003, 1.914893e+004
1.138669e+003, 1.916891e+004
1.139151e+003, 1.919160e+004
1.139633e+003, 1.921401e+004
1.140115e+003, 1.923511e+004
1.140598e+003, 1.925400e+004
1.141080e+003, 1.927140e+004
1.141562e+003, 1.928521e+004
1.142044e+003, 1.929000e+004
1.142526e+003, 1.926784e+004
1.143008e+003, 1.926114e+004
1.143490e+003, 1.928082e+004
1.143972e+003, 1.930676e+004
1.144455e+003, 1.931782e+004
1.144937e+003, 1.931887e+004
1.145419e+003, 1.932558e+004
1.145901e+003, 1.933818e+004
1.146383e+003, 1.935269e+004
1.146865e+003, 1.937008e+004
1.147347e+003, 1.938531e+004
1.147829e+003, 1.939723e+004
1.148312e+003, 1.940654e+004
1.148794e+003, 1.941204e+004
1.149276e+003, 1.941518e+004
1.149758e+003, 1.942653e+004
1.150240e+003, 1.944734e+004
1.150722e+003, 1.946989e+004
1.151204e+003, 1.949253e+004
1.151686e+003, 1.951182e+004
1.152168e+003, 1.952394e+004
1.152651e+003, 1.953175e+004
1.153133e+003, 1.954304e+004
1.153615e+003, 1.955762e+004
1.154097e+003, 1.957510e+004
1.154579e+003, 1.959575e+004
1.155061e+003, 1.961562e+004
1.155543e+003, 1.963194e+004
1.156025e+003, 1.964565e+004
1.156507e+003, 1.965629e+004
1.156990e+003, 1.966449e+004
1.157472e+003, 1.967591e+004
1.157954e+003, 1.969090e+004
1.158436e+003, 1.970584e+004
1.158918e+003, 1.972042e+004
1.159400e+003, 1.973282e+004
1.159882e+003, 1.973747e+004
1.160364e+003, 1.974116e+004
1.160847e+003, 1.975330e+004
1.161329e+003, 1.977675e+004
1.161811e+003, 1.979303e+004
1.162293e+003, 1.980090e+004
1.162775e+003, 1.980838e+004
1.163257e+003, 1.982204e+004
1.163739e+003, 1.983413e+004
1.164221e+003, 1.982738e+004
1.164703e+003, 1.981459e+004
1.165186e+003, 1.981857e+004
1.165668e+003, 1.985641e+004
1.166150e+003, 1.987959e+004
1.166632e+003, 1.988544e+004
1.167114e+003, 1.988527e+004
1.167596e+003, 1.988350e+004
1.168078e+003, 1.988323e+004
1.168560e+003, 1.989208e+004
1.169042e+003, 1.990669e+004
1.169525e+003, 1.991780e+004
1.170007e+003, 1.992480e+004
1.170489e+003, 1.992357e+004
1.170971e+003, 1.990940e+004
1.171453e+003, 1.989888e+004
1.171935e+003, 1.991649e+004
1.172417e+003, 1.994534e+004
1.172899e+003, 1.994620e+004
1.173382e+003, 1.992495e+004
1.173864e+003, 1.991705e+004
1.174346e+003, 1.995445e+004
1.174828e+003, 1.997580e+004
1.175310e+003, 1.996744e+004
1.175792e+003, 1.995022e+004
1.176274e+003, 1.995083e+004
1.176756e+003, 1.996327e+004
1.177239e+003, 1.997338e+004
1.177721e+003, 1.998006e+004
1.178203e+003, 1.998926e+004
1.178685e+003, 2.000816e+004
1.179167e+003, 2.002284e+004
1.179649e+003, 2.002917e+004
1.180131e+003, 2.003062e+004
1.180613e+003, 2.003399e+004
1.181095e+003, 2.003763e+004
1.181578e+003, 2.003331e+004
1.182060e+003, 2.001900e+004
1.182542e+003, 2.001649e+004
1.183024e+003, 2.004974e+004
1.183506e+003, 2.007979e+004
1.183988e+003, 2.009172e+004
1.184470e+003, 2.009257e+004
1.184952e+003, 2.010090e+004
1.185434e+003, 2.011374e+004
1.185917e+003, 2.011914e+004
1.186399e+003, 2.011244e+004
1.186881e+003, 2.010863e+004
1.187363e+003, 2.011417e+004
1.187845e+003, 2.012575e+004
1.188327e+003, 2.014316e+004
1.188809e+003, 2.016426e+004
1.189291e+003, 2.018267e+004
1.189774e+003, 2.019796e+004
1.190256e+003, 2.020856e+004
1.190738e+003, 2.021230e+004
1.191220e+003, 2.021550e+004
1.191702e+003, 2.021750e+004
1.192184e+003, 2.022383e+004
1.192666e+003, 2.023973e+004
1.193148e+003, 2.026303e+004
1.193630e+003, 2.028024e+004
1.194113e+003, 2.029156e+004
1.194595e+003, 2.029741e+004
1.195077e+003, 2.029297e+004
1.195559e+003, 2.029260e+004
1.196041e+003, 2.031235e+004
1.196523e+003, 2.033154e+004
1.197005e+003, 2.033204e+004
1.197487e+003, 2.031543e+004
1.197969e+003, 2.030567e+004
1.198452e+003, 2.030297e+004
1.198934e+003, 2.030797e+004
1.199416e+003, 2.032669e+004
1.199898e+003, 2.034596e+004
1.200380e+003, 2.036353e+004
1.200862e+003, 2.037544e+004
1.201344e+003, 2.037424e+004
1.201826e+003, 2.036000e+004
1.202309e+003, 2.036293e+004
1.202791e+003, 2.038172e+004
1.203273e+003, 2.039930e+004
1.203755e+003, 2.040293e+004
1.204237e+003, 2.040602e+004
1.204719e+003, 2.041733e+004
1.205201e+003, 2.043032e+004
1.205683e+003, 2.043639e+004
1.206166e+003, 2.043555e+004
1.206648e+003, 2.043652e+004
1.207130e+003, 2.043964e+004
1.207612e+003, 2.044607e+004
1.208094e+003, 2.045875e+004
1.208576e+003, 2.047235e+004
1.209058e+003, 2.048327e+004
1.209540e+003, 2.049374e+004
1.210022e+003, 2.050851e+004
1.210505e+003, 2.052736e+004
1.210987e+003, 2.053867e+004
1.211469e+003, 2.054185e+004
1.211951e+003, 2.054069e+004
1.212433e+003, 2.052909e+004
1.212915e+003, 2.052355e+004
1.213397e+003, 2.053984e+004
1.213879e+003, 2.056521e+004
1.214361e+003, 2.057847e+004
1.214844e+003, 2.058036e+004
1.215326e+003, 2.058003e+004
1.215808e+003, 2.057846e+004
1.216290e+003, 2.057935e+004
1.216772e+003, 2.058567e+004
1.217254e+003, 2.059464e+004
1.217736e+003, 2.060425e+004
1.218218e+003, 2.061538e+004
1.218701e+003, 2.063254e+004
1.219183e+003, 2.065456e+004
1.219665e+003, 2.066937e+004
1.220147e+003, 2.067460e+004
1.220629e+003, 2.067861e+004
1.221111e+003, 2.068734e+004
1.221593e+003, 2.069548e+004
1.222075e+003, 2.069995e+004
1.222557e+003, 2.070190e+004
1.223040e+003, 2.070425e+004
1.223522e+003, 2.070691e+004
1.224004e+003, 2.070716e+004
1.224486e+003, 2.070385e+004
1.224968e+003, 2.070674e+004
1.225450e+003, 2.073445e+004
1.225932e+003, 2.075602e+004
1.226414e+003, 2.075177e+004
1.226896e+003, 2.073279e+004
1.227379e+003, 2.073365e+004
1.227861e+003, 2.075088e+004
1.228343e+003, 2.076601e+004
1.228825e+003, 2.077529e+004
1.229307e+003, 2.078021e+004
1.229789e+003, 2.077462e+004
1.230271e+003, 2.077240e+004
1.230753e+003, 2.078128e+004
1.231236e+003, 2.079775e+004
1.231718e+003, 2.081246e+004
1.232200e+003, 2.082463e+004
1.232682e+003, 2.082924e+004
1.233164e+003, 2.082286e+004
1.233646e+003, 2.081967e+004
1.234128e+003, 2.083115e+004
1.234610e+003, 2.084245e+004
1.235093e+003, 2.084641e+004
1.235575e+003, 2.084549e+004
1.236057e+003, 2.084407e+004
1.236539e+003, 2.084440e+004
1.237021e+003, 2.085567e+004
1.237503e+003, 2.088476e+004
1.237985e+003, 2.090840e+004
1.238467e+003, 2.091524e+004
1.238949e+003, 2.091722e+004
1.239432e+003, 2.091719e+004
1.239914e+003, 2.091744e+004
1.240396e+003, 2.092751e+004
1.240878e+003, 2.094351e+004
1.241360e+003, 2.095386e+004
1.241842e+003, 2.095268e+004
1.242324e+003, 2.095420e+004
1.242806e+003, 2.096388e+004
1.243288e+003, 2.097308e+004
1.243771e+003, 2.097717e+004
1.244253e+003, 2.097830e+004
1.244735e+003, 2.098061e+004
1.245217e+003, 2.098480e+004
1.245699e+003, 2.099263e+004
1.246181e+003, 2.100558e+004
1.246663e+003, 2.102044e+004
1.247145e+003, 2.103987e+004
1.247628e+003, 2.105410e+004
1.248110e+003, 2.105347e+004
1.248592e+003, 2.104858e+004
1.249074e+003, 2.106738e+004
1.249556e+003, 2.109727e+004
1.250038e+003, 2.111275e+004
1.250520e+003, 2.109589e+004
1.251002e+003, 2.109488e+004
1.251484e+003, 2.111579e+004
1.251967e+003, 2.113919e+004
1.252449e+003, 2.115456e+004
1.252931e+003, 2.116474e+004
1.253413e+003, 2.117264e+004
1.253895e+003, 2.117945e+004
1.254377e+003, 2.118716e+004
1.254859e+003, 2.119638e+004
1.255341e+003, 2.120603e+004
1.255823e+003, 2.121662e+004
1.256306e+003, 2.122448e+004
1.256788e+003, 2.122616e+004
1.257270e+003, 2.122536e+004
1.257752e+003, 2.122354e+004
1.258234e+003, 2.122364e+004
1.258716e+003, 2.123168e+004
1.259198e+003, 2.125134e+004
1.259680e+003, 2.126731e+004
1.260163e+003, 2.128050e+004
1.260645e+003, 2.128420e+004
1.261127e+003, 2.126693e+004
1.261609e+003, 2.124867e+004
1.262091e+003, 2.125055e+004
1.262573e+003, 2.126119e+004
1.263055e+003, 2.126399e+004
1.263537e+003, 2.125669e+004
1.264020e+003, 2.125429e+004
1.264502e+003, 2.125660e+004
1.264984e+003, 2.126341e+004
1.265466e+003, 2.127540e+004
1.265948e+003, 2.129024e+004
1.266430e+003, 2.131068e+004
1.266912e+003, 2.132960e+004
1.267394e+003, 2.133761e+004
1.267876e+003, 2.133421e+004
1.268359e+003, 2.134141e+004
1.268841e+003, 2.135796e+004
1.269323e+003, 2.137252e+004
1.269805e+003, 2.138415e+004
1.270287e+003, 2.138570e+004
1.270769e+003, 2.135817e+004
1.271251e+003, 2.133338e+004
1.271733e+003, 2.134260e+004
1.272215e+003, 2.137988e+004
1.272698e+003, 2.139248e+004
1.273180e+003, 2.138503e+004
1.273662e+003, 2.137766e+004
1.274144e+003, 2.137849e+004
1.274626e+003, 2.138290e+004
1.275108e+003, 2.139166e+004
1.275590e+003, 2.140074e+004
1.276072e+003, 2.140552e+004
1.276555e+003, 2.140826e+004
1.277037e+003, 2.141761e+004
1.277519e+003, 2.143136e+004
1.278001e+003, 2.144338e+004
1.278483e+003, 2.145109e+004
1.278965e+003, 2.145539e+004
1.279447e+003, 2.145314e+004
1.279929e+003, 2.145484e+004
1.280411e+003, 2.147559e+004
1.280894e+003, 2.150126e+004
1.281376e+003, 2.150127e+004
1.281858e+003, 2.148626e+004
1.282340e+003, 2.148090e+004
1.282822e+003, 2.149823e+004
1.283304e+003, 2.150805e+004
1.283786e+003, 2.150801e+004
1.284268e+003, 2.151290e+004
1.284750e+003, 2.153910e+004
1.285233e+003, 2.157051e+004
1.285715e+003, 2.159016e+004
1.286197e+003, 2.160083e+004
1.286679e+003, 2.160588e+004
1.287161e+003, 2.160216e+004
1.287643e+003, 2.161055e+004
1.288125e+003, 2.163147e+004
1.288607e+003, 2.164868e+004
1.289090e+003, 2.164620e+004
1.289572e+003, 2.164225e+004
1.290054e+003, 2.165119e+004
1.290536e+003, 2.166477e+004
1.291018e+003, 2.167157e+004
1.291500e+003, 2.167104e+004
1.291982e+003, 2.168179e+004
1.292464e+003, 2.170193e+004
1.292947e+003, 2.171480e+004
1.293429e+003, 2.170483e+004
1.293911e+003, 2.169576e+004
1.294393e+003, 2.170590e+004
1.294875e+003, 2.171461e+004
1.295357e+003, 2.169951e+004
1.295839e+003, 2.166841e+004
1.296321e+003, 2.167510e+004
1.296803e+003, 2.170960e+004
1.297286e+003, 2.173353e+004
1.297768e+003, 2.171967e+004
1.298250e+003, 2.171531e+004
1.298732e+003, 2.173283e+004
1.299214e+003, 2.175103e+004
1.299696e+003, 2.174802e+004
1.300178e+003, 2.173736e+004
1.300660e+003, 2.175282e+004
##END=



