##NAMES=Tundrite-(Ce)
##RRUFFID=R130563
##IDEAL CHEMISTRY=Na_2_Ce^3+^_2_Ti^4+^O_2_SiO_4_(CO_3_)_2_
##LOCALITY=Poudrette quarry, Mount St. Hilaire, Quebec, Canada
##OWNER=RRUFF
##SOURCE=Don Doell
##DESCRIPTION=Yellow bladed crystals, associated with white orthoclase
##STATUS=The identification of this mineral has been confirmed only by single crystal X-ray diffraction.
##URL=rruff.info/R130563
8.813672e+001, 9.051541e+002
8.861884e+001, 9.084424e+002
8.910095e+001, 9.166650e+002
8.958307e+001, 9.364667e+002
9.006519e+001, 9.635590e+002
9.054730e+001, 9.901199e+002
9.102942e+001, 1.016810e+003
9.151154e+001, 1.041654e+003
9.199365e+001, 1.061750e+003
9.247577e+001, 1.078087e+003
9.295789e+001, 1.094351e+003
9.344000e+001, 1.113756e+003
9.392212e+001, 1.134185e+003
9.440424e+001, 1.152699e+003
9.488635e+001, 1.169683e+003
9.536847e+001, 1.186508e+003
9.585059e+001, 1.205099e+003
9.633270e+001, 1.225446e+003
9.681482e+001, 1.246857e+003
9.729694e+001, 1.267787e+003
9.777905e+001, 1.288343e+003
9.826117e+001, 1.311755e+003
9.874329e+001, 1.339625e+003
9.922540e+001, 1.371025e+003
9.970752e+001, 1.400269e+003
1.001896e+002, 1.426292e+003
1.006718e+002, 1.451564e+003
1.011539e+002, 1.478546e+003
1.016360e+002, 1.507299e+003
1.021181e+002, 1.537991e+003
1.026002e+002, 1.570124e+003
1.030823e+002, 1.603264e+003
1.035645e+002, 1.640194e+003
1.040466e+002, 1.681964e+003
1.045287e+002, 1.726989e+003
1.050108e+002, 1.773619e+003
1.054929e+002, 1.822338e+003
1.059750e+002, 1.871692e+003
1.064572e+002, 1.921553e+003
1.069393e+002, 1.977173e+003
1.074214e+002, 2.024259e+003
1.079035e+002, 2.060564e+003
1.083856e+002, 2.088617e+003
1.088677e+002, 2.115493e+003
1.093499e+002, 2.143205e+003
1.098320e+002, 2.168836e+003
1.103141e+002, 2.191138e+003
1.107962e+002, 2.207012e+003
1.112783e+002, 2.223633e+003
1.117604e+002, 2.242723e+003
1.122426e+002, 2.263900e+003
1.127247e+002, 2.283023e+003
1.132068e+002, 2.300046e+003
1.136889e+002, 2.314558e+003
1.141710e+002, 2.326074e+003
1.146531e+002, 2.335931e+003
1.151353e+002, 2.341316e+003
1.156174e+002, 2.339566e+003
1.160995e+002, 2.330665e+003
1.165816e+002, 2.322370e+003
1.170637e+002, 2.317454e+003
1.175458e+002, 2.314576e+003
1.180280e+002, 2.312231e+003
1.185101e+002, 2.308004e+003
1.189922e+002, 2.305396e+003
1.194743e+002, 2.306753e+003
1.199564e+002, 2.312394e+003
1.204385e+002, 2.319971e+003
1.209207e+002, 2.327665e+003
1.214028e+002, 2.336287e+003
1.218849e+002, 2.347235e+003
1.223670e+002, 2.364318e+003
1.228491e+002, 2.382824e+003
1.233312e+002, 2.397348e+003
1.238134e+002, 2.406687e+003
1.242955e+002, 2.414559e+003
1.247776e+002, 2.423504e+003
1.252597e+002, 2.433636e+003
1.257418e+002, 2.445306e+003
1.262239e+002, 2.459468e+003
1.267061e+002, 2.475390e+003
1.271882e+002, 2.491421e+003
1.276703e+002, 2.507826e+003
1.281524e+002, 2.523695e+003
1.286345e+002, 2.538191e+003
1.291166e+002, 2.551199e+003
1.295988e+002, 2.561971e+003
1.300809e+002, 2.570172e+003
1.305630e+002, 2.575642e+003
1.310451e+002, 2.577638e+003
1.315272e+002, 2.574973e+003
1.320093e+002, 2.569372e+003
1.324915e+002, 2.564083e+003
1.329736e+002, 2.558941e+003
1.334557e+002, 2.555368e+003
1.339378e+002, 2.554789e+003
1.344199e+002, 2.557138e+003
1.349020e+002, 2.561020e+003
1.353842e+002, 2.566109e+003
1.358663e+002, 2.572340e+003
1.363484e+002, 2.580216e+003
1.368305e+002, 2.589845e+003
1.373126e+002, 2.600626e+003
1.377947e+002, 2.612477e+003
1.382769e+002, 2.625988e+003
1.387590e+002, 2.637517e+003
1.392411e+002, 2.645832e+003
1.397232e+002, 2.650975e+003
1.402053e+002, 2.654588e+003
1.406874e+002, 2.656432e+003
1.411696e+002, 2.657265e+003
1.416517e+002, 2.658009e+003
1.421338e+002, 2.658691e+003
1.426159e+002, 2.659580e+003
1.430980e+002, 2.661077e+003
1.435801e+002, 2.663640e+003
1.440623e+002, 2.665117e+003
1.445444e+002, 2.665504e+003
1.450265e+002, 2.665019e+003
1.455086e+002, 2.663955e+003
1.459907e+002, 2.662276e+003
1.464728e+002, 2.660245e+003
1.469550e+002, 2.657772e+003
1.474371e+002, 2.654122e+003
1.479192e+002, 2.651856e+003
1.484013e+002, 2.651382e+003
1.488834e+002, 2.652244e+003
1.493655e+002, 2.653455e+003
1.498477e+002, 2.654138e+003
1.503298e+002, 2.655888e+003
1.508119e+002, 2.659374e+003
1.512940e+002, 2.666524e+003
1.517761e+002, 2.672517e+003
1.522583e+002, 2.676151e+003
1.527404e+002, 2.678313e+003
1.532225e+002, 2.681569e+003
1.537046e+002, 2.688374e+003
1.541867e+002, 2.694663e+003
1.546688e+002, 2.698593e+003
1.551510e+002, 2.699856e+003
1.556331e+002, 2.698959e+003
1.561152e+002, 2.695680e+003
1.565973e+002, 2.690231e+003
1.570794e+002, 2.683452e+003
1.575615e+002, 2.676770e+003
1.580437e+002, 2.668028e+003
1.585258e+002, 2.655874e+003
1.590079e+002, 2.638107e+003
1.594900e+002, 2.618910e+003
1.599721e+002, 2.599294e+003
1.604542e+002, 2.579190e+003
1.609364e+002, 2.558193e+003
1.614185e+002, 2.536014e+003
1.619006e+002, 2.512951e+003
1.623827e+002, 2.489242e+003
1.628648e+002, 2.464982e+003
1.633469e+002, 2.440058e+003
1.638291e+002, 2.413613e+003
1.643112e+002, 2.386090e+003
1.647933e+002, 2.359590e+003
1.652754e+002, 2.335897e+003
1.657575e+002, 2.313535e+003
1.662396e+002, 2.290956e+003
1.667218e+002, 2.266061e+003
1.672039e+002, 2.241931e+003
1.676860e+002, 2.220715e+003
1.681681e+002, 2.202566e+003
1.686502e+002, 2.185334e+003
1.691323e+002, 2.167465e+003
1.696145e+002, 2.149917e+003
1.700966e+002, 2.134116e+003
1.705787e+002, 2.121607e+003
1.710608e+002, 2.110508e+003
1.715429e+002, 2.099314e+003
1.720250e+002, 2.087893e+003
1.725072e+002, 2.076692e+003
1.729893e+002, 2.065545e+003
1.734714e+002, 2.054675e+003
1.739535e+002, 2.044487e+003
1.744356e+002, 2.035111e+003
1.749177e+002, 2.026556e+003
1.753999e+002, 2.018903e+003
1.758820e+002, 2.012158e+003
1.763641e+002, 2.005651e+003
1.768462e+002, 1.998319e+003
1.773283e+002, 1.990526e+003
1.778104e+002, 1.983206e+003
1.782926e+002, 1.976614e+003
1.787747e+002, 1.970843e+003
1.792568e+002, 1.966470e+003
1.797389e+002, 1.963732e+003
1.802210e+002, 1.961099e+003
1.807031e+002, 1.956748e+003
1.811853e+002, 1.951029e+003
1.816674e+002, 1.945351e+003
1.821495e+002, 1.940706e+003
1.826316e+002, 1.936625e+003
1.831137e+002, 1.932007e+003
1.835958e+002, 1.926640e+003
1.840780e+002, 1.921315e+003
1.845601e+002, 1.916392e+003
1.850422e+002, 1.912143e+003
1.855243e+002, 1.909632e+003
1.860064e+002, 1.910594e+003
1.864885e+002, 1.914027e+003
1.869707e+002, 1.916288e+003
1.874528e+002, 1.917139e+003
1.879349e+002, 1.916976e+003
1.884170e+002, 1.915620e+003
1.888991e+002, 1.913203e+003
1.893812e+002, 1.911992e+003
1.898634e+002, 1.913767e+003
1.903455e+002, 1.918049e+003
1.908276e+002, 1.922119e+003
1.913097e+002, 1.926024e+003
1.917918e+002, 1.929213e+003
1.922739e+002, 1.930656e+003
1.927561e+002, 1.930307e+003
1.932382e+002, 1.929012e+003
1.937203e+002, 1.927060e+003
1.942024e+002, 1.924476e+003
1.946845e+002, 1.921714e+003
1.951666e+002, 1.919037e+003
1.956488e+002, 1.915842e+003
1.961309e+002, 1.910466e+003
1.966130e+002, 1.902545e+003
1.970951e+002, 1.894906e+003
1.975772e+002, 1.889211e+003
1.980593e+002, 1.885492e+003
1.985415e+002, 1.881879e+003
1.990236e+002, 1.878332e+003
1.995057e+002, 1.874745e+003
1.999878e+002, 1.870880e+003
2.004699e+002, 1.866668e+003
2.009520e+002, 1.862529e+003
2.014342e+002, 1.858737e+003
2.019163e+002, 1.855280e+003
2.023984e+002, 1.852019e+003
2.028805e+002, 1.848882e+003
2.033626e+002, 1.845985e+003
2.038447e+002, 1.843786e+003
2.043269e+002, 1.842506e+003
2.048090e+002, 1.841100e+003
2.052911e+002, 1.838646e+003
2.057732e+002, 1.834775e+003
2.062553e+002, 1.832390e+003
2.067374e+002, 1.832160e+003
2.072196e+002, 1.833207e+003
2.077017e+002, 1.832883e+003
2.081838e+002, 1.830578e+003
2.086659e+002, 1.828603e+003
2.091480e+002, 1.828534e+003
2.096301e+002, 1.830932e+003
2.101123e+002, 1.832631e+003
2.105944e+002, 1.833203e+003
2.110765e+002, 1.833120e+003
2.115586e+002, 1.833784e+003
2.120407e+002, 1.835426e+003
2.125228e+002, 1.837304e+003
2.130050e+002, 1.839104e+003
2.134871e+002, 1.840941e+003
2.139692e+002, 1.842227e+003
2.144513e+002, 1.842873e+003
2.149334e+002, 1.842944e+003
2.154155e+002, 1.842463e+003
2.158977e+002, 1.840876e+003
2.163798e+002, 1.839772e+003
2.168619e+002, 1.840081e+003
2.173440e+002, 1.842148e+003
2.178261e+002, 1.844443e+003
2.183082e+002, 1.846818e+003
2.187904e+002, 1.849357e+003
2.192725e+002, 1.852276e+003
2.197546e+002, 1.855393e+003
2.202367e+002, 1.859160e+003
2.207188e+002, 1.863853e+003
2.212009e+002, 1.869868e+003
2.216831e+002, 1.875873e+003
2.221652e+002, 1.881535e+003
2.226473e+002, 1.887304e+003
2.231294e+002, 1.894350e+003
2.236115e+002, 1.903267e+003
2.240936e+002, 1.912662e+003
2.245758e+002, 1.921963e+003
2.250579e+002, 1.930856e+003
2.255400e+002, 1.940414e+003
2.260221e+002, 1.950810e+003
2.265042e+002, 1.961905e+003
2.269863e+002, 1.972811e+003
2.274685e+002, 1.982924e+003
2.279506e+002, 1.993992e+003
2.284327e+002, 2.006963e+003
2.289148e+002, 2.023089e+003
2.293969e+002, 2.038398e+003
2.298790e+002, 2.052179e+003
2.303612e+002, 2.065299e+003
2.308433e+002, 2.080110e+003
2.313254e+002, 2.098047e+003
2.318075e+002, 2.115696e+003
2.322896e+002, 2.131424e+003
2.327717e+002, 2.143935e+003
2.332539e+002, 2.157735e+003
2.337360e+002, 2.173724e+003
2.342181e+002, 2.190408e+003
2.347002e+002, 2.204284e+003
2.351823e+002, 2.213611e+003
2.356644e+002, 2.222541e+003
2.361466e+002, 2.232927e+003
2.366287e+002, 2.245960e+003
2.371108e+002, 2.257142e+003
2.375929e+002, 2.266251e+003
2.380750e+002, 2.273442e+003
2.385571e+002, 2.278795e+003
2.390393e+002, 2.281601e+003
2.395214e+002, 2.283731e+003
2.400035e+002, 2.286006e+003
2.404856e+002, 2.289051e+003
2.409677e+002, 2.290466e+003
2.414498e+002, 2.289798e+003
2.419320e+002, 2.287816e+003
2.424141e+002, 2.285684e+003
2.428962e+002, 2.282829e+003
2.433783e+002, 2.280868e+003
2.438604e+002, 2.280495e+003
2.443425e+002, 2.282160e+003
2.448247e+002, 2.283873e+003
2.453068e+002, 2.285494e+003
2.457889e+002, 2.287275e+003
2.462710e+002, 2.289578e+003
2.467531e+002, 2.292195e+003
2.472352e+002, 2.295663e+003
2.477174e+002, 2.300268e+003
2.481995e+002, 2.306146e+003
2.486816e+002, 2.312009e+003
2.491637e+002, 2.317208e+003
2.496458e+002, 2.322862e+003
2.501279e+002, 2.330627e+003
2.506101e+002, 2.341593e+003
2.510922e+002, 2.352727e+003
2.515743e+002, 2.363304e+003
2.520564e+002, 2.373451e+003
2.525385e+002, 2.382402e+003
2.530206e+002, 2.389999e+003
2.535028e+002, 2.396591e+003
2.539849e+002, 2.402429e+003
2.544670e+002, 2.407606e+003
2.549491e+002, 2.412031e+003
2.554312e+002, 2.415685e+003
2.559133e+002, 2.418540e+003
2.563955e+002, 2.420870e+003
2.568776e+002, 2.423169e+003
2.573597e+002, 2.424382e+003
2.578418e+002, 2.423111e+003
2.583239e+002, 2.418144e+003
2.588061e+002, 2.413511e+003
2.592882e+002, 2.410130e+003
2.597703e+002, 2.407956e+003
2.602524e+002, 2.405105e+003
2.607345e+002, 2.400958e+003
2.612166e+002, 2.396972e+003
2.616988e+002, 2.394512e+003
2.621809e+002, 2.394122e+003
2.626630e+002, 2.393804e+003
2.631451e+002, 2.392954e+003
2.636272e+002, 2.391780e+003
2.641093e+002, 2.392265e+003
2.645915e+002, 2.394818e+003
2.650736e+002, 2.398360e+003
2.655557e+002, 2.402304e+003
2.660378e+002, 2.406837e+003
2.665199e+002, 2.410904e+003
2.670020e+002, 2.414162e+003
2.674842e+002, 2.416843e+003
2.679663e+002, 2.419934e+003
2.684484e+002, 2.423458e+003
2.689305e+002, 2.427289e+003
2.694126e+002, 2.431131e+003
2.698947e+002, 2.434791e+003
2.703769e+002, 2.439565e+003
2.708590e+002, 2.445864e+003
2.713411e+002, 2.453245e+003
2.718232e+002, 2.459751e+003
2.723053e+002, 2.464706e+003
2.727874e+002, 2.470775e+003
2.732696e+002, 2.479322e+003
2.737517e+002, 2.490290e+003
2.742338e+002, 2.504523e+003
2.747159e+002, 2.522766e+003
2.751980e+002, 2.543722e+003
2.756801e+002, 2.563647e+003
2.761623e+002, 2.582030e+003
2.766444e+002, 2.601763e+003
2.771265e+002, 2.623862e+003
2.776086e+002, 2.648590e+003
2.780907e+002, 2.676961e+003
2.785728e+002, 2.709879e+003
2.790550e+002, 2.745356e+003
2.795371e+002, 2.779301e+003
2.800192e+002, 2.811230e+003
2.805013e+002, 2.845597e+003
2.809834e+002, 2.884983e+003
2.814655e+002, 2.929263e+003
2.819477e+002, 2.973698e+003
2.824298e+002, 3.017503e+003
2.829119e+002, 3.062250e+003
2.833940e+002, 3.109694e+003
2.838761e+002, 3.159804e+003
2.843582e+002, 3.212314e+003
2.848404e+002, 3.268061e+003
2.853225e+002, 3.326326e+003
2.858046e+002, 3.382856e+003
2.862867e+002, 3.436766e+003
2.867688e+002, 3.490441e+003
2.872509e+002, 3.546811e+003
2.877331e+002, 3.605640e+003
2.882152e+002, 3.663680e+003
2.886973e+002, 3.719884e+003
2.891794e+002, 3.774853e+003
2.896615e+002, 3.829357e+003
2.901436e+002, 3.883954e+003
2.906258e+002, 3.937578e+003
2.911079e+002, 3.991306e+003
2.915900e+002, 4.044453e+003
2.920721e+002, 4.093237e+003
2.925542e+002, 4.136190e+003
2.930363e+002, 4.174213e+003
2.935185e+002, 4.208951e+003
2.940006e+002, 4.240647e+003
2.944827e+002, 4.267332e+003
2.949648e+002, 4.288567e+003
2.954469e+002, 4.304272e+003
2.959290e+002, 4.314229e+003
2.964112e+002, 4.319149e+003
2.968933e+002, 4.317136e+003
2.973754e+002, 4.304550e+003
2.978575e+002, 4.281998e+003
2.983396e+002, 4.252683e+003
2.988217e+002, 4.219072e+003
2.993039e+002, 4.180134e+003
2.997860e+002, 4.134505e+003
3.002681e+002, 4.081423e+003
3.007502e+002, 4.022320e+003
3.012323e+002, 3.958875e+003
3.017144e+002, 3.890518e+003
3.021966e+002, 3.819299e+003
3.026787e+002, 3.741839e+003
3.031608e+002, 3.662677e+003
3.036429e+002, 3.586253e+003
3.041250e+002, 3.513663e+003
3.046071e+002, 3.443503e+003
3.050893e+002, 3.375752e+003
3.055714e+002, 3.309666e+003
3.060535e+002, 3.246312e+003
3.065356e+002, 3.185157e+003
3.070177e+002, 3.126593e+003
3.074998e+002, 3.071775e+003
3.079820e+002, 3.020267e+003
3.084641e+002, 2.972722e+003
3.089462e+002, 2.929943e+003
3.094283e+002, 2.891062e+003
3.099104e+002, 2.855441e+003
3.103925e+002, 2.822898e+003
3.108747e+002, 2.793862e+003
3.113568e+002, 2.769827e+003
3.118389e+002, 2.750458e+003
3.123210e+002, 2.733226e+003
3.128031e+002, 2.716323e+003
3.132852e+002, 2.700913e+003
3.137674e+002, 2.687960e+003
3.142495e+002, 2.677872e+003
3.147316e+002, 2.670313e+003
3.152137e+002, 2.665732e+003
3.156958e+002, 2.663759e+003
3.161779e+002, 2.663185e+003
3.166601e+002, 2.663607e+003
3.171422e+002, 2.665136e+003
3.176243e+002, 2.667645e+003
3.181064e+002, 2.670353e+003
3.185885e+002, 2.675520e+003
3.190706e+002, 2.684183e+003
3.195528e+002, 2.695774e+003
3.200349e+002, 2.709206e+003
3.205170e+002, 2.725206e+003
3.209991e+002, 2.742103e+003
3.214812e+002, 2.759022e+003
3.219633e+002, 2.775594e+003
3.224455e+002, 2.793459e+003
3.229276e+002, 2.813019e+003
3.234097e+002, 2.834137e+003
3.238918e+002, 2.856647e+003
3.243739e+002, 2.882345e+003
3.248560e+002, 2.907684e+003
3.253382e+002, 2.931358e+003
3.258203e+002, 2.953160e+003
3.263024e+002, 2.976141e+003
3.267845e+002, 3.000856e+003
3.272666e+002, 3.026845e+003
3.277487e+002, 3.053866e+003
3.282309e+002, 3.083536e+003
3.287130e+002, 3.112007e+003
3.291951e+002, 3.138716e+003
3.296772e+002, 3.163785e+003
3.301593e+002, 3.188417e+003
3.306414e+002, 3.211601e+003
3.311236e+002, 3.234976e+003
3.316057e+002, 3.259591e+003
3.320878e+002, 3.285941e+003
3.325699e+002, 3.312773e+003
3.330520e+002, 3.340725e+003
3.335341e+002, 3.368792e+003
3.340163e+002, 3.394015e+003
3.344984e+002, 3.415927e+003
3.349805e+002, 3.435335e+003
3.354626e+002, 3.452839e+003
3.359447e+002, 3.468854e+003
3.364268e+002, 3.481734e+003
3.369090e+002, 3.492174e+003
3.373911e+002, 3.498996e+003
3.378732e+002, 3.500411e+003
3.383553e+002, 3.496508e+003
3.388374e+002, 3.487050e+003
3.393195e+002, 3.471232e+003
3.398017e+002, 3.449364e+003
3.402838e+002, 3.425780e+003
3.407659e+002, 3.401167e+003
3.412480e+002, 3.373008e+003
3.417301e+002, 3.337229e+003
3.422122e+002, 3.293554e+003
3.426944e+002, 3.248386e+003
3.431765e+002, 3.203017e+003
3.436586e+002, 3.157102e+003
3.441407e+002, 3.111005e+003
3.446228e+002, 3.064914e+003
3.451049e+002, 3.018322e+003
3.455871e+002, 2.970807e+003
3.460692e+002, 2.922148e+003
3.465513e+002, 2.875493e+003
3.470334e+002, 2.831072e+003
3.475155e+002, 2.788542e+003
3.479977e+002, 2.748270e+003
3.484798e+002, 2.709926e+003
3.489619e+002, 2.673786e+003
3.494440e+002, 2.640250e+003
3.499261e+002, 2.608925e+003
3.504082e+002, 2.579169e+003
3.508904e+002, 2.551054e+003
3.513725e+002, 2.523907e+003
3.518546e+002, 2.495942e+003
3.523367e+002, 2.468099e+003
3.528188e+002, 2.442520e+003
3.533009e+002, 2.422263e+003
3.537831e+002, 2.403641e+003
3.542652e+002, 2.381489e+003
3.547473e+002, 2.356006e+003
3.552294e+002, 2.331587e+003
3.557115e+002, 2.311941e+003
3.561936e+002, 2.295125e+003
3.566758e+002, 2.278606e+003
3.571579e+002, 2.260772e+003
3.576400e+002, 2.243868e+003
3.581221e+002, 2.230051e+003
3.586042e+002, 2.218727e+003
3.590863e+002, 2.207250e+003
3.595685e+002, 2.193205e+003
3.600506e+002, 2.179226e+003
3.605327e+002, 2.167493e+003
3.610148e+002, 2.159134e+003
3.614969e+002, 2.151000e+003
3.619790e+002, 2.141137e+003
3.624612e+002, 2.130774e+003
3.629433e+002, 2.121798e+003
3.634254e+002, 2.114207e+003
3.639075e+002, 2.108600e+003
3.643896e+002, 2.106197e+003
3.648717e+002, 2.107675e+003
3.653539e+002, 2.107265e+003
3.658360e+002, 2.101744e+003
3.663181e+002, 2.094794e+003
3.668002e+002, 2.089667e+003
3.672823e+002, 2.087433e+003
3.677644e+002, 2.086217e+003
3.682466e+002, 2.085802e+003
3.687287e+002, 2.086193e+003
3.692108e+002, 2.087408e+003
3.696929e+002, 2.089887e+003
3.701750e+002, 2.092827e+003
3.706571e+002, 2.095754e+003
3.711393e+002, 2.098083e+003
3.716214e+002, 2.101519e+003
3.721035e+002, 2.106352e+003
3.725856e+002, 2.112269e+003
3.730677e+002, 2.118395e+003
3.735498e+002, 2.124483e+003
3.740320e+002, 2.131374e+003
3.745141e+002, 2.139333e+003
3.749962e+002, 2.148344e+003
3.754783e+002, 2.158349e+003
3.759604e+002, 2.169465e+003
3.764425e+002, 2.181201e+003
3.769247e+002, 2.192820e+003
3.774068e+002, 2.204046e+003
3.778889e+002, 2.216245e+003
3.783710e+002, 2.229744e+003
3.788531e+002, 2.244322e+003
3.793352e+002, 2.259381e+003
3.798174e+002, 2.274732e+003
3.802995e+002, 2.290961e+003
3.807816e+002, 2.308685e+003
3.812637e+002, 2.327846e+003
3.817458e+002, 2.346606e+003
3.822279e+002, 2.365032e+003
3.827101e+002, 2.382841e+003
3.831922e+002, 2.399912e+003
3.836743e+002, 2.416417e+003
3.841564e+002, 2.432395e+003
3.846385e+002, 2.448871e+003
3.851206e+002, 2.464802e+003
3.856028e+002, 2.478477e+003
3.860849e+002, 2.489866e+003
3.865670e+002, 2.498494e+003
3.870491e+002, 2.502861e+003
3.875312e+002, 2.504272e+003
3.880133e+002, 2.505412e+003
3.884955e+002, 2.508161e+003
3.889776e+002, 2.510290e+003
3.894597e+002, 2.509429e+003
3.899418e+002, 2.505881e+003
3.904239e+002, 2.501500e+003
3.909060e+002, 2.496184e+003
3.913882e+002, 2.491161e+003
3.918703e+002, 2.487542e+003
3.923524e+002, 2.485577e+003
3.928345e+002, 2.484912e+003
3.933166e+002, 2.485901e+003
3.937987e+002, 2.488046e+003
3.942809e+002, 2.490323e+003
3.947630e+002, 2.492053e+003
3.952451e+002, 2.494134e+003
3.957272e+002, 2.497104e+003
3.962093e+002, 2.501133e+003
3.966914e+002, 2.505081e+003
3.971736e+002, 2.508718e+003
3.976557e+002, 2.512152e+003
3.981378e+002, 2.515495e+003
3.986199e+002, 2.518111e+003
3.991020e+002, 2.521278e+003
3.995841e+002, 2.525506e+003
4.000663e+002, 2.530560e+003
4.005484e+002, 2.534889e+003
4.010305e+002, 2.537614e+003
4.015126e+002, 2.540571e+003
4.019947e+002, 2.544802e+003
4.024768e+002, 2.551179e+003
4.029590e+002, 2.556712e+003
4.034411e+002, 2.561106e+003
4.039232e+002, 2.564952e+003
4.044053e+002, 2.569209e+003
4.048874e+002, 2.573899e+003
4.053695e+002, 2.579101e+003
4.058517e+002, 2.584738e+003
4.063338e+002, 2.590848e+003
4.068159e+002, 2.598677e+003
4.072980e+002, 2.608504e+003
4.077801e+002, 2.619178e+003
4.082622e+002, 2.629577e+003
4.087444e+002, 2.639748e+003
4.092265e+002, 2.649801e+003
4.097086e+002, 2.659494e+003
4.101907e+002, 2.669420e+003
4.106728e+002, 2.681354e+003
4.111549e+002, 2.695115e+003
4.116371e+002, 2.708499e+003
4.121192e+002, 2.718487e+003
4.126013e+002, 2.727217e+003
4.130834e+002, 2.740136e+003
4.135655e+002, 2.758063e+003
4.140476e+002, 2.776323e+003
4.145298e+002, 2.790108e+003
4.150119e+002, 2.800969e+003
4.154940e+002, 2.812388e+003
4.159761e+002, 2.826451e+003
4.164582e+002, 2.841015e+003
4.169403e+002, 2.854140e+003
4.174225e+002, 2.866007e+003
4.179046e+002, 2.877388e+003
4.183867e+002, 2.888368e+003
4.188688e+002, 2.899081e+003
4.193509e+002, 2.909528e+003
4.198330e+002, 2.920163e+003
4.203152e+002, 2.929857e+003
4.207973e+002, 2.938533e+003
4.212794e+002, 2.946048e+003
4.217615e+002, 2.952205e+003
4.222436e+002, 2.955542e+003
4.227257e+002, 2.958875e+003
4.232079e+002, 2.963781e+003
4.236900e+002, 2.970753e+003
4.241721e+002, 2.975587e+003
4.246542e+002, 2.976786e+003
4.251363e+002, 2.976473e+003
4.256184e+002, 2.976235e+003
4.261006e+002, 2.977168e+003
4.265827e+002, 2.976379e+003
4.270648e+002, 2.973149e+003
4.275469e+002, 2.967991e+003
4.280290e+002, 2.963011e+003
4.285111e+002, 2.958902e+003
4.289933e+002, 2.953513e+003
4.294754e+002, 2.945810e+003
4.299575e+002, 2.935522e+003
4.304396e+002, 2.924332e+003
4.309217e+002, 2.912243e+003
4.314038e+002, 2.899107e+003
4.318860e+002, 2.885387e+003
4.323681e+002, 2.871171e+003
4.328502e+002, 2.854130e+003
4.333323e+002, 2.832968e+003
4.338144e+002, 2.809118e+003
4.342965e+002, 2.786270e+003
4.347787e+002, 2.764453e+003
4.352608e+002, 2.742894e+003
4.357429e+002, 2.721519e+003
4.362250e+002, 2.700021e+003
4.367071e+002, 2.677559e+003
4.371892e+002, 2.654028e+003
4.376714e+002, 2.629593e+003
4.381535e+002, 2.603944e+003
4.386356e+002, 2.577697e+003
4.391177e+002, 2.552433e+003
4.395998e+002, 2.528934e+003
4.400819e+002, 2.506616e+003
4.405641e+002, 2.485429e+003
4.410462e+002, 2.465207e+003
4.415283e+002, 2.444567e+003
4.420104e+002, 2.421790e+003
4.424925e+002, 2.398873e+003
4.429746e+002, 2.377901e+003
4.434568e+002, 2.359919e+003
4.439389e+002, 2.342395e+003
4.444210e+002, 2.324144e+003
4.449031e+002, 2.305848e+003
4.453852e+002, 2.288750e+003
4.458673e+002, 2.274407e+003
4.463495e+002, 2.260293e+003
4.468316e+002, 2.245493e+003
4.473137e+002, 2.229822e+003
4.477958e+002, 2.214635e+003
4.482779e+002, 2.199728e+003
4.487600e+002, 2.185697e+003
4.492422e+002, 2.173140e+003
4.497243e+002, 2.162717e+003
4.502064e+002, 2.152340e+003
4.506885e+002, 2.141702e+003
4.511706e+002, 2.130887e+003
4.516527e+002, 2.120221e+003
4.521349e+002, 2.109512e+003
4.526170e+002, 2.099331e+003
4.530991e+002, 2.090038e+003
4.535812e+002, 2.081493e+003
4.540633e+002, 2.073563e+003
4.545454e+002, 2.066202e+003
4.550276e+002, 2.059121e+003
4.555097e+002, 2.052149e+003
4.559918e+002, 2.045217e+003
4.564739e+002, 2.038288e+003
4.569560e+002, 2.031070e+003
4.574381e+002, 2.024125e+003
4.579203e+002, 2.018693e+003
4.584024e+002, 2.014482e+003
4.588845e+002, 2.009975e+003
4.593666e+002, 2.004528e+003
4.598488e+002, 1.998204e+003
4.603309e+002, 1.990646e+003
4.608130e+002, 1.981708e+003
4.612951e+002, 1.973524e+003
4.617772e+002, 1.968223e+003
4.622593e+002, 1.964445e+003
4.627415e+002, 1.960708e+003
4.632236e+002, 1.956566e+003
4.637057e+002, 1.952343e+003
4.641878e+002, 1.948485e+003
4.646699e+002, 1.944770e+003
4.651520e+002, 1.940277e+003
4.656342e+002, 1.933342e+003
4.661163e+002, 1.926901e+003
4.665984e+002, 1.922373e+003
4.670805e+002, 1.920733e+003
4.675626e+002, 1.918615e+003
4.680447e+002, 1.915597e+003
4.685269e+002, 1.912304e+003
4.690090e+002, 1.909389e+003
4.694911e+002, 1.907366e+003
4.699732e+002, 1.904681e+003
4.704553e+002, 1.900631e+003
4.709374e+002, 1.895754e+003
4.714196e+002, 1.892601e+003
4.719017e+002, 1.891773e+003
4.723838e+002, 1.890796e+003
4.728659e+002, 1.887819e+003
4.733480e+002, 1.882811e+003
4.738301e+002, 1.879720e+003
4.743123e+002, 1.878880e+003
4.747944e+002, 1.878738e+003
4.752765e+002, 1.877285e+003
4.757586e+002, 1.874797e+003
4.762407e+002, 1.872846e+003
4.767228e+002, 1.872436e+003
4.772050e+002, 1.872219e+003
4.776871e+002, 1.869650e+003
4.781692e+002, 1.865207e+003
4.786513e+002, 1.861202e+003
4.791334e+002, 1.859719e+003
4.796155e+002, 1.859135e+003
4.800977e+002, 1.857603e+003
4.805798e+002, 1.854797e+003
4.810619e+002, 1.852115e+003
4.815440e+002, 1.850164e+003
4.820261e+002, 1.848938e+003
4.825082e+002, 1.848405e+003
4.829904e+002, 1.850063e+003
4.834725e+002, 1.850851e+003
4.839546e+002, 1.849547e+003
4.844367e+002, 1.846489e+003
4.849188e+002, 1.843251e+003
4.854009e+002, 1.839170e+003
4.858831e+002, 1.835691e+003
4.863652e+002, 1.833322e+003
4.868473e+002, 1.832225e+003
4.873294e+002, 1.831689e+003
4.878115e+002, 1.832274e+003
4.882936e+002, 1.832836e+003
4.887758e+002, 1.831926e+003
4.892579e+002, 1.828724e+003
4.897400e+002, 1.826707e+003
4.902221e+002, 1.826898e+003
4.907042e+002, 1.828333e+003
4.911863e+002, 1.828156e+003
4.916685e+002, 1.826307e+003
4.921506e+002, 1.823576e+003
4.926327e+002, 1.820096e+003
4.931148e+002, 1.816037e+003
4.935969e+002, 1.812156e+003
4.940790e+002, 1.808374e+003
4.945612e+002, 1.805514e+003
4.950433e+002, 1.805399e+003
4.955254e+002, 1.806751e+003
4.960075e+002, 1.806574e+003
4.964896e+002, 1.803249e+003
4.969717e+002, 1.799405e+003
4.974539e+002, 1.797699e+003
4.979360e+002, 1.797500e+003
4.984181e+002, 1.797237e+003
4.989002e+002, 1.796377e+003
4.993823e+002, 1.795008e+003
4.998644e+002, 1.792808e+003
5.003466e+002, 1.789615e+003
5.008287e+002, 1.787232e+003
5.013108e+002, 1.787233e+003
5.017929e+002, 1.787602e+003
5.022750e+002, 1.786803e+003
5.027571e+002, 1.782518e+003
5.032393e+002, 1.779723e+003
5.037214e+002, 1.779548e+003
5.042035e+002, 1.780738e+003
5.046856e+002, 1.780616e+003
5.051677e+002, 1.778519e+003
5.056498e+002, 1.776325e+003
5.061320e+002, 1.774653e+003
5.066141e+002, 1.773470e+003
5.070962e+002, 1.771727e+003
5.075783e+002, 1.769145e+003
5.080604e+002, 1.767030e+003
5.085425e+002, 1.767114e+003
5.090247e+002, 1.769146e+003
5.095068e+002, 1.769289e+003
5.099889e+002, 1.766639e+003
5.104710e+002, 1.763482e+003
5.109531e+002, 1.763228e+003
5.114352e+002, 1.765275e+003
5.119174e+002, 1.767409e+003
5.123995e+002, 1.769011e+003
5.128816e+002, 1.769972e+003
5.133637e+002, 1.769617e+003
5.138458e+002, 1.768221e+003
5.143279e+002, 1.767514e+003
5.148101e+002, 1.768458e+003
5.152922e+002, 1.770502e+003
5.157743e+002, 1.773427e+003
5.162564e+002, 1.777528e+003
5.167385e+002, 1.781219e+003
5.172206e+002, 1.784537e+003
5.177028e+002, 1.786884e+003
5.181849e+002, 1.787559e+003
5.186670e+002, 1.782871e+003
5.191491e+002, 1.780701e+003
5.196312e+002, 1.783597e+003
5.201133e+002, 1.790168e+003
5.205955e+002, 1.794509e+003
5.210776e+002, 1.795552e+003
5.215597e+002, 1.796169e+003
5.220418e+002, 1.797422e+003
5.225239e+002, 1.799342e+003
5.230060e+002, 1.802237e+003
5.234882e+002, 1.806516e+003
5.239703e+002, 1.810780e+003
5.244524e+002, 1.813075e+003
5.249345e+002, 1.813599e+003
5.254166e+002, 1.815526e+003
5.258987e+002, 1.820041e+003
5.263809e+002, 1.825048e+003
5.268630e+002, 1.826341e+003
5.273451e+002, 1.824949e+003
5.278272e+002, 1.825112e+003
5.283093e+002, 1.830300e+003
5.287914e+002, 1.837334e+003
5.292736e+002, 1.842917e+003
5.297557e+002, 1.847048e+003
5.302378e+002, 1.850566e+003
5.307199e+002, 1.853262e+003
5.312020e+002, 1.855981e+003
5.316841e+002, 1.859547e+003
5.321663e+002, 1.864905e+003
5.326484e+002, 1.869404e+003
5.331305e+002, 1.872284e+003
5.336126e+002, 1.874008e+003
5.340947e+002, 1.875284e+003
5.345768e+002, 1.876093e+003
5.350590e+002, 1.876591e+003
5.355411e+002, 1.876771e+003
5.360232e+002, 1.876684e+003
5.365053e+002, 1.876488e+003
5.369874e+002, 1.876123e+003
5.374695e+002, 1.875876e+003
5.379517e+002, 1.875767e+003
5.384338e+002, 1.875771e+003
5.389159e+002, 1.876601e+003
5.393980e+002, 1.878227e+003
5.398801e+002, 1.880750e+003
5.403622e+002, 1.884395e+003
5.408444e+002, 1.889027e+003
5.413265e+002, 1.894230e+003
5.418086e+002, 1.900046e+003
5.422907e+002, 1.906181e+003
5.427728e+002, 1.911761e+003
5.432549e+002, 1.917306e+003
5.437371e+002, 1.924180e+003
5.442192e+002, 1.934330e+003
5.447013e+002, 1.945127e+003
5.451834e+002, 1.954117e+003
5.456655e+002, 1.961515e+003
5.461476e+002, 1.970313e+003
5.466298e+002, 1.982651e+003
5.471119e+002, 1.996253e+003
5.475940e+002, 2.009645e+003
5.480761e+002, 2.022429e+003
5.485582e+002, 2.035518e+003
5.490403e+002, 2.048468e+003
5.495225e+002, 2.062153e+003
5.500046e+002, 2.077608e+003
5.504867e+002, 2.095937e+003
5.509688e+002, 2.113816e+003
5.514509e+002, 2.130721e+003
5.519330e+002, 2.146812e+003
5.524152e+002, 2.162048e+003
5.528973e+002, 2.176269e+003
5.533794e+002, 2.190880e+003
5.538615e+002, 2.207331e+003
5.543436e+002, 2.224968e+003
5.548257e+002, 2.240297e+003
5.553079e+002, 2.253115e+003
5.557900e+002, 2.264685e+003
5.562721e+002, 2.277650e+003
5.567542e+002, 2.289732e+003
5.572363e+002, 2.296306e+003
5.577184e+002, 2.295613e+003
5.582006e+002, 2.291635e+003
5.586827e+002, 2.287584e+003
5.591648e+002, 2.282394e+003
5.596469e+002, 2.274138e+003
5.601290e+002, 2.262072e+003
5.606111e+002, 2.246946e+003
5.610933e+002, 2.228405e+003
5.615754e+002, 2.206793e+003
5.620575e+002, 2.184606e+003
5.625396e+002, 2.161924e+003
5.630217e+002, 2.138949e+003
5.635038e+002, 2.115644e+003
5.639860e+002, 2.091958e+003
5.644681e+002, 2.067318e+003
5.649502e+002, 2.040582e+003
5.654323e+002, 2.014685e+003
5.659144e+002, 1.993501e+003
5.663965e+002, 1.977377e+003
5.668787e+002, 1.960337e+003
5.673608e+002, 1.941327e+003
5.678429e+002, 1.921772e+003
5.683250e+002, 1.904685e+003
5.688071e+002, 1.889747e+003
5.692892e+002, 1.876038e+003
5.697714e+002, 1.863629e+003
5.702535e+002, 1.852026e+003
5.707356e+002, 1.840740e+003
5.712177e+002, 1.829698e+003
5.716998e+002, 1.819473e+003
5.721819e+002, 1.810158e+003
5.726641e+002, 1.801646e+003
5.731462e+002, 1.793900e+003
5.736283e+002, 1.786875e+003
5.741104e+002, 1.780345e+003
5.745925e+002, 1.774541e+003
5.750746e+002, 1.768967e+003
5.755568e+002, 1.763039e+003
5.760389e+002, 1.755668e+003
5.765210e+002, 1.749594e+003
5.770031e+002, 1.745346e+003
5.774852e+002, 1.742244e+003
5.779673e+002, 1.738819e+003
5.784495e+002, 1.734820e+003
5.789316e+002, 1.731215e+003
5.794137e+002, 1.728126e+003
5.798958e+002, 1.725732e+003
5.803779e+002, 1.725286e+003
5.808600e+002, 1.726917e+003
5.813422e+002, 1.727646e+003
5.818243e+002, 1.724672e+003
5.823064e+002, 1.719418e+003
5.827885e+002, 1.714891e+003
5.832706e+002, 1.711262e+003
5.837527e+002, 1.708856e+003
5.842349e+002, 1.709227e+003
5.847170e+002, 1.710426e+003
5.851991e+002, 1.709929e+003
5.856812e+002, 1.706140e+003
5.861633e+002, 1.702117e+003
5.866454e+002, 1.698451e+003
5.871276e+002, 1.695495e+003
5.876097e+002, 1.693949e+003
5.880918e+002, 1.695969e+003
5.885739e+002, 1.697074e+003
5.890560e+002, 1.695677e+003
5.895381e+002, 1.692293e+003
5.900203e+002, 1.690813e+003
5.905024e+002, 1.692143e+003
5.909845e+002, 1.693624e+003
5.914666e+002, 1.693990e+003
5.919487e+002, 1.693256e+003
5.924308e+002, 1.692368e+003
5.929130e+002, 1.691327e+003
5.933951e+002, 1.690275e+003
5.938772e+002, 1.689121e+003
5.943593e+002, 1.688065e+003
5.948414e+002, 1.687849e+003
5.953235e+002, 1.688740e+003
5.958057e+002, 1.690059e+003
5.962878e+002, 1.691361e+003
5.967699e+002, 1.692562e+003
5.972520e+002, 1.693485e+003
5.977341e+002, 1.693873e+003
5.982162e+002, 1.694129e+003
5.986984e+002, 1.694187e+003
5.991805e+002, 1.694193e+003
5.996626e+002, 1.694724e+003
6.001447e+002, 1.696323e+003
6.006268e+002, 1.698034e+003
6.011089e+002, 1.699262e+003
6.015911e+002, 1.699864e+003
6.020732e+002, 1.701860e+003
6.025553e+002, 1.706176e+003
6.030374e+002, 1.710390e+003
6.035195e+002, 1.712594e+003
6.040016e+002, 1.712623e+003
6.044838e+002, 1.712768e+003
6.049659e+002, 1.713156e+003
6.054480e+002, 1.713691e+003
6.059301e+002, 1.713939e+003
6.064122e+002, 1.714158e+003
6.068943e+002, 1.715547e+003
6.073765e+002, 1.719074e+003
6.078586e+002, 1.722773e+003
6.083407e+002, 1.724182e+003
6.088228e+002, 1.724006e+003
6.093049e+002, 1.723941e+003
6.097870e+002, 1.724792e+003
6.102692e+002, 1.725934e+003
6.107513e+002, 1.727409e+003
6.112334e+002, 1.729090e+003
6.117155e+002, 1.729787e+003
6.121976e+002, 1.727461e+003
6.126797e+002, 1.725734e+003
6.131619e+002, 1.726422e+003
6.136440e+002, 1.730207e+003
6.141261e+002, 1.733424e+003
6.146082e+002, 1.736272e+003
6.150903e+002, 1.738312e+003
6.155724e+002, 1.738643e+003
6.160546e+002, 1.737155e+003
6.165367e+002, 1.737411e+003
6.170188e+002, 1.740309e+003
6.175009e+002, 1.743782e+003
6.179830e+002, 1.744580e+003
6.184651e+002, 1.743343e+003
6.189473e+002, 1.742233e+003
6.194294e+002, 1.741749e+003
6.199115e+002, 1.742023e+003
6.203936e+002, 1.743839e+003
6.208757e+002, 1.746607e+003
6.213578e+002, 1.748608e+003
6.218400e+002, 1.748352e+003
6.223221e+002, 1.747779e+003
6.228042e+002, 1.747718e+003
6.232863e+002, 1.748222e+003
6.237684e+002, 1.749248e+003
6.242505e+002, 1.751392e+003
6.247327e+002, 1.753486e+003
6.252148e+002, 1.754949e+003
6.256969e+002, 1.755680e+003
6.261790e+002, 1.756067e+003
6.266611e+002, 1.755771e+003
6.271432e+002, 1.755850e+003
6.276254e+002, 1.757759e+003
6.281075e+002, 1.761364e+003
6.285896e+002, 1.764438e+003
6.290717e+002, 1.766425e+003
6.295538e+002, 1.768180e+003
6.300359e+002, 1.770869e+003
6.305181e+002, 1.774206e+003
6.310002e+002, 1.777552e+003
6.314823e+002, 1.780406e+003
6.319644e+002, 1.783391e+003
6.324465e+002, 1.786891e+003
6.329286e+002, 1.790881e+003
6.334108e+002, 1.795225e+003
6.338929e+002, 1.800617e+003
6.343750e+002, 1.805689e+003
6.348571e+002, 1.809537e+003
6.353392e+002, 1.812074e+003
6.358214e+002, 1.815970e+003
6.363035e+002, 1.822067e+003
6.367856e+002, 1.828408e+003
6.372677e+002, 1.833967e+003
6.377498e+002, 1.838670e+003
6.382319e+002, 1.842834e+003
6.387141e+002, 1.846227e+003
6.391962e+002, 1.850195e+003
6.396783e+002, 1.856865e+003
6.401604e+002, 1.865508e+003
6.406425e+002, 1.872874e+003
6.411246e+002, 1.878022e+003
6.416068e+002, 1.883214e+003
6.420889e+002, 1.890654e+003
6.425710e+002, 1.899817e+003
6.430531e+002, 1.909629e+003
6.435352e+002, 1.920814e+003
6.440173e+002, 1.931479e+003
6.444995e+002, 1.940223e+003
6.449816e+002, 1.947797e+003
6.454637e+002, 1.956718e+003
6.459458e+002, 1.967707e+003
6.464279e+002, 1.979513e+003
6.469100e+002, 1.991704e+003
6.473922e+002, 2.004404e+003
6.478743e+002, 2.018078e+003
6.483564e+002, 2.033173e+003
6.488385e+002, 2.048266e+003
6.493206e+002, 2.062233e+003
6.498027e+002, 2.075441e+003
6.502849e+002, 2.089678e+003
6.507670e+002, 2.104993e+003
6.512491e+002, 2.120637e+003
6.517312e+002, 2.135902e+003
6.522133e+002, 2.150809e+003
6.526954e+002, 2.165401e+003
6.531776e+002, 2.179417e+003
6.536597e+002, 2.194032e+003
6.541418e+002, 2.210745e+003
6.546239e+002, 2.228435e+003
6.551060e+002, 2.245875e+003
6.555881e+002, 2.261690e+003
6.560703e+002, 2.278539e+003
6.565524e+002, 2.297871e+003
6.570345e+002, 2.318159e+003
6.575166e+002, 2.336360e+003
6.579987e+002, 2.351853e+003
6.584808e+002, 2.366939e+003
6.589630e+002, 2.381942e+003
6.594451e+002, 2.397148e+003
6.599272e+002, 2.414254e+003
6.604093e+002, 2.433271e+003
6.608914e+002, 2.451675e+003
6.613735e+002, 2.468211e+003
6.618557e+002, 2.483168e+003
6.623378e+002, 2.497007e+003
6.628199e+002, 2.509858e+003
6.633020e+002, 2.522701e+003
6.637841e+002, 2.536464e+003
6.642662e+002, 2.550302e+003
6.647484e+002, 2.563512e+003
6.652305e+002, 2.575787e+003
6.657126e+002, 2.588203e+003
6.661947e+002, 2.602378e+003
6.666768e+002, 2.615793e+003
6.671589e+002, 2.626698e+003
6.676411e+002, 2.634166e+003
6.681232e+002, 2.640904e+003
6.686053e+002, 2.646537e+003
6.690874e+002, 2.651914e+003
6.695695e+002, 2.658557e+003
6.700516e+002, 2.666446e+003
6.705338e+002, 2.672910e+003
6.710159e+002, 2.677474e+003
6.714980e+002, 2.680248e+003
6.719801e+002, 2.680655e+003
6.724622e+002, 2.679331e+003
6.729443e+002, 2.678019e+003
6.734265e+002, 2.677825e+003
6.739086e+002, 2.677558e+003
6.743907e+002, 2.676263e+003
6.748728e+002, 2.674235e+003
6.753549e+002, 2.672354e+003
6.758370e+002, 2.671090e+003
6.763192e+002, 2.669833e+003
6.768013e+002, 2.668648e+003
6.772834e+002, 2.667479e+003
6.777655e+002, 2.665243e+003
6.782476e+002, 2.661378e+003
6.787297e+002, 2.657673e+003
6.792119e+002, 2.655147e+003
6.796940e+002, 2.653721e+003
6.801761e+002, 2.652472e+003
6.806582e+002, 2.651485e+003
6.811403e+002, 2.649625e+003
6.816224e+002, 2.645363e+003
6.821046e+002, 2.639659e+003
6.825867e+002, 2.634125e+003
6.830688e+002, 2.628784e+003
6.835509e+002, 2.624625e+003
6.840330e+002, 2.623259e+003
6.845151e+002, 2.622887e+003
6.849973e+002, 2.621581e+003
6.854794e+002, 2.617869e+003
6.859615e+002, 2.614975e+003
6.864436e+002, 2.613761e+003
6.869257e+002, 2.613453e+003
6.874078e+002, 2.613280e+003
6.878900e+002, 2.613490e+003
6.883721e+002, 2.613058e+003
6.888542e+002, 2.611351e+003
6.893363e+002, 2.609580e+003
6.898184e+002, 2.610969e+003
6.903005e+002, 2.615208e+003
6.907827e+002, 2.618504e+003
6.912648e+002, 2.619800e+003
6.917469e+002, 2.618921e+003
6.922290e+002, 2.616587e+003
6.927111e+002, 2.612047e+003
6.931932e+002, 2.602907e+003
6.936754e+002, 2.586070e+003
6.941575e+002, 2.565927e+003
6.946396e+002, 2.543556e+003
6.951217e+002, 2.519448e+003
6.956038e+002, 2.496934e+003
6.960859e+002, 2.476391e+003
6.965681e+002, 2.458168e+003
6.970502e+002, 2.442531e+003
6.975323e+002, 2.429509e+003
6.980144e+002, 2.418495e+003
6.984965e+002, 2.409604e+003
6.989786e+002, 2.402371e+003
6.994608e+002, 2.396164e+003
6.999429e+002, 2.391270e+003
7.004250e+002, 2.389330e+003
7.009071e+002, 2.390509e+003
7.013892e+002, 2.393200e+003
7.018713e+002, 2.397672e+003
7.023535e+002, 2.402125e+003
7.028356e+002, 2.404877e+003
7.033177e+002, 2.406565e+003
7.037998e+002, 2.403332e+003
7.042819e+002, 2.391563e+003
7.047640e+002, 2.375152e+003
7.052462e+002, 2.357942e+003
7.057283e+002, 2.338047e+003
7.062104e+002, 2.321315e+003
7.066925e+002, 2.308141e+003
7.071746e+002, 2.298058e+003
7.076567e+002, 2.290631e+003
7.081389e+002, 2.285977e+003
7.086210e+002, 2.282683e+003
7.091031e+002, 2.280411e+003
7.095852e+002, 2.279293e+003
7.100673e+002, 2.279917e+003
7.105494e+002, 2.281937e+003
7.110316e+002, 2.284313e+003
7.115137e+002, 2.285439e+003
7.119958e+002, 2.287776e+003
7.124779e+002, 2.293121e+003
7.129600e+002, 2.301062e+003
7.134421e+002, 2.310186e+003
7.139243e+002, 2.322074e+003
7.144064e+002, 2.333140e+003
7.148885e+002, 2.342735e+003
7.153706e+002, 2.350786e+003
7.158527e+002, 2.356376e+003
7.163348e+002, 2.360013e+003
7.168170e+002, 2.359646e+003
7.172991e+002, 2.354134e+003
7.177812e+002, 2.343721e+003
7.182633e+002, 2.328844e+003
7.187454e+002, 2.309416e+003
7.192275e+002, 2.289802e+003
7.197097e+002, 2.272666e+003
7.201918e+002, 2.256918e+003
7.206739e+002, 2.241352e+003
7.211560e+002, 2.226011e+003
7.216381e+002, 2.209675e+003
7.221202e+002, 2.190443e+003
7.226024e+002, 2.171165e+003
7.230845e+002, 2.153751e+003
7.235666e+002, 2.138599e+003
7.240487e+002, 2.124668e+003
7.245308e+002, 2.111839e+003
7.250129e+002, 2.100213e+003
7.254951e+002, 2.090151e+003
7.259772e+002, 2.081666e+003
7.264593e+002, 2.072921e+003
7.269414e+002, 2.063698e+003
7.274235e+002, 2.054562e+003
7.279056e+002, 2.046158e+003
7.283878e+002, 2.038309e+003
7.288699e+002, 2.030540e+003
7.293520e+002, 2.022393e+003
7.298341e+002, 2.015074e+003
7.303162e+002, 2.010253e+003
7.307983e+002, 2.006409e+003
7.312805e+002, 2.001556e+003
7.317626e+002, 1.994443e+003
7.322447e+002, 1.987342e+003
7.327268e+002, 1.980468e+003
7.332089e+002, 1.973786e+003
7.336910e+002, 1.967183e+003
7.341732e+002, 1.960594e+003
7.346553e+002, 1.954454e+003
7.351374e+002, 1.948996e+003
7.356195e+002, 1.943943e+003
7.361016e+002, 1.938864e+003
7.365837e+002, 1.933760e+003
7.370659e+002, 1.928676e+003
7.375480e+002, 1.923845e+003
7.380301e+002, 1.918762e+003
7.385122e+002, 1.912610e+003
7.389943e+002, 1.905846e+003
7.394764e+002, 1.899732e+003
7.399586e+002, 1.895176e+003
7.404407e+002, 1.890814e+003
7.409228e+002, 1.886504e+003
7.414049e+002, 1.882075e+003
7.418870e+002, 1.876457e+003
7.423691e+002, 1.869019e+003
7.428513e+002, 1.862432e+003
7.433334e+002, 1.858143e+003
7.438155e+002, 1.855460e+003
7.442976e+002, 1.851084e+003
7.447797e+002, 1.845135e+003
7.452618e+002, 1.839850e+003
7.457440e+002, 1.837393e+003
7.462261e+002, 1.835849e+003
7.467082e+002, 1.832824e+003
7.471903e+002, 1.828418e+003
7.476724e+002, 1.824058e+003
7.481545e+002, 1.819779e+003
7.486367e+002, 1.816228e+003
7.491188e+002, 1.814284e+003
7.496009e+002, 1.814260e+003
7.500830e+002, 1.812046e+003
7.505651e+002, 1.806489e+003
7.510472e+002, 1.800752e+003
7.515294e+002, 1.796919e+003
7.520115e+002, 1.794878e+003
7.524936e+002, 1.792281e+003
7.529757e+002, 1.789111e+003
7.534578e+002, 1.785468e+003
7.539399e+002, 1.780930e+003
7.544221e+002, 1.776262e+003
7.549042e+002, 1.772858e+003
7.553863e+002, 1.770927e+003
7.558684e+002, 1.769209e+003
7.563505e+002, 1.767000e+003
7.568326e+002, 1.764771e+003
7.573148e+002, 1.762891e+003
7.577969e+002, 1.761497e+003
7.582790e+002, 1.760257e+003
7.587611e+002, 1.759295e+003
7.592432e+002, 1.758308e+003
7.597253e+002, 1.757158e+003
7.602075e+002, 1.755838e+003
7.606896e+002, 1.753636e+003
7.611717e+002, 1.750333e+003
7.616538e+002, 1.746766e+003
7.621359e+002, 1.743342e+003
7.626180e+002, 1.740348e+003
7.631002e+002, 1.738543e+003
7.635823e+002, 1.738412e+003
7.640644e+002, 1.738321e+003
7.645465e+002, 1.737476e+003
7.650286e+002, 1.736180e+003
7.655107e+002, 1.734768e+003
7.659929e+002, 1.733020e+003
7.664750e+002, 1.731622e+003
7.669571e+002, 1.730730e+003
7.674392e+002, 1.730047e+003
7.679213e+002, 1.729039e+003
7.684034e+002, 1.727672e+003
7.688856e+002, 1.727135e+003
7.693677e+002, 1.727818e+003
7.698498e+002, 1.728738e+003
7.703319e+002, 1.728526e+003
7.708140e+002, 1.727600e+003
7.712961e+002, 1.726816e+003
7.717783e+002, 1.726299e+003
7.722604e+002, 1.726176e+003
7.727425e+002, 1.727172e+003
7.732246e+002, 1.728393e+003
7.737067e+002, 1.728474e+003
7.741888e+002, 1.726439e+003
7.746710e+002, 1.724436e+003
7.751531e+002, 1.722356e+003
7.756352e+002, 1.720663e+003
7.761173e+002, 1.720427e+003
7.765994e+002, 1.721700e+003
7.770815e+002, 1.722862e+003
7.775637e+002, 1.723608e+003
7.780458e+002, 1.723905e+003
7.785279e+002, 1.723380e+003
7.790100e+002, 1.722380e+003
7.794921e+002, 1.721680e+003
7.799742e+002, 1.721560e+003
7.804564e+002, 1.721841e+003
7.809385e+002, 1.722937e+003
7.814206e+002, 1.724304e+003
7.819027e+002, 1.724674e+003
7.823848e+002, 1.722686e+003
7.828669e+002, 1.722045e+003
7.833491e+002, 1.724131e+003
7.838312e+002, 1.727355e+003
7.843133e+002, 1.727515e+003
7.847954e+002, 1.724698e+003
7.852775e+002, 1.721853e+003
7.857596e+002, 1.719557e+003
7.862418e+002, 1.718420e+003
7.867239e+002, 1.720371e+003
7.872060e+002, 1.724176e+003
7.876881e+002, 1.726864e+003
7.881702e+002, 1.725691e+003
7.886523e+002, 1.724626e+003
7.891345e+002, 1.725517e+003
7.896166e+002, 1.727731e+003
7.900987e+002, 1.729339e+003
7.905808e+002, 1.730210e+003
7.910629e+002, 1.730531e+003
7.915450e+002, 1.729979e+003
7.920272e+002, 1.729139e+003
7.925093e+002, 1.730009e+003
7.929914e+002, 1.732427e+003
7.934735e+002, 1.734433e+003
7.939556e+002, 1.734929e+003
7.944377e+002, 1.734941e+003
7.949199e+002, 1.735666e+003
7.954020e+002, 1.736916e+003
7.958841e+002, 1.738161e+003
7.963662e+002, 1.739096e+003
7.968483e+002, 1.740112e+003
7.973304e+002, 1.741322e+003
7.978126e+002, 1.742719e+003
7.982947e+002, 1.744313e+003
7.987768e+002, 1.746312e+003
7.992589e+002, 1.747940e+003
7.997410e+002, 1.748976e+003
8.002231e+002, 1.749513e+003
8.007053e+002, 1.749455e+003
8.011874e+002, 1.748980e+003
8.016695e+002, 1.749057e+003
8.021516e+002, 1.750117e+003
8.026337e+002, 1.751988e+003
8.031158e+002, 1.755108e+003
8.035980e+002, 1.758927e+003
8.040801e+002, 1.762059e+003
8.045622e+002, 1.763436e+003
8.050443e+002, 1.764750e+003
8.055264e+002, 1.766549e+003
8.060085e+002, 1.768585e+003
8.064907e+002, 1.769998e+003
8.069728e+002, 1.770645e+003
8.074549e+002, 1.771376e+003
8.079370e+002, 1.772574e+003
8.084191e+002, 1.773909e+003
8.089012e+002, 1.774066e+003
8.093834e+002, 1.773631e+003
8.098655e+002, 1.774715e+003
8.103476e+002, 1.779872e+003
8.108297e+002, 1.785453e+003
8.113118e+002, 1.789651e+003
8.117939e+002, 1.792510e+003
8.122761e+002, 1.794067e+003
8.127582e+002, 1.792577e+003
8.132403e+002, 1.792334e+003
8.137224e+002, 1.794565e+003
8.142045e+002, 1.798434e+003
8.146866e+002, 1.801471e+003
8.151688e+002, 1.803615e+003
8.156509e+002, 1.806008e+003
8.161330e+002, 1.809363e+003
8.166151e+002, 1.812788e+003
8.170972e+002, 1.814256e+003
8.175793e+002, 1.814701e+003
8.180615e+002, 1.816590e+003
8.185436e+002, 1.823266e+003
8.190257e+002, 1.829108e+003
8.195078e+002, 1.830865e+003
8.199899e+002, 1.830133e+003
8.204720e+002, 1.831552e+003
8.209542e+002, 1.836377e+003
8.214363e+002, 1.840239e+003
8.219184e+002, 1.842063e+003
8.224005e+002, 1.842533e+003
8.228826e+002, 1.842788e+003
8.233647e+002, 1.842978e+003
8.238469e+002, 1.843961e+003
8.243290e+002, 1.846464e+003
8.248111e+002, 1.849337e+003
8.252932e+002, 1.851785e+003
8.257753e+002, 1.853854e+003
8.262574e+002, 1.855557e+003
8.267396e+002, 1.856435e+003
8.272217e+002, 1.857633e+003
8.277038e+002, 1.859727e+003
8.281859e+002, 1.862073e+003
8.286681e+002, 1.863428e+003
8.291502e+002, 1.863657e+003
8.296323e+002, 1.863762e+003
8.301144e+002, 1.863945e+003
8.305966e+002, 1.864117e+003
8.310787e+002, 1.863611e+003
8.315608e+002, 1.863009e+003
8.320429e+002, 1.863831e+003
8.325250e+002, 1.867731e+003
8.330071e+002, 1.871308e+003
8.334893e+002, 1.872923e+003
8.339714e+002, 1.873118e+003
8.344535e+002, 1.872685e+003
8.349356e+002, 1.870961e+003
8.354177e+002, 1.870074e+003
8.358998e+002, 1.870217e+003
8.363820e+002, 1.871236e+003
8.368641e+002, 1.873594e+003
8.373462e+002, 1.876974e+003
8.378283e+002, 1.878419e+003
8.383104e+002, 1.876835e+003
8.387925e+002, 1.874882e+003
8.392747e+002, 1.875776e+003
8.397568e+002, 1.877705e+003
8.402389e+002, 1.878079e+003
8.407210e+002, 1.874983e+003
8.412031e+002, 1.872588e+003
8.416852e+002, 1.872339e+003
8.421674e+002, 1.872727e+003
8.426495e+002, 1.872365e+003
8.431316e+002, 1.871121e+003
8.436137e+002, 1.869964e+003
8.440958e+002, 1.868909e+003
8.445779e+002, 1.868216e+003
8.450601e+002, 1.868057e+003
8.455422e+002, 1.868510e+003
8.460243e+002, 1.869928e+003
8.465064e+002, 1.872564e+003
8.469885e+002, 1.875029e+003
8.474706e+002, 1.876842e+003
8.479528e+002, 1.877952e+003
8.484349e+002, 1.877961e+003
8.489170e+002, 1.875628e+003
8.493991e+002, 1.876096e+003
8.498812e+002, 1.880497e+003
8.503633e+002, 1.885374e+003
8.508455e+002, 1.888231e+003
8.513276e+002, 1.889092e+003
8.518097e+002, 1.887639e+003
8.522918e+002, 1.883806e+003
8.527739e+002, 1.879931e+003
8.532560e+002, 1.878008e+003
8.537382e+002, 1.876862e+003
8.542203e+002, 1.875240e+003
8.547024e+002, 1.872933e+003
8.551845e+002, 1.871370e+003
8.556666e+002, 1.870757e+003
8.561487e+002, 1.871117e+003
8.566309e+002, 1.872565e+003
8.571130e+002, 1.875076e+003
8.575951e+002, 1.878538e+003
8.580772e+002, 1.883076e+003
8.585593e+002, 1.887186e+003
8.590414e+002, 1.889758e+003
8.595236e+002, 1.891345e+003
8.600057e+002, 1.892811e+003
8.604878e+002, 1.894105e+003
8.609699e+002, 1.894785e+003
8.614520e+002, 1.894465e+003
8.619341e+002, 1.893658e+003
8.624163e+002, 1.892216e+003
8.628984e+002, 1.890338e+003
8.633805e+002, 1.889391e+003
8.638626e+002, 1.889417e+003
8.643447e+002, 1.890289e+003
8.648268e+002, 1.892284e+003
8.653090e+002, 1.894837e+003
8.657911e+002, 1.896373e+003
8.662732e+002, 1.897127e+003
8.667553e+002, 1.898039e+003
8.672374e+002, 1.900407e+003
8.677195e+002, 1.902262e+003
8.682017e+002, 1.902469e+003
8.686838e+002, 1.901206e+003
8.691659e+002, 1.898888e+003
8.696480e+002, 1.894963e+003
8.701301e+002, 1.891265e+003
8.706122e+002, 1.888536e+003
8.710944e+002, 1.885837e+003
8.715765e+002, 1.880557e+003
8.720586e+002, 1.873140e+003
8.725407e+002, 1.866986e+003
8.730228e+002, 1.863610e+003
8.735049e+002, 1.860849e+003
8.739871e+002, 1.856593e+003
8.744692e+002, 1.851614e+003
8.749513e+002, 1.847043e+003
8.754334e+002, 1.844055e+003
8.759155e+002, 1.840292e+003
8.763976e+002, 1.834801e+003
8.768798e+002, 1.829194e+003
8.773619e+002, 1.825359e+003
8.778440e+002, 1.823386e+003
8.783261e+002, 1.821755e+003
8.788082e+002, 1.820292e+003
8.792903e+002, 1.819012e+003
8.797725e+002, 1.817844e+003
8.802546e+002, 1.816841e+003
8.807367e+002, 1.816072e+003
8.812188e+002, 1.815518e+003
8.817009e+002, 1.815216e+003
8.821830e+002, 1.815131e+003
8.826652e+002, 1.815317e+003
8.831473e+002, 1.815689e+003
8.836294e+002, 1.816119e+003
8.841115e+002, 1.817878e+003
8.845936e+002, 1.821306e+003
8.850757e+002, 1.824511e+003
8.855579e+002, 1.825235e+003
8.860400e+002, 1.825018e+003
8.865221e+002, 1.827318e+003
8.870042e+002, 1.832091e+003
8.874863e+002, 1.836808e+003
8.879684e+002, 1.840325e+003
8.884506e+002, 1.843246e+003
8.889327e+002, 1.845434e+003
8.894148e+002, 1.847065e+003
8.898969e+002, 1.850289e+003
8.903790e+002, 1.855332e+003
8.908611e+002, 1.861240e+003
8.913433e+002, 1.867812e+003
8.918254e+002, 1.874852e+003
8.923075e+002, 1.882203e+003
8.927896e+002, 1.889781e+003
8.932717e+002, 1.897113e+003
8.937538e+002, 1.903556e+003
8.942360e+002, 1.910181e+003
8.947181e+002, 1.916939e+003
8.952002e+002, 1.924274e+003
8.956823e+002, 1.933411e+003
8.961644e+002, 1.945089e+003
8.966465e+002, 1.956791e+003
8.971287e+002, 1.967918e+003
8.976108e+002, 1.979023e+003
8.980929e+002, 1.991074e+003
8.985750e+002, 2.003875e+003
8.990571e+002, 2.016361e+003
8.995392e+002, 2.028242e+003
9.000214e+002, 2.040180e+003
9.005035e+002, 2.052878e+003
9.009856e+002, 2.065994e+003
9.014677e+002, 2.079365e+003
9.019498e+002, 2.092219e+003
9.024319e+002, 2.106364e+003
9.029141e+002, 2.122543e+003
9.033962e+002, 2.139078e+003
9.038783e+002, 2.154622e+003
9.043604e+002, 2.169218e+003
9.048425e+002, 2.183856e+003
9.053246e+002, 2.198768e+003
9.058068e+002, 2.213750e+003
9.062889e+002, 2.229496e+003
9.067710e+002, 2.244834e+003
9.072531e+002, 2.258885e+003
9.077352e+002, 2.271453e+003
9.082173e+002, 2.282974e+003
9.086995e+002, 2.293416e+003
9.091816e+002, 2.303109e+003
9.096637e+002, 2.312332e+003
9.101458e+002, 2.320859e+003
9.106279e+002, 2.326596e+003
9.111100e+002, 2.329629e+003
9.115922e+002, 2.331508e+003
9.120743e+002, 2.333205e+003
9.125564e+002, 2.334150e+003
9.130385e+002, 2.334178e+003
9.135206e+002, 2.333020e+003
9.140027e+002, 2.329871e+003
9.144849e+002, 2.323313e+003
9.149670e+002, 2.316244e+003
9.154491e+002, 2.309743e+003
9.159312e+002, 2.302688e+003
9.164133e+002, 2.292184e+003
9.168954e+002, 2.278250e+003
9.173776e+002, 2.264872e+003
9.178597e+002, 2.253277e+003
9.183418e+002, 2.241396e+003
9.188239e+002, 2.226235e+003
9.193060e+002, 2.209590e+003
9.197881e+002, 2.194034e+003
9.202703e+002, 2.180750e+003
9.207524e+002, 2.167306e+003
9.212345e+002, 2.153409e+003
9.217166e+002, 2.139159e+003
9.221987e+002, 2.124626e+003
9.226808e+002, 2.109804e+003
9.231630e+002, 2.094604e+003
9.236451e+002, 2.078879e+003
9.241272e+002, 2.063877e+003
9.246093e+002, 2.050257e+003
9.250914e+002, 2.038157e+003
9.255735e+002, 2.028548e+003
9.260557e+002, 2.021462e+003
9.265378e+002, 2.013221e+003
9.270199e+002, 2.001229e+003
9.275020e+002, 1.989591e+003
9.279841e+002, 1.979473e+003
9.284662e+002, 1.970850e+003
9.289484e+002, 1.963369e+003
9.294305e+002, 1.956996e+003
9.299126e+002, 1.951639e+003
9.303947e+002, 1.947587e+003
9.308768e+002, 1.944262e+003
9.313589e+002, 1.940856e+003
9.318411e+002, 1.937720e+003
9.323232e+002, 1.935693e+003
9.328053e+002, 1.935620e+003
9.332874e+002, 1.935966e+003
9.337695e+002, 1.936136e+003
9.342516e+002, 1.936890e+003
9.347338e+002, 1.939434e+003
9.352159e+002, 1.943791e+003
9.356980e+002, 1.948690e+003
9.361801e+002, 1.953793e+003
9.366622e+002, 1.960142e+003
9.371443e+002, 1.969286e+003
9.376265e+002, 1.980040e+003
9.381086e+002, 1.990744e+003
9.385907e+002, 2.000937e+003
9.390728e+002, 2.012250e+003
9.395549e+002, 2.025009e+003
9.400370e+002, 2.038621e+003
9.405192e+002, 2.052641e+003
9.410013e+002, 2.067068e+003
9.414834e+002, 2.082116e+003
9.419655e+002, 2.097889e+003
9.424476e+002, 2.114014e+003
9.429297e+002, 2.130773e+003
9.434119e+002, 2.147406e+003
9.438940e+002, 2.163762e+003
9.443761e+002, 2.179488e+003
9.448582e+002, 2.193110e+003
9.453403e+002, 2.204658e+003
9.458224e+002, 2.213482e+003
9.463046e+002, 2.219169e+003
9.467867e+002, 2.222175e+003
9.472688e+002, 2.224002e+003
9.477509e+002, 2.224392e+003
9.482330e+002, 2.220707e+003
9.487151e+002, 2.211680e+003
9.491973e+002, 2.199872e+003
9.496794e+002, 2.187797e+003
9.501615e+002, 2.174231e+003
9.506436e+002, 2.157446e+003
9.511257e+002, 2.135173e+003
9.516078e+002, 2.113768e+003
9.520900e+002, 2.093427e+003
9.525721e+002, 2.073843e+003
9.530542e+002, 2.054753e+003
9.535363e+002, 2.036180e+003
9.540184e+002, 2.018086e+003
9.545005e+002, 2.000624e+003
9.549827e+002, 1.984215e+003
9.554648e+002, 1.969252e+003
9.559469e+002, 1.955402e+003
9.564290e+002, 1.942336e+003
9.569111e+002, 1.930056e+003
9.573932e+002, 1.919235e+003
9.578754e+002, 1.910309e+003
9.583575e+002, 1.901472e+003
9.588396e+002, 1.892046e+003
9.593217e+002, 1.882538e+003
9.598038e+002, 1.874512e+003
9.602859e+002, 1.867674e+003
9.607681e+002, 1.861121e+003
9.612502e+002, 1.854340e+003
9.617323e+002, 1.848030e+003
9.622144e+002, 1.842868e+003
9.626965e+002, 1.838302e+003
9.631786e+002, 1.833650e+003
9.636608e+002, 1.829003e+003
9.641429e+002, 1.823943e+003
9.646250e+002, 1.818209e+003
9.651071e+002, 1.813132e+003
9.655892e+002, 1.810801e+003
9.660714e+002, 1.809981e+003
9.665535e+002, 1.807771e+003
9.670356e+002, 1.803995e+003
9.675177e+002, 1.800020e+003
9.679998e+002, 1.796271e+003
9.684819e+002, 1.792782e+003
9.689641e+002, 1.789146e+003
9.694462e+002, 1.785598e+003
9.699283e+002, 1.784254e+003
9.704104e+002, 1.785417e+003
9.708925e+002, 1.786380e+003
9.713746e+002, 1.786084e+003
9.718568e+002, 1.784970e+003
9.723389e+002, 1.783080e+003
9.728210e+002, 1.780947e+003
9.733031e+002, 1.779714e+003
9.737852e+002, 1.780404e+003
9.742673e+002, 1.781167e+003
9.747495e+002, 1.781788e+003
9.752316e+002, 1.782200e+003
9.757137e+002, 1.782409e+003
9.761958e+002, 1.782435e+003
9.766779e+002, 1.781729e+003
9.771600e+002, 1.780201e+003
9.776422e+002, 1.778602e+003
9.781243e+002, 1.777434e+003
9.786064e+002, 1.776637e+003
9.790885e+002, 1.776223e+003
9.795706e+002, 1.776204e+003
9.800527e+002, 1.776246e+003
9.805349e+002, 1.776991e+003
9.810170e+002, 1.776689e+003
9.814991e+002, 1.774309e+003
9.819812e+002, 1.770615e+003
9.824633e+002, 1.768055e+003
9.829454e+002, 1.766579e+003
9.834276e+002, 1.765969e+003
9.839097e+002, 1.766469e+003
9.843918e+002, 1.767285e+003
9.848739e+002, 1.768113e+003
9.853560e+002, 1.768794e+003
9.858381e+002, 1.769028e+003
9.863203e+002, 1.768407e+003
9.868024e+002, 1.768300e+003
9.872845e+002, 1.768856e+003
9.877666e+002, 1.769737e+003
9.882487e+002, 1.770668e+003
9.887308e+002, 1.771652e+003
9.892130e+002, 1.772712e+003
9.896951e+002, 1.773842e+003
9.901772e+002, 1.774964e+003
9.906593e+002, 1.776445e+003
9.911414e+002, 1.777490e+003
9.916235e+002, 1.777339e+003
9.921057e+002, 1.776273e+003
9.925878e+002, 1.775755e+003
9.930699e+002, 1.775717e+003
9.935520e+002, 1.776719e+003
9.940341e+002, 1.779430e+003
9.945162e+002, 1.782458e+003
9.949984e+002, 1.783574e+003
9.954805e+002, 1.783583e+003
9.959626e+002, 1.784047e+003
9.964447e+002, 1.786096e+003
9.969268e+002, 1.787595e+003
9.974089e+002, 1.788117e+003
9.978911e+002, 1.788183e+003
9.983732e+002, 1.788182e+003
9.988553e+002, 1.788140e+003
9.993374e+002, 1.788104e+003
9.998195e+002, 1.788088e+003
1.000302e+003, 1.788552e+003
1.000784e+003, 1.790127e+003
1.001266e+003, 1.792100e+003
1.001748e+003, 1.794273e+003
1.002230e+003, 1.796461e+003
1.002712e+003, 1.797259e+003
1.003194e+003, 1.795905e+003
1.003676e+003, 1.794616e+003
1.004159e+003, 1.793756e+003
1.004641e+003, 1.793506e+003
1.005123e+003, 1.794790e+003
1.005605e+003, 1.797005e+003
1.006087e+003, 1.798276e+003
1.006569e+003, 1.797746e+003
1.007051e+003, 1.797092e+003
1.007533e+003, 1.797438e+003
1.008016e+003, 1.797867e+003
1.008498e+003, 1.797424e+003
1.008980e+003, 1.795795e+003
1.009462e+003, 1.795416e+003
1.009944e+003, 1.796462e+003
1.010426e+003, 1.797575e+003
1.010908e+003, 1.797662e+003
1.011390e+003, 1.797257e+003
1.011872e+003, 1.796887e+003
1.012355e+003, 1.796610e+003
1.012837e+003, 1.796625e+003
1.013319e+003, 1.796997e+003
1.013801e+003, 1.797648e+003
1.014283e+003, 1.798758e+003
1.014765e+003, 1.799888e+003
1.015247e+003, 1.799978e+003
1.015729e+003, 1.799223e+003
1.016211e+003, 1.799218e+003
1.016694e+003, 1.800354e+003
1.017176e+003, 1.801914e+003
1.017658e+003, 1.803932e+003
1.018140e+003, 1.805730e+003
1.018622e+003, 1.806532e+003
1.019104e+003, 1.806080e+003
1.019586e+003, 1.806518e+003
1.020068e+003, 1.808424e+003
1.020551e+003, 1.809383e+003
1.021033e+003, 1.807533e+003
1.021515e+003, 1.804222e+003
1.021997e+003, 1.801865e+003
1.022479e+003, 1.800569e+003
1.022961e+003, 1.800706e+003
1.023443e+003, 1.803726e+003
1.023925e+003, 1.806603e+003
1.024407e+003, 1.808780e+003
1.024890e+003, 1.810140e+003
1.025372e+003, 1.810214e+003
1.025854e+003, 1.808941e+003
1.026336e+003, 1.808125e+003
1.026818e+003, 1.807928e+003
1.027300e+003, 1.808166e+003
1.027782e+003, 1.809141e+003
1.028264e+003, 1.810135e+003
1.028746e+003, 1.810596e+003
1.029229e+003, 1.810442e+003
1.029711e+003, 1.809279e+003
1.030193e+003, 1.806463e+003
1.030675e+003, 1.804059e+003
1.031157e+003, 1.802691e+003
1.031639e+003, 1.802226e+003
1.032121e+003, 1.802930e+003
1.032603e+003, 1.804296e+003
1.033086e+003, 1.804679e+003
1.033568e+003, 1.803223e+003
1.034050e+003, 1.801496e+003
1.034532e+003, 1.799924e+003
1.035014e+003, 1.798649e+003
1.035496e+003, 1.797935e+003
1.035978e+003, 1.798008e+003
1.036460e+003, 1.797135e+003
1.036943e+003, 1.795304e+003
1.037425e+003, 1.793042e+003
1.037907e+003, 1.789724e+003
1.038389e+003, 1.786937e+003
1.038871e+003, 1.786991e+003
1.039353e+003, 1.789229e+003
1.039835e+003, 1.790908e+003
1.040317e+003, 1.791236e+003
1.040799e+003, 1.791358e+003
1.041281e+003, 1.791470e+003
1.041764e+003, 1.791345e+003
1.042246e+003, 1.790247e+003
1.042728e+003, 1.788601e+003
1.043210e+003, 1.787979e+003
1.043692e+003, 1.788759e+003
1.044174e+003, 1.789573e+003
1.044656e+003, 1.789365e+003
1.045138e+003, 1.789194e+003
1.045621e+003, 1.789816e+003
1.046103e+003, 1.791162e+003
1.046585e+003, 1.792318e+003
1.047067e+003, 1.793278e+003
1.047549e+003, 1.794084e+003
1.048031e+003, 1.794464e+003
1.048513e+003, 1.795086e+003
1.048995e+003, 1.796945e+003
1.049478e+003, 1.799543e+003
1.049960e+003, 1.802032e+003
1.050442e+003, 1.803702e+003
1.050924e+003, 1.805997e+003
1.051406e+003, 1.808842e+003
1.051888e+003, 1.812565e+003
1.052370e+003, 1.817738e+003
1.052852e+003, 1.824077e+003
1.053334e+003, 1.829967e+003
1.053817e+003, 1.835640e+003
1.054299e+003, 1.843728e+003
1.054781e+003, 1.857055e+003
1.055263e+003, 1.871715e+003
1.055745e+003, 1.885999e+003
1.056227e+003, 1.900380e+003
1.056709e+003, 1.916411e+003
1.057191e+003, 1.934200e+003
1.057673e+003, 1.951052e+003
1.058156e+003, 1.965965e+003
1.058638e+003, 1.981926e+003
1.059120e+003, 2.001678e+003
1.059602e+003, 2.024589e+003
1.060084e+003, 2.049571e+003
1.060566e+003, 2.076247e+003
1.061048e+003, 2.108469e+003
1.061530e+003, 2.147312e+003
1.062013e+003, 2.189413e+003
1.062495e+003, 2.233757e+003
1.062977e+003, 2.279798e+003
1.063459e+003, 2.328568e+003
1.063941e+003, 2.378632e+003
1.064423e+003, 2.427383e+003
1.064905e+003, 2.480827e+003
1.065387e+003, 2.522831e+003
1.065870e+003, 2.547517e+003
1.066352e+003, 2.558392e+003
1.066834e+003, 2.557261e+003
1.067316e+003, 2.544139e+003
1.067798e+003, 2.519002e+003
1.068280e+003, 2.481702e+003
1.068762e+003, 2.440507e+003
1.069244e+003, 2.395101e+003
1.069726e+003, 2.352987e+003
1.070208e+003, 2.320270e+003
1.070691e+003, 2.296781e+003
1.071173e+003, 2.280705e+003
1.071655e+003, 2.271478e+003
1.072137e+003, 2.270079e+003
1.072619e+003, 2.276771e+003
1.073101e+003, 2.291056e+003
1.073583e+003, 2.311739e+003
1.074065e+003, 2.339617e+003
1.074548e+003, 2.376904e+003
1.075030e+003, 2.424020e+003
1.075512e+003, 2.477259e+003
1.075994e+003, 2.537168e+003
1.076476e+003, 2.600995e+003
1.076958e+003, 2.669522e+003
1.077440e+003, 2.739927e+003
1.077922e+003, 2.804980e+003
1.078405e+003, 2.863199e+003
1.078887e+003, 2.908159e+003
1.079369e+003, 2.944391e+003
1.079851e+003, 2.955136e+003
1.080333e+003, 2.930777e+003
1.080815e+003, 2.874210e+003
1.081297e+003, 2.790363e+003
1.081779e+003, 2.674538e+003
1.082261e+003, 2.555124e+003
1.082744e+003, 2.430254e+003
1.083226e+003, 2.313202e+003
1.083708e+003, 2.210109e+003
1.084190e+003, 2.122001e+003
1.084672e+003, 2.051827e+003
1.085154e+003, 1.997697e+003
1.085636e+003, 1.954248e+003
1.086118e+003, 1.922647e+003
1.086601e+003, 1.896491e+003
1.087083e+003, 1.875570e+003
1.087565e+003, 1.858660e+003
1.088047e+003, 1.844548e+003
1.088529e+003, 1.833234e+003
1.089011e+003, 1.824938e+003
1.089493e+003, 1.819687e+003
1.089975e+003, 1.815007e+003
1.090458e+003, 1.809822e+003
1.090940e+003, 1.805223e+003
1.091422e+003, 1.801764e+003
1.091904e+003, 1.799083e+003
1.092386e+003, 1.796114e+003
1.092868e+003, 1.792949e+003
1.093350e+003, 1.790379e+003
1.093832e+003, 1.788864e+003
1.094314e+003, 1.787232e+003
1.094797e+003, 1.783905e+003
1.095279e+003, 1.780667e+003
1.095761e+003, 1.779463e+003
1.096243e+003, 1.780519e+003
1.096725e+003, 1.780381e+003
1.097207e+003, 1.778977e+003
1.097689e+003, 1.777353e+003
1.098171e+003, 1.776073e+003
1.098653e+003, 1.774897e+003
1.099136e+003, 1.773506e+003
1.099618e+003, 1.772005e+003
1.100100e+003, 1.770549e+003
1.100582e+003, 1.768880e+003
1.101064e+003, 1.767852e+003
1.101546e+003, 1.767650e+003
1.102028e+003, 1.767614e+003
1.102510e+003, 1.766841e+003
1.102993e+003, 1.765871e+003
1.103475e+003, 1.766384e+003
1.103957e+003, 1.768064e+003
1.104439e+003, 1.768636e+003
1.104921e+003, 1.765792e+003
1.105403e+003, 1.763514e+003
1.105885e+003, 1.763080e+003
1.106367e+003, 1.763460e+003
1.106849e+003, 1.762656e+003
1.107332e+003, 1.761001e+003
1.107814e+003, 1.760404e+003
1.108296e+003, 1.761245e+003
1.108778e+003, 1.761899e+003
1.109260e+003, 1.761148e+003
1.109742e+003, 1.760020e+003
1.110224e+003, 1.758878e+003
1.110706e+003, 1.757883e+003
1.111188e+003, 1.758155e+003
1.111671e+003, 1.759720e+003
1.112153e+003, 1.760481e+003
1.112635e+003, 1.759559e+003
1.113117e+003, 1.758083e+003
1.113599e+003, 1.756756e+003
1.114081e+003, 1.755721e+003
1.114563e+003, 1.755317e+003
1.115045e+003, 1.755792e+003
1.115528e+003, 1.755661e+003
1.116010e+003, 1.754858e+003
1.116492e+003, 1.753721e+003
1.116974e+003, 1.752322e+003
1.117456e+003, 1.750835e+003
1.117938e+003, 1.749733e+003
1.118420e+003, 1.748748e+003
1.118902e+003, 1.747288e+003
1.119385e+003, 1.743957e+003
1.119867e+003, 1.742281e+003
1.120349e+003, 1.743258e+003
1.120831e+003, 1.744277e+003
1.121313e+003, 1.742362e+003
1.121795e+003, 1.738710e+003
1.122277e+003, 1.736744e+003
1.122759e+003, 1.736389e+003
1.123241e+003, 1.736507e+003
1.123724e+003, 1.737242e+003
1.124206e+003, 1.737471e+003
1.124688e+003, 1.736667e+003
1.125170e+003, 1.735398e+003
1.125652e+003, 1.734676e+003
1.126134e+003, 1.734350e+003
1.126616e+003, 1.733217e+003
1.127098e+003, 1.731098e+003
1.127580e+003, 1.729441e+003
1.128063e+003, 1.729705e+003
1.128545e+003, 1.730309e+003
1.129027e+003, 1.730546e+003
1.129509e+003, 1.730321e+003
1.129991e+003, 1.728903e+003
1.130473e+003, 1.726264e+003
1.130955e+003, 1.724530e+003
1.131437e+003, 1.724380e+003
1.131920e+003, 1.724765e+003
1.132402e+003, 1.725370e+003
1.132884e+003, 1.725561e+003
1.133366e+003, 1.724287e+003
1.133848e+003, 1.721350e+003
1.134330e+003, 1.720053e+003
1.134812e+003, 1.720619e+003
1.135294e+003, 1.721602e+003
1.135776e+003, 1.722630e+003
1.136259e+003, 1.723311e+003
1.136741e+003, 1.722848e+003
1.137223e+003, 1.721762e+003
1.137705e+003, 1.720847e+003
1.138187e+003, 1.720206e+003
1.138669e+003, 1.719954e+003
1.139151e+003, 1.720215e+003
1.139633e+003, 1.720506e+003
1.140115e+003, 1.720467e+003
1.140598e+003, 1.720246e+003
1.141080e+003, 1.720380e+003
1.141562e+003, 1.720605e+003
1.142044e+003, 1.720185e+003
1.142526e+003, 1.717611e+003
1.143008e+003, 1.716403e+003
1.143490e+003, 1.717904e+003
1.143972e+003, 1.719326e+003
1.144455e+003, 1.717068e+003
1.144937e+003, 1.712539e+003
1.145419e+003, 1.710524e+003
1.145901e+003, 1.710969e+003
1.146383e+003, 1.711715e+003
1.146865e+003, 1.712266e+003
1.147347e+003, 1.712204e+003
1.147829e+003, 1.711157e+003
1.148312e+003, 1.709747e+003
1.148794e+003, 1.709073e+003
1.149276e+003, 1.708967e+003
1.149758e+003, 1.708133e+003
1.150240e+003, 1.706399e+003
1.150722e+003, 1.705098e+003
1.151204e+003, 1.705174e+003
1.151686e+003, 1.705847e+003
1.152168e+003, 1.707090e+003
1.152651e+003, 1.708459e+003
1.153133e+003, 1.708441e+003
1.153615e+003, 1.707107e+003
1.154097e+003, 1.706378e+003
1.154579e+003, 1.706826e+003
1.155061e+003, 1.707229e+003
1.155543e+003, 1.706084e+003
1.156025e+003, 1.704866e+003
1.156507e+003, 1.704969e+003
1.156990e+003, 1.706259e+003
1.157472e+003, 1.707588e+003
1.157954e+003, 1.708996e+003
1.158436e+003, 1.710035e+003
1.158918e+003, 1.710617e+003
1.159400e+003, 1.710677e+003
1.159882e+003, 1.709831e+003
1.160364e+003, 1.708617e+003
1.160847e+003, 1.707631e+003
1.161329e+003, 1.706925e+003
1.161811e+003, 1.706469e+003
1.162293e+003, 1.706288e+003
1.162775e+003, 1.706199e+003
1.163257e+003, 1.706153e+003
1.163739e+003, 1.706071e+003
1.164221e+003, 1.705745e+003
1.164703e+003, 1.705333e+003
1.165186e+003, 1.705149e+003
1.165668e+003, 1.705662e+003
1.166150e+003, 1.705229e+003
1.166632e+003, 1.703551e+003
1.167114e+003, 1.702006e+003
1.167596e+003, 1.701595e+003
1.168078e+003, 1.701957e+003
1.168560e+003, 1.702903e+003
1.169042e+003, 1.704132e+003
1.169525e+003, 1.704834e+003
1.170007e+003, 1.704962e+003
1.170489e+003, 1.704126e+003
1.170971e+003, 1.701917e+003
1.171453e+003, 1.699756e+003
1.171935e+003, 1.699205e+003
1.172417e+003, 1.699570e+003
1.172899e+003, 1.699701e+003
1.173382e+003, 1.699514e+003
1.173864e+003, 1.698850e+003
1.174346e+003, 1.696575e+003
1.174828e+003, 1.695481e+003
1.175310e+003, 1.696281e+003
1.175792e+003, 1.697744e+003
1.176274e+003, 1.698477e+003
1.176756e+003, 1.698596e+003
1.177239e+003, 1.698206e+003
1.177721e+003, 1.697375e+003
1.178203e+003, 1.696886e+003
1.178685e+003, 1.697585e+003
1.179167e+003, 1.697887e+003
1.179649e+003, 1.697168e+003
1.180131e+003, 1.696167e+003
1.180613e+003, 1.696532e+003
1.181095e+003, 1.697677e+003
1.181578e+003, 1.697667e+003
1.182060e+003, 1.696141e+003
1.182542e+003, 1.695149e+003
1.183024e+003, 1.696350e+003
1.183506e+003, 1.697360e+003
1.183988e+003, 1.697202e+003
1.184470e+003, 1.696439e+003
1.184952e+003, 1.696758e+003
1.185434e+003, 1.697734e+003
1.185917e+003, 1.697716e+003
1.186399e+003, 1.696133e+003
1.186881e+003, 1.694602e+003
1.187363e+003, 1.693093e+003
1.187845e+003, 1.692868e+003
1.188327e+003, 1.695338e+003
1.188809e+003, 1.699159e+003
1.189291e+003, 1.698327e+003
1.189774e+003, 1.693990e+003
1.190256e+003, 1.691805e+003
1.190738e+003, 1.694463e+003
1.191220e+003, 1.696873e+003
1.191702e+003, 1.696103e+003
1.192184e+003, 1.694645e+003
1.192666e+003, 1.694028e+003
1.193148e+003, 1.694121e+003
1.193630e+003, 1.694019e+003
1.194113e+003, 1.693797e+003
1.194595e+003, 1.693917e+003
1.195077e+003, 1.694984e+003
1.195559e+003, 1.695684e+003
1.196041e+003, 1.694891e+003
1.196523e+003, 1.693896e+003
1.197005e+003, 1.694015e+003
1.197487e+003, 1.695095e+003
1.197969e+003, 1.693874e+003
1.198452e+003, 1.690699e+003
1.198934e+003, 1.688097e+003
1.199416e+003, 1.687903e+003
1.199898e+003, 1.687963e+003
1.200380e+003, 1.687348e+003
1.200862e+003, 1.686422e+003
1.201344e+003, 1.685153e+003
1.201826e+003, 1.683538e+003
1.202309e+003, 1.685001e+003
1.202791e+003, 1.689194e+003
1.203273e+003, 1.691915e+003
1.203755e+003, 1.689398e+003
1.204237e+003, 1.686302e+003
1.204719e+003, 1.684851e+003
1.205201e+003, 1.684213e+003
1.205683e+003, 1.683371e+003
1.206166e+003, 1.682344e+003
1.206648e+003, 1.681926e+003
1.207130e+003, 1.682130e+003
1.207612e+003, 1.682730e+003
1.208094e+003, 1.684094e+003
1.208576e+003, 1.685235e+003
1.209058e+003, 1.685703e+003
1.209540e+003, 1.685546e+003
1.210022e+003, 1.684567e+003
1.210505e+003, 1.682808e+003
1.210987e+003, 1.681837e+003
1.211469e+003, 1.681734e+003
1.211951e+003, 1.681241e+003
1.212433e+003, 1.678430e+003
1.212915e+003, 1.676168e+003
1.213397e+003, 1.676979e+003
1.213879e+003, 1.678941e+003
1.214361e+003, 1.678341e+003
1.214844e+003, 1.675467e+003
1.215326e+003, 1.675305e+003
1.215808e+003, 1.678444e+003
1.216290e+003, 1.680888e+003
1.216772e+003, 1.678986e+003
1.217254e+003, 1.676599e+003
1.217736e+003, 1.675661e+003
1.218218e+003, 1.675766e+003
1.218701e+003, 1.676361e+003
1.219183e+003, 1.677349e+003
1.219665e+003, 1.677697e+003
1.220147e+003, 1.677208e+003
1.220629e+003, 1.676611e+003
1.221111e+003, 1.676207e+003
1.221593e+003, 1.676005e+003
1.222075e+003, 1.676352e+003
1.222557e+003, 1.676719e+003
1.223040e+003, 1.675476e+003
1.223522e+003, 1.672860e+003
1.224004e+003, 1.670434e+003
1.224486e+003, 1.668357e+003
1.224968e+003, 1.667896e+003
1.225450e+003, 1.673020e+003
1.225932e+003, 1.676410e+003
1.226414e+003, 1.673635e+003
1.226896e+003, 1.666994e+003
1.227379e+003, 1.662978e+003
1.227861e+003, 1.661375e+003
1.228343e+003, 1.661038e+003
1.228825e+003, 1.661902e+003
1.229307e+003, 1.662790e+003
1.229789e+003, 1.663802e+003
1.230271e+003, 1.663660e+003
1.230753e+003, 1.660955e+003
1.231236e+003, 1.657113e+003
1.231718e+003, 1.657607e+003
1.232200e+003, 1.661324e+003
1.232682e+003, 1.663926e+003
1.233164e+003, 1.664332e+003
1.233646e+003, 1.663472e+003
1.234128e+003, 1.660674e+003
1.234610e+003, 1.657926e+003
1.235093e+003, 1.656204e+003
1.235575e+003, 1.655216e+003
1.236057e+003, 1.654077e+003
1.236539e+003, 1.652898e+003
1.237021e+003, 1.652143e+003
1.237503e+003, 1.652187e+003
1.237985e+003, 1.651753e+003
1.238467e+003, 1.649444e+003
1.238949e+003, 1.647779e+003
1.239432e+003, 1.648357e+003
1.239914e+003, 1.650010e+003
1.240396e+003, 1.648679e+003
1.240878e+003, 1.645486e+003
1.241360e+003, 1.643730e+003
1.241842e+003, 1.644899e+003
1.242324e+003, 1.645666e+003
1.242806e+003, 1.645035e+003
1.243288e+003, 1.644246e+003
1.243771e+003, 1.643856e+003
1.244253e+003, 1.643779e+003
1.244735e+003, 1.644184e+003
1.245217e+003, 1.644658e+003
1.245699e+003, 1.644183e+003
1.246181e+003, 1.642218e+003
1.246663e+003, 1.639887e+003
1.247145e+003, 1.636721e+003
1.247628e+003, 1.634564e+003
1.248110e+003, 1.634661e+003
1.248592e+003, 1.636149e+003
1.249074e+003, 1.638158e+003
1.249556e+003, 1.639924e+003
1.250038e+003, 1.639907e+003
1.250520e+003, 1.636871e+003
1.251002e+003, 1.633950e+003
1.251484e+003, 1.631136e+003
1.251967e+003, 1.628923e+003
1.252449e+003, 1.627817e+003
1.252931e+003, 1.627267e+003
1.253413e+003, 1.626436e+003
1.253895e+003, 1.625469e+003
1.254377e+003, 1.624689e+003
1.254859e+003, 1.624429e+003
1.255341e+003, 1.623416e+003
1.255823e+003, 1.621482e+003
1.256306e+003, 1.619545e+003
1.256788e+003, 1.618352e+003
1.257270e+003, 1.617217e+003
1.257752e+003, 1.614798e+003
1.258234e+003, 1.612084e+003
1.258716e+003, 1.610877e+003
1.259198e+003, 1.611863e+003
1.259680e+003, 1.612074e+003
1.260163e+003, 1.611553e+003
1.260645e+003, 1.609958e+003
1.261127e+003, 1.606195e+003
1.261609e+003, 1.602391e+003
1.262091e+003, 1.601370e+003
1.262573e+003, 1.601007e+003
1.263055e+003, 1.598038e+003
1.263537e+003, 1.591783e+003
1.264020e+003, 1.587891e+003
1.264502e+003, 1.586306e+003
1.264984e+003, 1.585092e+003
1.265466e+003, 1.582867e+003
1.265948e+003, 1.580964e+003
1.266430e+003, 1.580691e+003
1.266912e+003, 1.580900e+003
1.267394e+003, 1.580455e+003
1.267876e+003, 1.579367e+003
1.268359e+003, 1.576598e+003
1.268841e+003, 1.572391e+003
1.269323e+003, 1.568929e+003
1.269805e+003, 1.568723e+003
1.270287e+003, 1.567809e+003
1.270769e+003, 1.563145e+003
1.271251e+003, 1.558167e+003
1.271733e+003, 1.555821e+003
1.272215e+003, 1.555694e+003
1.272698e+003, 1.554541e+003
1.273180e+003, 1.552426e+003
1.273662e+003, 1.549659e+003
1.274144e+003, 1.546406e+003
1.274626e+003, 1.542319e+003
1.275108e+003, 1.536343e+003
1.275590e+003, 1.530956e+003
1.276072e+003, 1.528697e+003
1.276555e+003, 1.528500e+003
1.277037e+003, 1.526821e+003
1.277519e+003, 1.524134e+003
1.278001e+003, 1.521822e+003
1.278483e+003, 1.522020e+003
1.278965e+003, 1.519722e+003
1.279447e+003, 1.513712e+003
1.279929e+003, 1.507613e+003
1.280411e+003, 1.504946e+003
1.280894e+003, 1.503669e+003
1.281376e+003, 1.499552e+003
1.281858e+003, 1.493861e+003
1.282340e+003, 1.489439e+003
1.282822e+003, 1.488031e+003
1.283304e+003, 1.485326e+003
1.283786e+003, 1.481063e+003
1.284268e+003, 1.476866e+003
1.284750e+003, 1.474037e+003
1.285233e+003, 1.471650e+003
1.285715e+003, 1.468792e+003
1.286197e+003, 1.465578e+003
1.286679e+003, 1.462106e+003
1.287161e+003, 1.458252e+003
1.287643e+003, 1.455041e+003
1.288125e+003, 1.452506e+003
1.288607e+003, 1.449356e+003
1.289090e+003, 1.444027e+003
1.289572e+003, 1.438694e+003
1.290054e+003, 1.435120e+003
1.290536e+003, 1.432231e+003
1.291018e+003, 1.428674e+003
1.291500e+003, 1.424427e+003
1.291982e+003, 1.419828e+003
1.292464e+003, 1.415007e+003
1.292947e+003, 1.410831e+003
1.293429e+003, 1.408889e+003
1.293911e+003, 1.406180e+003
1.294393e+003, 1.400488e+003
1.294875e+003, 1.394407e+003
1.295357e+003, 1.389751e+003
1.295839e+003, 1.386346e+003
1.296321e+003, 1.383789e+003
1.296803e+003, 1.381734e+003
1.297286e+003, 1.378804e+003
1.297768e+003, 1.373628e+003
1.298250e+003, 1.368912e+003
1.298732e+003, 1.364920e+003
1.299214e+003, 1.361730e+003
1.299696e+003, 1.359794e+003
1.300178e+003, 1.358246e+003
1.300660e+003, 1.355935e+003
##END=



