##NAMES=Cerite-(CeCa)
##RRUFFID=R130614
##IDEAL CHEMISTRY=(Ce_7_Ca_2_)[box]Mg(SiO_4_)_3_(SiO_3_OH)_4_(OH)_3_
##LOCALITY=Mont Saint-Hilaire, Rouville County, Quebec, Canada
##OWNER=RRUFF
##SOURCE=Don Doell
##DESCRIPTION=Hexagonal platy pink crystals, associated with catapleiite and aegirine. The color is dependent upon light source.
##STATUS=The identification of this mineral has been confirmed only by single crystal X-ray diffraction.
##URL=rruff.info/R130614
8.813672e+001, 3.371160e+003
8.861884e+001, 3.410109e+003
8.910095e+001, 3.451086e+003
8.958307e+001, 3.509542e+003
9.006519e+001, 3.580139e+003
9.054730e+001, 3.647148e+003
9.102942e+001, 3.714694e+003
9.151154e+001, 3.774650e+003
9.199365e+001, 3.815971e+003
9.247577e+001, 3.841998e+003
9.295789e+001, 3.864287e+003
9.344000e+001, 3.890059e+003
9.392212e+001, 3.915106e+003
9.440424e+001, 3.937492e+003
9.488635e+001, 3.962544e+003
9.536847e+001, 3.990113e+003
9.585059e+001, 4.016456e+003
9.633270e+001, 4.041019e+003
9.681482e+001, 4.067791e+003
9.729694e+001, 4.100375e+003
9.777905e+001, 4.138700e+003
9.826117e+001, 4.179521e+003
9.874329e+001, 4.222576e+003
9.922540e+001, 4.267040e+003
9.970752e+001, 4.308885e+003
1.001896e+002, 4.346762e+003
1.006718e+002, 4.383009e+003
1.011539e+002, 4.419518e+003
1.016360e+002, 4.455616e+003
1.021181e+002, 4.495383e+003
1.026002e+002, 4.540580e+003
1.030823e+002, 4.592181e+003
1.035645e+002, 4.642688e+003
1.040466e+002, 4.691049e+003
1.045287e+002, 4.739629e+003
1.050108e+002, 4.794404e+003
1.054929e+002, 4.858337e+003
1.059750e+002, 4.924252e+003
1.064572e+002, 4.990090e+003
1.069393e+002, 5.061986e+003
1.074214e+002, 5.123737e+003
1.079035e+002, 5.170667e+003
1.083856e+002, 5.207692e+003
1.088677e+002, 5.249537e+003
1.093499e+002, 5.299800e+003
1.098320e+002, 5.353164e+003
1.103141e+002, 5.407309e+003
1.107962e+002, 5.465223e+003
1.112783e+002, 5.521801e+003
1.117604e+002, 5.576345e+003
1.122426e+002, 5.629709e+003
1.127247e+002, 5.683650e+003
1.132068e+002, 5.738242e+003
1.136889e+002, 5.793821e+003
1.141710e+002, 5.850047e+003
1.146531e+002, 5.912986e+003
1.151353e+002, 5.970484e+003
1.156174e+002, 6.016538e+003
1.160995e+002, 6.050901e+003
1.165816e+002, 6.088617e+003
1.170637e+002, 6.141024e+003
1.175458e+002, 6.197502e+003
1.180280e+002, 6.247188e+003
1.185101e+002, 6.278538e+003
1.189922e+002, 6.306439e+003
1.194743e+002, 6.338795e+003
1.199564e+002, 6.376396e+003
1.204385e+002, 6.416289e+003
1.209207e+002, 6.455763e+003
1.214028e+002, 6.496193e+003
1.218849e+002, 6.539883e+003
1.223670e+002, 6.595050e+003
1.228491e+002, 6.651401e+003
1.233312e+002, 6.696871e+003
1.238134e+002, 6.728726e+003
1.242955e+002, 6.755726e+003
1.247776e+002, 6.783170e+003
1.252597e+002, 6.811779e+003
1.257418e+002, 6.843903e+003
1.262239e+002, 6.882756e+003
1.267061e+002, 6.926326e+003
1.271882e+002, 6.969378e+003
1.276703e+002, 7.011353e+003
1.281524e+002, 7.053367e+003
1.286345e+002, 7.097417e+003
1.291166e+002, 7.143280e+003
1.295988e+002, 7.188971e+003
1.300809e+002, 7.232970e+003
1.305630e+002, 7.275421e+003
1.310451e+002, 7.317083e+003
1.315272e+002, 7.356895e+003
1.320093e+002, 7.396131e+003
1.324915e+002, 7.438943e+003
1.329736e+002, 7.485448e+003
1.334557e+002, 7.532807e+003
1.339378e+002, 7.577757e+003
1.344199e+002, 7.620304e+003
1.349020e+002, 7.662445e+003
1.353842e+002, 7.705428e+003
1.358663e+002, 7.747602e+003
1.363484e+002, 7.784224e+003
1.368305e+002, 7.813263e+003
1.373126e+002, 7.841491e+003
1.377947e+002, 7.878870e+003
1.382769e+002, 7.929077e+003
1.387590e+002, 7.969228e+003
1.392411e+002, 7.990237e+003
1.397232e+002, 7.991944e+003
1.402053e+002, 7.996899e+003
1.406874e+002, 8.006540e+003
1.411696e+002, 8.018088e+003
1.416517e+002, 8.028191e+003
1.421338e+002, 8.037917e+003
1.426159e+002, 8.044874e+003
1.430980e+002, 8.048309e+003
1.435801e+002, 8.047860e+003
1.440623e+002, 8.047177e+003
1.445444e+002, 8.045964e+003
1.450265e+002, 8.045307e+003
1.455086e+002, 8.047317e+003
1.459907e+002, 8.056076e+003
1.464728e+002, 8.062650e+003
1.469550e+002, 8.063508e+003
1.474371e+002, 8.054190e+003
1.479192e+002, 8.049693e+003
1.484013e+002, 8.052415e+003
1.488834e+002, 8.059687e+003
1.493655e+002, 8.065713e+003
1.498477e+002, 8.068833e+003
1.503298e+002, 8.072005e+003
1.508119e+002, 8.076505e+003
1.512940e+002, 8.086823e+003
1.517761e+002, 8.091728e+003
1.522583e+002, 8.084993e+003
1.527404e+002, 8.071708e+003
1.532225e+002, 8.066353e+003
1.537046e+002, 8.079326e+003
1.541867e+002, 8.093878e+003
1.546688e+002, 8.102311e+003
1.551510e+002, 8.099762e+003
1.556331e+002, 8.096172e+003
1.561152e+002, 8.091097e+003
1.565973e+002, 8.085596e+003
1.570794e+002, 8.083919e+003
1.575615e+002, 8.090583e+003
1.580437e+002, 8.099239e+003
1.585258e+002, 8.105963e+003
1.590079e+002, 8.107254e+003
1.594900e+002, 8.109341e+003
1.599721e+002, 8.114860e+003
1.604542e+002, 8.123146e+003
1.609364e+002, 8.130254e+003
1.614185e+002, 8.133787e+003
1.619006e+002, 8.136032e+003
1.623827e+002, 8.138822e+003
1.628648e+002, 8.143500e+003
1.633469e+002, 8.148082e+003
1.638291e+002, 8.151179e+003
1.643112e+002, 8.152971e+003
1.647933e+002, 8.155650e+003
1.652754e+002, 8.162730e+003
1.657575e+002, 8.170383e+003
1.662396e+002, 8.174584e+003
1.667218e+002, 8.167894e+003
1.672039e+002, 8.161792e+003
1.676860e+002, 8.164794e+003
1.681681e+002, 8.176752e+003
1.686502e+002, 8.189759e+003
1.691323e+002, 8.199863e+003
1.696145e+002, 8.207680e+003
1.700966e+002, 8.213966e+003
1.705787e+002, 8.218737e+003
1.710608e+002, 8.222327e+003
1.715429e+002, 8.223956e+003
1.720250e+002, 8.223525e+003
1.725072e+002, 8.224845e+003
1.729893e+002, 8.232402e+003
1.734714e+002, 8.243746e+003
1.739535e+002, 8.254310e+003
1.744356e+002, 8.260921e+003
1.749177e+002, 8.266177e+003
1.753999e+002, 8.273778e+003
1.758820e+002, 8.284159e+003
1.763641e+002, 8.294060e+003
1.768462e+002, 8.300472e+003
1.773283e+002, 8.304103e+003
1.778104e+002, 8.306896e+003
1.782926e+002, 8.308119e+003
1.787747e+002, 8.309321e+003
1.792568e+002, 8.313621e+003
1.797389e+002, 8.321369e+003
1.802210e+002, 8.329957e+003
1.807031e+002, 8.336052e+003
1.811853e+002, 8.340240e+003
1.816674e+002, 8.344628e+003
1.821495e+002, 8.350533e+003
1.826316e+002, 8.357418e+003
1.831137e+002, 8.364416e+003
1.835958e+002, 8.372032e+003
1.840780e+002, 8.378248e+003
1.845601e+002, 8.379662e+003
1.850422e+002, 8.376976e+003
1.855243e+002, 8.374263e+003
1.860064e+002, 8.373237e+003
1.864885e+002, 8.374034e+003
1.869707e+002, 8.377420e+003
1.874528e+002, 8.384166e+003
1.879349e+002, 8.391846e+003
1.884170e+002, 8.395649e+003
1.888991e+002, 8.395895e+003
1.893812e+002, 8.397996e+003
1.898634e+002, 8.406979e+003
1.903455e+002, 8.421235e+003
1.908276e+002, 8.430788e+003
1.913097e+002, 8.434307e+003
1.917918e+002, 8.434316e+003
1.922739e+002, 8.434078e+003
1.927561e+002, 8.433402e+003
1.932382e+002, 8.434869e+003
1.937203e+002, 8.440830e+003
1.942024e+002, 8.450831e+003
1.946845e+002, 8.459849e+003
1.951666e+002, 8.467280e+003
1.956488e+002, 8.473835e+003
1.961309e+002, 8.481200e+003
1.966130e+002, 8.489707e+003
1.970951e+002, 8.497312e+003
1.975772e+002, 8.502528e+003
1.980593e+002, 8.505361e+003
1.985415e+002, 8.508840e+003
1.990236e+002, 8.513247e+003
1.995057e+002, 8.518393e+003
1.999878e+002, 8.523970e+003
2.004699e+002, 8.530161e+003
2.009520e+002, 8.535948e+003
2.014342e+002, 8.540444e+003
2.019163e+002, 8.543528e+003
2.023984e+002, 8.547011e+003
2.028805e+002, 8.550928e+003
2.033626e+002, 8.555352e+003
2.038447e+002, 8.560917e+003
2.043269e+002, 8.568160e+003
2.048090e+002, 8.574538e+003
2.052911e+002, 8.577921e+003
2.057732e+002, 8.577647e+003
2.062553e+002, 8.578964e+003
2.067374e+002, 8.582333e+003
2.072196e+002, 8.587418e+003
2.077017e+002, 8.593534e+003
2.081838e+002, 8.601048e+003
2.086659e+002, 8.608692e+003
2.091480e+002, 8.615895e+003
2.096301e+002, 8.622899e+003
2.101123e+002, 8.628682e+003
2.105944e+002, 8.632932e+003
2.110765e+002, 8.636146e+003
2.115586e+002, 8.639486e+003
2.120407e+002, 8.642569e+003
2.125228e+002, 8.646686e+003
2.130050e+002, 8.652815e+003
2.134871e+002, 8.661597e+003
2.139692e+002, 8.669959e+003
2.144513e+002, 8.678136e+003
2.149334e+002, 8.685524e+003
2.154155e+002, 8.690184e+003
2.158977e+002, 8.690635e+003
2.163798e+002, 8.691005e+003
2.168619e+002, 8.693321e+003
2.173440e+002, 8.697624e+003
2.178261e+002, 8.703449e+003
2.183082e+002, 8.711195e+003
2.187904e+002, 8.720150e+003
2.192725e+002, 8.728304e+003
2.197546e+002, 8.735646e+003
2.202367e+002, 8.742030e+003
2.207188e+002, 8.747576e+003
2.212009e+002, 8.753169e+003
2.216831e+002, 8.755650e+003
2.221652e+002, 8.753515e+003
2.226473e+002, 8.748816e+003
2.231294e+002, 8.747494e+003
2.236115e+002, 8.750692e+003
2.240936e+002, 8.755764e+003
2.245758e+002, 8.761927e+003
2.250579e+002, 8.770335e+003
2.255400e+002, 8.777279e+003
2.260221e+002, 8.782527e+003
2.265042e+002, 8.786472e+003
2.269863e+002, 8.789590e+003
2.274685e+002, 8.790419e+003
2.279506e+002, 8.792766e+003
2.284327e+002, 8.798566e+003
2.289148e+002, 8.809566e+003
2.293969e+002, 8.819796e+003
2.298790e+002, 8.828268e+003
2.303612e+002, 8.836064e+003
2.308433e+002, 8.846353e+003
2.313254e+002, 8.861413e+003
2.318075e+002, 8.875381e+003
2.322896e+002, 8.884882e+003
2.327717e+002, 8.885639e+003
2.332539e+002, 8.892574e+003
2.337360e+002, 8.909409e+003
2.342181e+002, 8.930814e+003
2.347002e+002, 8.944224e+003
2.351823e+002, 8.944565e+003
2.356644e+002, 8.944146e+003
2.361466e+002, 8.948020e+003
2.366287e+002, 8.958316e+003
2.371108e+002, 8.966896e+003
2.375929e+002, 8.973495e+003
2.380750e+002, 8.978347e+003
2.385571e+002, 8.981671e+003
2.390393e+002, 8.982566e+003
2.395214e+002, 8.983542e+003
2.400035e+002, 8.986253e+003
2.404856e+002, 8.993131e+003
2.409677e+002, 8.994426e+003
2.414498e+002, 8.986774e+003
2.419320e+002, 8.975585e+003
2.424141e+002, 8.970501e+003
2.428962e+002, 8.974640e+003
2.433783e+002, 8.980267e+003
2.438604e+002, 8.985346e+003
2.443425e+002, 8.990434e+003
2.448247e+002, 8.993402e+003
2.453068e+002, 8.993746e+003
2.457889e+002, 8.992407e+003
2.462710e+002, 8.990168e+003
2.467531e+002, 8.983980e+003
2.472352e+002, 8.982059e+003
2.477174e+002, 8.987946e+003
2.481995e+002, 9.003526e+003
2.486816e+002, 9.016454e+003
2.491637e+002, 9.025280e+003
2.496458e+002, 9.032379e+003
2.501279e+002, 9.041479e+003
2.506101e+002, 9.055275e+003
2.510922e+002, 9.065846e+003
2.515743e+002, 9.069799e+003
2.520564e+002, 9.065828e+003
2.525385e+002, 9.065353e+003
2.530206e+002, 9.069787e+003
2.535028e+002, 9.076439e+003
2.539849e+002, 9.082000e+003
2.544670e+002, 9.086244e+003
2.549491e+002, 9.090141e+003
2.554312e+002, 9.094053e+003
2.559133e+002, 9.098021e+003
2.563955e+002, 9.101220e+003
2.568776e+002, 9.103756e+003
2.573597e+002, 9.105386e+003
2.578418e+002, 9.105105e+003
2.583239e+002, 9.100431e+003
2.588061e+002, 9.099717e+003
2.592882e+002, 9.105792e+003
2.597703e+002, 9.118530e+003
2.602524e+002, 9.128822e+003
2.607345e+002, 9.136649e+003
2.612166e+002, 9.142194e+003
2.616988e+002, 9.144822e+003
2.621809e+002, 9.142290e+003
2.626630e+002, 9.143579e+003
2.631451e+002, 9.152295e+003
2.636272e+002, 9.167132e+003
2.641093e+002, 9.174288e+003
2.645915e+002, 9.170649e+003
2.650736e+002, 9.165150e+003
2.655557e+002, 9.165904e+003
2.660378e+002, 9.176060e+003
2.665199e+002, 9.181005e+003
2.670020e+002, 9.176206e+003
2.674842e+002, 9.164629e+003
2.679663e+002, 9.162324e+003
2.684484e+002, 9.172140e+003
2.689305e+002, 9.184518e+003
2.694126e+002, 9.192998e+003
2.698947e+002, 9.196991e+003
2.703769e+002, 9.199466e+003
2.708590e+002, 9.199916e+003
2.713411e+002, 9.199359e+003
2.718232e+002, 9.201181e+003
2.723053e+002, 9.205717e+003
2.727874e+002, 9.211437e+003
2.732696e+002, 9.218082e+003
2.737517e+002, 9.226058e+003
2.742338e+002, 9.231603e+003
2.747159e+002, 9.233444e+003
2.751980e+002, 9.233860e+003
2.756801e+002, 9.239405e+003
2.761623e+002, 9.251828e+003
2.766444e+002, 9.261897e+003
2.771265e+002, 9.262797e+003
2.776086e+002, 9.253494e+003
2.780907e+002, 9.251135e+003
2.785728e+002, 9.257851e+003
2.790550e+002, 9.268989e+003
2.795371e+002, 9.277223e+003
2.800192e+002, 9.282592e+003
2.805013e+002, 9.284625e+003
2.809834e+002, 9.280092e+003
2.814655e+002, 9.269321e+003
2.819477e+002, 9.267892e+003
2.824298e+002, 9.277168e+003
2.829119e+002, 9.291884e+003
2.833940e+002, 9.305771e+003
2.838761e+002, 9.318723e+003
2.843582e+002, 9.330262e+003
2.848404e+002, 9.340337e+003
2.853225e+002, 9.348721e+003
2.858046e+002, 9.354083e+003
2.862867e+002, 9.355947e+003
2.867688e+002, 9.356487e+003
2.872509e+002, 9.358301e+003
2.877331e+002, 9.361266e+003
2.882152e+002, 9.363437e+003
2.886973e+002, 9.364064e+003
2.891794e+002, 9.363656e+003
2.896615e+002, 9.363503e+003
2.901436e+002, 9.363693e+003
2.906258e+002, 9.364600e+003
2.911079e+002, 9.367047e+003
2.915900e+002, 9.370857e+003
2.920721e+002, 9.374634e+003
2.925542e+002, 9.378356e+003
2.930363e+002, 9.381759e+003
2.935185e+002, 9.383707e+003
2.940006e+002, 9.384295e+003
2.944827e+002, 9.385212e+003
2.949648e+002, 9.386950e+003
2.954469e+002, 9.389939e+003
2.959290e+002, 9.396026e+003
2.964112e+002, 9.406760e+003
2.968933e+002, 9.418487e+003
2.973754e+002, 9.424700e+003
2.978575e+002, 9.426075e+003
2.983396e+002, 9.427438e+003
2.988217e+002, 9.430376e+003
2.993039e+002, 9.435591e+003
2.997860e+002, 9.444994e+003
3.002681e+002, 9.459500e+003
3.007502e+002, 9.475994e+003
3.012323e+002, 9.492946e+003
3.017144e+002, 9.509407e+003
3.021966e+002, 9.521310e+003
3.026787e+002, 9.523058e+003
3.031608e+002, 9.520518e+003
3.036429e+002, 9.522357e+003
3.041250e+002, 9.529778e+003
3.046071e+002, 9.537557e+003
3.050893e+002, 9.539863e+003
3.055714e+002, 9.539010e+003
3.060535e+002, 9.539730e+003
3.065356e+002, 9.546943e+003
3.070177e+002, 9.555091e+003
3.074998e+002, 9.557453e+003
3.079820e+002, 9.553892e+003
3.084641e+002, 9.551443e+003
3.089462e+002, 9.557106e+003
3.094283e+002, 9.566592e+003
3.099104e+002, 9.573988e+003
3.103925e+002, 9.575259e+003
3.108747e+002, 9.575301e+003
3.113568e+002, 9.577287e+003
3.118389e+002, 9.581106e+003
3.123210e+002, 9.585440e+003
3.128031e+002, 9.589441e+003
3.132852e+002, 9.593770e+003
3.137674e+002, 9.598995e+003
3.142495e+002, 9.604468e+003
3.147316e+002, 9.611815e+003
3.152137e+002, 9.624250e+003
3.156958e+002, 9.639718e+003
3.161779e+002, 9.651397e+003
3.166601e+002, 9.654902e+003
3.171422e+002, 9.654506e+003
3.176243e+002, 9.651864e+003
3.181064e+002, 9.643973e+003
3.185885e+002, 9.640694e+003
3.190706e+002, 9.648458e+003
3.195528e+002, 9.662813e+003
3.200349e+002, 9.675214e+003
3.205170e+002, 9.681341e+003
3.209991e+002, 9.686466e+003
3.214812e+002, 9.693036e+003
3.219633e+002, 9.701964e+003
3.224455e+002, 9.709830e+003
3.229276e+002, 9.716838e+003
3.234097e+002, 9.722247e+003
3.238918e+002, 9.725163e+003
3.243739e+002, 9.722463e+003
3.248560e+002, 9.720339e+003
3.253382e+002, 9.719526e+003
3.258203e+002, 9.719840e+003
3.263024e+002, 9.724698e+003
3.267845e+002, 9.742938e+003
3.272666e+002, 9.761321e+003
3.277487e+002, 9.769272e+003
3.282309e+002, 9.754972e+003
3.287130e+002, 9.744002e+003
3.291951e+002, 9.738813e+003
3.296772e+002, 9.739127e+003
3.301593e+002, 9.742411e+003
3.306414e+002, 9.751283e+003
3.311236e+002, 9.760480e+003
3.316057e+002, 9.766868e+003
3.320878e+002, 9.766833e+003
3.325699e+002, 9.770348e+003
3.330520e+002, 9.779260e+003
3.335341e+002, 9.791419e+003
3.340163e+002, 9.800746e+003
3.344984e+002, 9.805271e+003
3.349805e+002, 9.809965e+003
3.354626e+002, 9.817604e+003
3.359447e+002, 9.830077e+003
3.364268e+002, 9.838122e+003
3.369090e+002, 9.840688e+003
3.373911e+002, 9.840157e+003
3.378732e+002, 9.839833e+003
3.383553e+002, 9.839449e+003
3.388374e+002, 9.840677e+003
3.393195e+002, 9.844818e+003
3.398017e+002, 9.851754e+003
3.402838e+002, 9.856924e+003
3.407659e+002, 9.860267e+003
3.412480e+002, 9.862333e+003
3.417301e+002, 9.862322e+003
3.422122e+002, 9.859823e+003
3.426944e+002, 9.861941e+003
3.431765e+002, 9.871519e+003
3.436586e+002, 9.886176e+003
3.441407e+002, 9.898042e+003
3.446228e+002, 9.906942e+003
3.451049e+002, 9.914058e+003
3.455871e+002, 9.918380e+003
3.460692e+002, 9.920782e+003
3.465513e+002, 9.927452e+003
3.470334e+002, 9.940071e+003
3.475155e+002, 9.955387e+003
3.479977e+002, 9.968627e+003
3.484798e+002, 9.979872e+003
3.489619e+002, 9.988907e+003
3.494440e+002, 9.994815e+003
3.499261e+002, 9.998549e+003
3.504082e+002, 1.000205e+004
3.508904e+002, 1.000537e+004
3.513725e+002, 1.000898e+004
3.518546e+002, 1.001291e+004
3.523367e+002, 1.001748e+004
3.528188e+002, 1.002365e+004
3.533009e+002, 1.003467e+004
3.537831e+002, 1.004596e+004
3.542652e+002, 1.005001e+004
3.547473e+002, 1.004725e+004
3.552294e+002, 1.004682e+004
3.557115e+002, 1.005971e+004
3.561936e+002, 1.007764e+004
3.566758e+002, 1.008938e+004
3.571579e+002, 1.008778e+004
3.576400e+002, 1.008423e+004
3.581221e+002, 1.008728e+004
3.586042e+002, 1.009539e+004
3.590863e+002, 1.010294e+004
3.595685e+002, 1.010594e+004
3.600506e+002, 1.010814e+004
3.605327e+002, 1.011273e+004
3.610148e+002, 1.012148e+004
3.614969e+002, 1.012943e+004
3.619790e+002, 1.013384e+004
3.624612e+002, 1.013617e+004
3.629433e+002, 1.013895e+004
3.634254e+002, 1.014140e+004
3.639075e+002, 1.014568e+004
3.643896e+002, 1.015392e+004
3.648717e+002, 1.016704e+004
3.653539e+002, 1.017699e+004
3.658360e+002, 1.018114e+004
3.663181e+002, 1.018170e+004
3.668002e+002, 1.018083e+004
3.672823e+002, 1.017401e+004
3.677644e+002, 1.017079e+004
3.682466e+002, 1.017513e+004
3.687287e+002, 1.018603e+004
3.692108e+002, 1.019211e+004
3.696929e+002, 1.019037e+004
3.701750e+002, 1.018652e+004
3.706571e+002, 1.018340e+004
3.711393e+002, 1.018117e+004
3.716214e+002, 1.017951e+004
3.721035e+002, 1.017821e+004
3.725856e+002, 1.017767e+004
3.730677e+002, 1.017919e+004
3.735498e+002, 1.018496e+004
3.740320e+002, 1.018878e+004
3.745141e+002, 1.018739e+004
3.749962e+002, 1.017981e+004
3.754783e+002, 1.017670e+004
3.759604e+002, 1.017983e+004
3.764425e+002, 1.018462e+004
3.769247e+002, 1.018514e+004
3.774068e+002, 1.018065e+004
3.778889e+002, 1.017665e+004
3.783710e+002, 1.017494e+004
3.788531e+002, 1.017466e+004
3.793352e+002, 1.017186e+004
3.798174e+002, 1.016628e+004
3.802995e+002, 1.016003e+004
3.807816e+002, 1.015351e+004
3.812637e+002, 1.014717e+004
3.817458e+002, 1.014566e+004
3.822279e+002, 1.015105e+004
3.827101e+002, 1.015859e+004
3.831922e+002, 1.016051e+004
3.836743e+002, 1.015740e+004
3.841564e+002, 1.015324e+004
3.846385e+002, 1.014824e+004
3.851206e+002, 1.014407e+004
3.856028e+002, 1.014541e+004
3.860849e+002, 1.015296e+004
3.865670e+002, 1.016033e+004
3.870491e+002, 1.016111e+004
3.875312e+002, 1.015745e+004
3.880133e+002, 1.015356e+004
3.884955e+002, 1.015028e+004
3.889776e+002, 1.014798e+004
3.894597e+002, 1.014799e+004
3.899418e+002, 1.014978e+004
3.904239e+002, 1.015043e+004
3.909060e+002, 1.014622e+004
3.913882e+002, 1.014107e+004
3.918703e+002, 1.013894e+004
3.923524e+002, 1.014232e+004
3.928345e+002, 1.014520e+004
3.933166e+002, 1.014229e+004
3.937987e+002, 1.013694e+004
3.942809e+002, 1.013591e+004
3.947630e+002, 1.014831e+004
3.952451e+002, 1.015950e+004
3.957272e+002, 1.016129e+004
3.962093e+002, 1.015085e+004
3.966914e+002, 1.014489e+004
3.971736e+002, 1.015072e+004
3.976557e+002, 1.016045e+004
3.981378e+002, 1.016682e+004
3.986199e+002, 1.016817e+004
3.991020e+002, 1.016684e+004
3.995841e+002, 1.016127e+004
4.000663e+002, 1.015236e+004
4.005484e+002, 1.014636e+004
4.010305e+002, 1.014408e+004
4.015126e+002, 1.014389e+004
4.019947e+002, 1.014572e+004
4.024768e+002, 1.015264e+004
4.029590e+002, 1.015438e+004
4.034411e+002, 1.014936e+004
4.039232e+002, 1.014063e+004
4.044053e+002, 1.013335e+004
4.048874e+002, 1.012800e+004
4.053695e+002, 1.012314e+004
4.058517e+002, 1.011768e+004
4.063338e+002, 1.011203e+004
4.068159e+002, 1.011106e+004
4.072980e+002, 1.011573e+004
4.077801e+002, 1.012203e+004
4.082622e+002, 1.012651e+004
4.087444e+002, 1.012918e+004
4.092265e+002, 1.013021e+004
4.097086e+002, 1.012870e+004
4.101907e+002, 1.012651e+004
4.106728e+002, 1.012740e+004
4.111549e+002, 1.013113e+004
4.116371e+002, 1.013617e+004
4.121192e+002, 1.014231e+004
4.126013e+002, 1.014881e+004
4.130834e+002, 1.015393e+004
4.135655e+002, 1.015733e+004
4.140476e+002, 1.016008e+004
4.145298e+002, 1.016497e+004
4.150119e+002, 1.016989e+004
4.154940e+002, 1.017067e+004
4.159761e+002, 1.016127e+004
4.164582e+002, 1.015035e+004
4.169403e+002, 1.014560e+004
4.174225e+002, 1.014636e+004
4.179046e+002, 1.014865e+004
4.183867e+002, 1.015176e+004
4.188688e+002, 1.015465e+004
4.193509e+002, 1.015650e+004
4.198330e+002, 1.015741e+004
4.203152e+002, 1.015700e+004
4.207973e+002, 1.015476e+004
4.212794e+002, 1.015127e+004
4.217615e+002, 1.014750e+004
4.222436e+002, 1.014230e+004
4.227257e+002, 1.013838e+004
4.232079e+002, 1.013710e+004
4.236900e+002, 1.013893e+004
4.241721e+002, 1.014045e+004
4.246542e+002, 1.013995e+004
4.251363e+002, 1.013992e+004
4.256184e+002, 1.014202e+004
4.261006e+002, 1.014426e+004
4.265827e+002, 1.015181e+004
4.270648e+002, 1.016924e+004
4.275469e+002, 1.019191e+004
4.280290e+002, 1.020264e+004
4.285111e+002, 1.019651e+004
4.289933e+002, 1.018756e+004
4.294754e+002, 1.018100e+004
4.299575e+002, 1.017652e+004
4.304396e+002, 1.017603e+004
4.309217e+002, 1.018032e+004
4.314038e+002, 1.018654e+004
4.318860e+002, 1.019188e+004
4.323681e+002, 1.019644e+004
4.328502e+002, 1.019823e+004
4.333323e+002, 1.019625e+004
4.338144e+002, 1.019172e+004
4.342965e+002, 1.018717e+004
4.347787e+002, 1.018278e+004
4.352608e+002, 1.017972e+004
4.357429e+002, 1.018095e+004
4.362250e+002, 1.018427e+004
4.367071e+002, 1.018300e+004
4.371892e+002, 1.017538e+004
4.376714e+002, 1.016790e+004
4.381535e+002, 1.016729e+004
4.386356e+002, 1.017214e+004
4.391177e+002, 1.017931e+004
4.395998e+002, 1.019229e+004
4.400819e+002, 1.020343e+004
4.405641e+002, 1.020294e+004
4.410462e+002, 1.019202e+004
4.415283e+002, 1.018460e+004
4.420104e+002, 1.019172e+004
4.424925e+002, 1.020356e+004
4.429746e+002, 1.021166e+004
4.434568e+002, 1.021210e+004
4.439389e+002, 1.021240e+004
4.444210e+002, 1.021441e+004
4.449031e+002, 1.021781e+004
4.453852e+002, 1.022206e+004
4.458673e+002, 1.022945e+004
4.463495e+002, 1.023541e+004
4.468316e+002, 1.023841e+004
4.473137e+002, 1.023813e+004
4.477958e+002, 1.023751e+004
4.482779e+002, 1.023504e+004
4.487600e+002, 1.023377e+004
4.492422e+002, 1.023640e+004
4.497243e+002, 1.024615e+004
4.502064e+002, 1.025313e+004
4.506885e+002, 1.025558e+004
4.511706e+002, 1.025536e+004
4.516527e+002, 1.025776e+004
4.521349e+002, 1.026360e+004
4.526170e+002, 1.026893e+004
4.530991e+002, 1.027104e+004
4.535812e+002, 1.027012e+004
4.540633e+002, 1.027274e+004
4.545454e+002, 1.027925e+004
4.550276e+002, 1.028704e+004
4.555097e+002, 1.029315e+004
4.559918e+002, 1.029790e+004
4.564739e+002, 1.030364e+004
4.569560e+002, 1.031211e+004
4.574381e+002, 1.032006e+004
4.579203e+002, 1.032084e+004
4.584024e+002, 1.031588e+004
4.588845e+002, 1.031180e+004
4.593666e+002, 1.031332e+004
4.598488e+002, 1.031769e+004
4.603309e+002, 1.032213e+004
4.608130e+002, 1.032650e+004
4.612951e+002, 1.032975e+004
4.617772e+002, 1.033108e+004
4.622593e+002, 1.033089e+004
4.627415e+002, 1.032954e+004
4.632236e+002, 1.032468e+004
4.637057e+002, 1.032136e+004
4.641878e+002, 1.032242e+004
4.646699e+002, 1.032690e+004
4.651520e+002, 1.033137e+004
4.656342e+002, 1.033508e+004
4.661163e+002, 1.033849e+004
4.665984e+002, 1.034172e+004
4.670805e+002, 1.034451e+004
4.675626e+002, 1.034806e+004
4.680447e+002, 1.035305e+004
4.685269e+002, 1.035843e+004
4.690090e+002, 1.036317e+004
4.694911e+002, 1.036688e+004
4.699732e+002, 1.037053e+004
4.704553e+002, 1.037392e+004
4.709374e+002, 1.037726e+004
4.714196e+002, 1.038239e+004
4.719017e+002, 1.039030e+004
4.723838e+002, 1.039637e+004
4.728659e+002, 1.039642e+004
4.733480e+002, 1.039037e+004
4.738301e+002, 1.038859e+004
4.743123e+002, 1.039144e+004
4.747944e+002, 1.039737e+004
4.752765e+002, 1.040629e+004
4.757586e+002, 1.041730e+004
4.762407e+002, 1.042564e+004
4.767228e+002, 1.042956e+004
4.772050e+002, 1.043057e+004
4.776871e+002, 1.042993e+004
4.781692e+002, 1.042811e+004
4.786513e+002, 1.042712e+004
4.791334e+002, 1.042967e+004
4.796155e+002, 1.043319e+004
4.800977e+002, 1.043468e+004
4.805798e+002, 1.043364e+004
4.810619e+002, 1.043289e+004
4.815440e+002, 1.043386e+004
4.820261e+002, 1.043628e+004
4.825082e+002, 1.043982e+004
4.829904e+002, 1.044757e+004
4.834725e+002, 1.045311e+004
4.839546e+002, 1.045264e+004
4.844367e+002, 1.044770e+004
4.849188e+002, 1.044522e+004
4.854009e+002, 1.044490e+004
4.858831e+002, 1.044818e+004
4.863652e+002, 1.045622e+004
4.868473e+002, 1.047060e+004
4.873294e+002, 1.048300e+004
4.878115e+002, 1.049316e+004
4.882936e+002, 1.050118e+004
4.887758e+002, 1.050688e+004
4.892579e+002, 1.050929e+004
4.897400e+002, 1.051200e+004
4.902221e+002, 1.051554e+004
4.907042e+002, 1.051969e+004
4.911863e+002, 1.052494e+004
4.916685e+002, 1.053181e+004
4.921506e+002, 1.053532e+004
4.926327e+002, 1.052984e+004
4.931148e+002, 1.051812e+004
4.935969e+002, 1.051402e+004
4.940790e+002, 1.051839e+004
4.945612e+002, 1.052472e+004
4.950433e+002, 1.052654e+004
4.955254e+002, 1.052569e+004
4.960075e+002, 1.052613e+004
4.964896e+002, 1.052940e+004
4.969717e+002, 1.053390e+004
4.974539e+002, 1.053790e+004
4.979360e+002, 1.054189e+004
4.984181e+002, 1.054693e+004
4.989002e+002, 1.055346e+004
4.993823e+002, 1.056116e+004
4.998644e+002, 1.057012e+004
5.003466e+002, 1.058039e+004
5.008287e+002, 1.059001e+004
5.013108e+002, 1.059766e+004
5.017929e+002, 1.060451e+004
5.022750e+002, 1.061143e+004
5.027571e+002, 1.062093e+004
5.032393e+002, 1.062700e+004
5.037214e+002, 1.062632e+004
5.042035e+002, 1.062260e+004
5.046856e+002, 1.062425e+004
5.051677e+002, 1.063490e+004
5.056498e+002, 1.064420e+004
5.061320e+002, 1.064860e+004
5.066141e+002, 1.064845e+004
5.070962e+002, 1.065077e+004
5.075783e+002, 1.065632e+004
5.080604e+002, 1.066238e+004
5.085425e+002, 1.066693e+004
5.090247e+002, 1.067017e+004
5.095068e+002, 1.067340e+004
5.099889e+002, 1.067727e+004
5.104710e+002, 1.068012e+004
5.109531e+002, 1.067646e+004
5.114352e+002, 1.066899e+004
5.119174e+002, 1.066751e+004
5.123995e+002, 1.068211e+004
5.128816e+002, 1.070086e+004
5.133637e+002, 1.070918e+004
5.138458e+002, 1.070850e+004
5.143279e+002, 1.070788e+004
5.148101e+002, 1.071136e+004
5.152922e+002, 1.071763e+004
5.157743e+002, 1.072626e+004
5.162564e+002, 1.073812e+004
5.167385e+002, 1.074840e+004
5.172206e+002, 1.075703e+004
5.177028e+002, 1.076238e+004
5.181849e+002, 1.076253e+004
5.186670e+002, 1.074833e+004
5.191491e+002, 1.073929e+004
5.196312e+002, 1.074129e+004
5.201133e+002, 1.075137e+004
5.205955e+002, 1.075663e+004
5.210776e+002, 1.075479e+004
5.215597e+002, 1.075242e+004
5.220418e+002, 1.075218e+004
5.225239e+002, 1.075435e+004
5.230060e+002, 1.075845e+004
5.234882e+002, 1.076542e+004
5.239703e+002, 1.077244e+004
5.244524e+002, 1.077574e+004
5.249345e+002, 1.077569e+004
5.254166e+002, 1.077800e+004
5.258987e+002, 1.078479e+004
5.263809e+002, 1.079216e+004
5.268630e+002, 1.079125e+004
5.273451e+002, 1.078456e+004
5.278272e+002, 1.078275e+004
5.283093e+002, 1.079454e+004
5.287914e+002, 1.081169e+004
5.292736e+002, 1.082582e+004
5.297557e+002, 1.083680e+004
5.302378e+002, 1.084594e+004
5.307199e+002, 1.085245e+004
5.312020e+002, 1.085834e+004
5.316841e+002, 1.086590e+004
5.321663e+002, 1.087850e+004
5.326484e+002, 1.088622e+004
5.331305e+002, 1.088200e+004
5.336126e+002, 1.087298e+004
5.340947e+002, 1.086943e+004
5.345768e+002, 1.087925e+004
5.350590e+002, 1.088614e+004
5.355411e+002, 1.088604e+004
5.360232e+002, 1.088070e+004
5.365053e+002, 1.088063e+004
5.369874e+002, 1.088867e+004
5.374695e+002, 1.089617e+004
5.379517e+002, 1.089752e+004
5.384338e+002, 1.089226e+004
5.389159e+002, 1.089279e+004
5.393980e+002, 1.090015e+004
5.398801e+002, 1.090914e+004
5.403622e+002, 1.091350e+004
5.408444e+002, 1.091414e+004
5.413265e+002, 1.091596e+004
5.418086e+002, 1.092069e+004
5.422907e+002, 1.092547e+004
5.427728e+002, 1.092469e+004
5.432549e+002, 1.092059e+004
5.437371e+002, 1.091970e+004
5.442192e+002, 1.092681e+004
5.447013e+002, 1.093728e+004
5.451834e+002, 1.094971e+004
5.456655e+002, 1.096371e+004
5.461476e+002, 1.097350e+004
5.466298e+002, 1.097521e+004
5.471119e+002, 1.097309e+004
5.475940e+002, 1.096917e+004
5.480761e+002, 1.095992e+004
5.485582e+002, 1.095717e+004
5.490403e+002, 1.096641e+004
5.495225e+002, 1.098036e+004
5.500046e+002, 1.099042e+004
5.504867e+002, 1.099552e+004
5.509688e+002, 1.099856e+004
5.514509e+002, 1.099868e+004
5.519330e+002, 1.099736e+004
5.524152e+002, 1.100049e+004
5.528973e+002, 1.100849e+004
5.533794e+002, 1.101762e+004
5.538615e+002, 1.102642e+004
5.543436e+002, 1.103468e+004
5.548257e+002, 1.104154e+004
5.553079e+002, 1.104682e+004
5.557900e+002, 1.105153e+004
5.562721e+002, 1.105718e+004
5.567542e+002, 1.106273e+004
5.572363e+002, 1.106585e+004
5.577184e+002, 1.106522e+004
5.582006e+002, 1.106469e+004
5.586827e+002, 1.106822e+004
5.591648e+002, 1.107386e+004
5.596469e+002, 1.107832e+004
5.601290e+002, 1.108032e+004
5.606111e+002, 1.108108e+004
5.610933e+002, 1.108000e+004
5.615754e+002, 1.107764e+004
5.620575e+002, 1.107738e+004
5.625396e+002, 1.108089e+004
5.630217e+002, 1.108555e+004
5.635038e+002, 1.109075e+004
5.639860e+002, 1.109701e+004
5.644681e+002, 1.110118e+004
5.649502e+002, 1.110234e+004
5.654323e+002, 1.110278e+004
5.659144e+002, 1.110444e+004
5.663965e+002, 1.110731e+004
5.668787e+002, 1.111179e+004
5.673608e+002, 1.111819e+004
5.678429e+002, 1.112583e+004
5.683250e+002, 1.113362e+004
5.688071e+002, 1.114158e+004
5.692892e+002, 1.114937e+004
5.697714e+002, 1.115746e+004
5.702535e+002, 1.116485e+004
5.707356e+002, 1.116934e+004
5.712177e+002, 1.117142e+004
5.716998e+002, 1.117377e+004
5.721819e+002, 1.117870e+004
5.726641e+002, 1.118401e+004
5.731462e+002, 1.118736e+004
5.736283e+002, 1.118768e+004
5.741104e+002, 1.118996e+004
5.745925e+002, 1.119750e+004
5.750746e+002, 1.120652e+004
5.755568e+002, 1.121372e+004
5.760389e+002, 1.121872e+004
5.765210e+002, 1.122154e+004
5.770031e+002, 1.122067e+004
5.774852e+002, 1.121832e+004
5.779673e+002, 1.122000e+004
5.784495e+002, 1.122837e+004
5.789316e+002, 1.123241e+004
5.794137e+002, 1.122677e+004
5.798958e+002, 1.121471e+004
5.803779e+002, 1.121050e+004
5.808600e+002, 1.121456e+004
5.813422e+002, 1.121942e+004
5.818243e+002, 1.121927e+004
5.823064e+002, 1.121635e+004
5.827885e+002, 1.121512e+004
5.832706e+002, 1.121583e+004
5.837527e+002, 1.121921e+004
5.842349e+002, 1.123079e+004
5.847170e+002, 1.124337e+004
5.851991e+002, 1.124695e+004
5.856812e+002, 1.123148e+004
5.861633e+002, 1.121925e+004
5.866454e+002, 1.122190e+004
5.871276e+002, 1.123365e+004
5.876097e+002, 1.124402e+004
5.880918e+002, 1.125488e+004
5.885739e+002, 1.125969e+004
5.890560e+002, 1.125463e+004
5.895381e+002, 1.124143e+004
5.900203e+002, 1.123253e+004
5.905024e+002, 1.122921e+004
5.909845e+002, 1.122789e+004
5.914666e+002, 1.122724e+004
5.919487e+002, 1.122741e+004
5.924308e+002, 1.122820e+004
5.929130e+002, 1.123001e+004
5.933951e+002, 1.123133e+004
5.938772e+002, 1.123007e+004
5.943593e+002, 1.122713e+004
5.948414e+002, 1.122461e+004
5.953235e+002, 1.122226e+004
5.958057e+002, 1.122285e+004
5.962878e+002, 1.123263e+004
5.967699e+002, 1.124699e+004
5.972520e+002, 1.125721e+004
5.977341e+002, 1.125626e+004
5.982162e+002, 1.125372e+004
5.986984e+002, 1.125340e+004
5.991805e+002, 1.125504e+004
5.996626e+002, 1.125774e+004
6.001447e+002, 1.126223e+004
6.006268e+002, 1.126663e+004
6.011089e+002, 1.127004e+004
6.015911e+002, 1.127228e+004
6.020732e+002, 1.127513e+004
6.025553e+002, 1.127893e+004
6.030374e+002, 1.128280e+004
6.035195e+002, 1.128638e+004
6.040016e+002, 1.128976e+004
6.044838e+002, 1.129188e+004
6.049659e+002, 1.129263e+004
6.054480e+002, 1.129243e+004
6.059301e+002, 1.129113e+004
6.064122e+002, 1.128917e+004
6.068943e+002, 1.128813e+004
6.073765e+002, 1.128827e+004
6.078586e+002, 1.128985e+004
6.083407e+002, 1.129424e+004
6.088228e+002, 1.130031e+004
6.093049e+002, 1.130517e+004
6.097870e+002, 1.130818e+004
6.102692e+002, 1.130897e+004
6.107513e+002, 1.130435e+004
6.112334e+002, 1.129534e+004
6.117155e+002, 1.129337e+004
6.121976e+002, 1.130951e+004
6.126797e+002, 1.132546e+004
6.131619e+002, 1.133269e+004
6.136440e+002, 1.132925e+004
6.141261e+002, 1.132658e+004
6.146082e+002, 1.132499e+004
6.150903e+002, 1.132378e+004
6.155724e+002, 1.132142e+004
6.160546e+002, 1.131774e+004
6.165367e+002, 1.131871e+004
6.170188e+002, 1.132613e+004
6.175009e+002, 1.133540e+004
6.179830e+002, 1.133934e+004
6.184651e+002, 1.133931e+004
6.189473e+002, 1.134014e+004
6.194294e+002, 1.134483e+004
6.199115e+002, 1.134950e+004
6.203936e+002, 1.134949e+004
6.208757e+002, 1.134619e+004
6.213578e+002, 1.134389e+004
6.218400e+002, 1.134381e+004
6.223221e+002, 1.134580e+004
6.228042e+002, 1.135112e+004
6.232863e+002, 1.135987e+004
6.237684e+002, 1.136583e+004
6.242505e+002, 1.136639e+004
6.247327e+002, 1.136610e+004
6.252148e+002, 1.136686e+004
6.256969e+002, 1.136853e+004
6.261790e+002, 1.137254e+004
6.266611e+002, 1.137976e+004
6.271432e+002, 1.138749e+004
6.276254e+002, 1.139255e+004
6.281075e+002, 1.139511e+004
6.285896e+002, 1.139781e+004
6.290717e+002, 1.140082e+004
6.295538e+002, 1.140461e+004
6.300359e+002, 1.141125e+004
6.305181e+002, 1.141911e+004
6.310002e+002, 1.142424e+004
6.314823e+002, 1.142301e+004
6.319644e+002, 1.142039e+004
6.324465e+002, 1.141855e+004
6.329286e+002, 1.141796e+004
6.334108e+002, 1.142011e+004
6.338929e+002, 1.142996e+004
6.343750e+002, 1.143838e+004
6.348571e+002, 1.144033e+004
6.353392e+002, 1.143533e+004
6.358214e+002, 1.143467e+004
6.363035e+002, 1.144140e+004
6.367856e+002, 1.144841e+004
6.372677e+002, 1.145178e+004
6.377498e+002, 1.145122e+004
6.382319e+002, 1.144954e+004
6.387141e+002, 1.144636e+004
6.391962e+002, 1.144408e+004
6.396783e+002, 1.144621e+004
6.401604e+002, 1.145161e+004
6.406425e+002, 1.145549e+004
6.411246e+002, 1.145664e+004
6.416068e+002, 1.145744e+004
6.420889e+002, 1.145901e+004
6.425710e+002, 1.146215e+004
6.430531e+002, 1.146817e+004
6.435352e+002, 1.148178e+004
6.440173e+002, 1.149389e+004
6.444995e+002, 1.149888e+004
6.449816e+002, 1.149923e+004
6.454637e+002, 1.150250e+004
6.459458e+002, 1.151404e+004
6.464279e+002, 1.152358e+004
6.469100e+002, 1.152734e+004
6.473922e+002, 1.152601e+004
6.478743e+002, 1.152918e+004
6.483564e+002, 1.153834e+004
6.488385e+002, 1.154746e+004
6.493206e+002, 1.155196e+004
6.498027e+002, 1.155271e+004
6.502849e+002, 1.155738e+004
6.507670e+002, 1.156614e+004
6.512491e+002, 1.157604e+004
6.517312e+002, 1.158681e+004
6.522133e+002, 1.159608e+004
6.526954e+002, 1.159924e+004
6.531776e+002, 1.159418e+004
6.536597e+002, 1.158847e+004
6.541418e+002, 1.158555e+004
6.546239e+002, 1.158501e+004
6.551060e+002, 1.158633e+004
6.555881e+002, 1.159094e+004
6.560703e+002, 1.159560e+004
6.565524e+002, 1.160083e+004
6.570345e+002, 1.160557e+004
6.575166e+002, 1.160756e+004
6.579987e+002, 1.160555e+004
6.584808e+002, 1.160393e+004
6.589630e+002, 1.160357e+004
6.594451e+002, 1.160434e+004
6.599272e+002, 1.160606e+004
6.604093e+002, 1.160873e+004
6.608914e+002, 1.161141e+004
6.613735e+002, 1.161381e+004
6.618557e+002, 1.161590e+004
6.623378e+002, 1.161703e+004
6.628199e+002, 1.161749e+004
6.633020e+002, 1.161946e+004
6.637841e+002, 1.162634e+004
6.642662e+002, 1.163406e+004
6.647484e+002, 1.163935e+004
6.652305e+002, 1.164156e+004
6.657126e+002, 1.164308e+004
6.661947e+002, 1.164149e+004
6.666768e+002, 1.164154e+004
6.671589e+002, 1.164675e+004
6.676411e+002, 1.166077e+004
6.681232e+002, 1.167172e+004
6.686053e+002, 1.167882e+004
6.690874e+002, 1.168358e+004
6.695695e+002, 1.168757e+004
6.700516e+002, 1.169071e+004
6.705338e+002, 1.169365e+004
6.710159e+002, 1.169614e+004
6.714980e+002, 1.169913e+004
6.719801e+002, 1.170497e+004
6.724622e+002, 1.171256e+004
6.729443e+002, 1.171877e+004
6.734265e+002, 1.172300e+004
6.739086e+002, 1.172494e+004
6.743907e+002, 1.172235e+004
6.748728e+002, 1.171719e+004
6.753549e+002, 1.171536e+004
6.758370e+002, 1.172188e+004
6.763192e+002, 1.172899e+004
6.768013e+002, 1.173391e+004
6.772834e+002, 1.173693e+004
6.777655e+002, 1.174035e+004
6.782476e+002, 1.174338e+004
6.787297e+002, 1.174854e+004
6.792119e+002, 1.175876e+004
6.796940e+002, 1.177351e+004
6.801761e+002, 1.178064e+004
6.806582e+002, 1.177937e+004
6.811403e+002, 1.177782e+004
6.816224e+002, 1.178465e+004
6.821046e+002, 1.179553e+004
6.825867e+002, 1.180118e+004
6.830688e+002, 1.179976e+004
6.835509e+002, 1.179930e+004
6.840330e+002, 1.180665e+004
6.845151e+002, 1.181711e+004
6.849973e+002, 1.182594e+004
6.854794e+002, 1.183129e+004
6.859615e+002, 1.183652e+004
6.864436e+002, 1.184281e+004
6.869257e+002, 1.184904e+004
6.874078e+002, 1.185346e+004
6.878900e+002, 1.185450e+004
6.883721e+002, 1.185907e+004
6.888542e+002, 1.186995e+004
6.893363e+002, 1.188277e+004
6.898184e+002, 1.188716e+004
6.903005e+002, 1.188384e+004
6.907827e+002, 1.188126e+004
6.912648e+002, 1.188277e+004
6.917469e+002, 1.188665e+004
6.922290e+002, 1.189076e+004
6.927111e+002, 1.189517e+004
6.931932e+002, 1.190002e+004
6.936754e+002, 1.190369e+004
6.941575e+002, 1.190917e+004
6.946396e+002, 1.191914e+004
6.951217e+002, 1.193311e+004
6.956038e+002, 1.194577e+004
6.960859e+002, 1.195643e+004
6.965681e+002, 1.196507e+004
6.970502e+002, 1.197195e+004
6.975323e+002, 1.197716e+004
6.980144e+002, 1.197780e+004
6.984965e+002, 1.197275e+004
6.989786e+002, 1.196749e+004
6.994608e+002, 1.196610e+004
6.999429e+002, 1.196810e+004
7.004250e+002, 1.197167e+004
7.009071e+002, 1.197693e+004
7.013892e+002, 1.198142e+004
7.018713e+002, 1.198100e+004
7.023535e+002, 1.197948e+004
7.028356e+002, 1.198219e+004
7.033177e+002, 1.199185e+004
7.037998e+002, 1.200055e+004
7.042819e+002, 1.200276e+004
7.047640e+002, 1.200368e+004
7.052462e+002, 1.200910e+004
7.057283e+002, 1.202357e+004
7.062104e+002, 1.203494e+004
7.066925e+002, 1.204204e+004
7.071746e+002, 1.204635e+004
7.076567e+002, 1.205056e+004
7.081389e+002, 1.205476e+004
7.086210e+002, 1.205541e+004
7.091031e+002, 1.205002e+004
7.095852e+002, 1.204374e+004
7.100673e+002, 1.204641e+004
7.105494e+002, 1.205555e+004
7.110316e+002, 1.206366e+004
7.115137e+002, 1.206395e+004
7.119958e+002, 1.206510e+004
7.124779e+002, 1.207461e+004
7.129600e+002, 1.208993e+004
7.134421e+002, 1.210301e+004
7.139243e+002, 1.211259e+004
7.144064e+002, 1.211869e+004
7.148885e+002, 1.211966e+004
7.153706e+002, 1.211651e+004
7.158527e+002, 1.211743e+004
7.163348e+002, 1.212345e+004
7.168170e+002, 1.213035e+004
7.172991e+002, 1.213660e+004
7.177812e+002, 1.214203e+004
7.182633e+002, 1.214458e+004
7.187454e+002, 1.214438e+004
7.192275e+002, 1.214572e+004
7.197097e+002, 1.215337e+004
7.201918e+002, 1.216337e+004
7.206739e+002, 1.217111e+004
7.211560e+002, 1.217618e+004
7.216381e+002, 1.218077e+004
7.221202e+002, 1.218629e+004
7.226024e+002, 1.219144e+004
7.230845e+002, 1.219483e+004
7.235666e+002, 1.219476e+004
7.240487e+002, 1.219861e+004
7.245308e+002, 1.220850e+004
7.250129e+002, 1.221972e+004
7.254951e+002, 1.222869e+004
7.259772e+002, 1.223544e+004
7.264593e+002, 1.223961e+004
7.269414e+002, 1.224042e+004
7.274235e+002, 1.224193e+004
7.279056e+002, 1.225069e+004
7.283878e+002, 1.226329e+004
7.288699e+002, 1.227195e+004
7.293520e+002, 1.227354e+004
7.298341e+002, 1.227479e+004
7.303162e+002, 1.228135e+004
7.307983e+002, 1.228981e+004
7.312805e+002, 1.229594e+004
7.317626e+002, 1.229417e+004
7.322447e+002, 1.229624e+004
7.327268e+002, 1.230591e+004
7.332089e+002, 1.231854e+004
7.336910e+002, 1.232616e+004
7.341732e+002, 1.232751e+004
7.346553e+002, 1.232970e+004
7.351374e+002, 1.233399e+004
7.356195e+002, 1.234026e+004
7.361016e+002, 1.234883e+004
7.365837e+002, 1.235930e+004
7.370659e+002, 1.237014e+004
7.375480e+002, 1.238235e+004
7.380301e+002, 1.239284e+004
7.385122e+002, 1.239653e+004
7.389943e+002, 1.239606e+004
7.394764e+002, 1.239828e+004
7.399586e+002, 1.240864e+004
7.404407e+002, 1.241866e+004
7.409228e+002, 1.242474e+004
7.414049e+002, 1.242792e+004
7.418870e+002, 1.243315e+004
7.423691e+002, 1.244141e+004
7.428513e+002, 1.244900e+004
7.433334e+002, 1.245469e+004
7.438155e+002, 1.245872e+004
7.442976e+002, 1.246130e+004
7.447797e+002, 1.246263e+004
7.452618e+002, 1.246471e+004
7.457440e+002, 1.247111e+004
7.462261e+002, 1.247763e+004
7.467082e+002, 1.247821e+004
7.471903e+002, 1.247341e+004
7.476724e+002, 1.246969e+004
7.481545e+002, 1.246781e+004
7.486367e+002, 1.246954e+004
7.491188e+002, 1.247797e+004
7.496009e+002, 1.249437e+004
7.500830e+002, 1.250315e+004
7.505651e+002, 1.250038e+004
7.510472e+002, 1.249712e+004
7.515294e+002, 1.250098e+004
7.520115e+002, 1.251160e+004
7.524936e+002, 1.251707e+004
7.529757e+002, 1.251718e+004
7.534578e+002, 1.251604e+004
7.539399e+002, 1.251672e+004
7.544221e+002, 1.251869e+004
7.549042e+002, 1.252129e+004
7.553863e+002, 1.252459e+004
7.558684e+002, 1.252838e+004
7.563505e+002, 1.253357e+004
7.568326e+002, 1.253878e+004
7.573148e+002, 1.254296e+004
7.577969e+002, 1.254574e+004
7.582790e+002, 1.254823e+004
7.587611e+002, 1.254964e+004
7.592432e+002, 1.255186e+004
7.597253e+002, 1.255681e+004
7.602075e+002, 1.256455e+004
7.606896e+002, 1.257149e+004
7.611717e+002, 1.257716e+004
7.616538e+002, 1.258275e+004
7.621359e+002, 1.259137e+004
7.626180e+002, 1.260039e+004
7.631002e+002, 1.260386e+004
7.635823e+002, 1.259832e+004
7.640644e+002, 1.259498e+004
7.645465e+002, 1.260297e+004
7.650286e+002, 1.261502e+004
7.655107e+002, 1.262326e+004
7.659929e+002, 1.262356e+004
7.664750e+002, 1.262500e+004
7.669571e+002, 1.262800e+004
7.674392e+002, 1.263207e+004
7.679213e+002, 1.263703e+004
7.684034e+002, 1.264298e+004
7.688856e+002, 1.264659e+004
7.693677e+002, 1.264579e+004
7.698498e+002, 1.264723e+004
7.703319e+002, 1.266343e+004
7.708140e+002, 1.268774e+004
7.712961e+002, 1.270626e+004
7.717783e+002, 1.271304e+004
7.722604e+002, 1.271595e+004
7.727425e+002, 1.271602e+004
7.732246e+002, 1.271563e+004
7.737067e+002, 1.271860e+004
7.741888e+002, 1.272838e+004
7.746710e+002, 1.273709e+004
7.751531e+002, 1.274403e+004
7.756352e+002, 1.274980e+004
7.761173e+002, 1.275533e+004
7.765994e+002, 1.276062e+004
7.770815e+002, 1.276607e+004
7.775637e+002, 1.277166e+004
7.780458e+002, 1.277780e+004
7.785279e+002, 1.278544e+004
7.790100e+002, 1.279400e+004
7.794921e+002, 1.280225e+004
7.799742e+002, 1.281113e+004
7.804564e+002, 1.281762e+004
7.809385e+002, 1.281712e+004
7.814206e+002, 1.281358e+004
7.819027e+002, 1.281612e+004
7.823848e+002, 1.283094e+004
7.828669e+002, 1.284187e+004
7.833491e+002, 1.284575e+004
7.838312e+002, 1.284474e+004
7.843133e+002, 1.284295e+004
7.847954e+002, 1.284052e+004
7.852775e+002, 1.284004e+004
7.857596e+002, 1.284276e+004
7.862418e+002, 1.284757e+004
7.867239e+002, 1.285348e+004
7.872060e+002, 1.286022e+004
7.876881e+002, 1.286726e+004
7.881702e+002, 1.287498e+004
7.886523e+002, 1.288210e+004
7.891345e+002, 1.288743e+004
7.896166e+002, 1.289167e+004
7.900987e+002, 1.289712e+004
7.905808e+002, 1.290404e+004
7.910629e+002, 1.291144e+004
7.915450e+002, 1.291918e+004
7.920272e+002, 1.292705e+004
7.925093e+002, 1.293406e+004
7.929914e+002, 1.294033e+004
7.934735e+002, 1.294683e+004
7.939556e+002, 1.295517e+004
7.944377e+002, 1.296273e+004
7.949199e+002, 1.296504e+004
7.954020e+002, 1.296408e+004
7.958841e+002, 1.296494e+004
7.963662e+002, 1.296907e+004
7.968483e+002, 1.297597e+004
7.973304e+002, 1.298817e+004
7.978126e+002, 1.300318e+004
7.982947e+002, 1.301303e+004
7.987768e+002, 1.301674e+004
7.992589e+002, 1.301791e+004
7.997410e+002, 1.301665e+004
8.002231e+002, 1.301447e+004
8.007053e+002, 1.301482e+004
8.011874e+002, 1.301766e+004
8.016695e+002, 1.302275e+004
8.021516e+002, 1.302981e+004
8.026337e+002, 1.303924e+004
8.031158e+002, 1.305417e+004
8.035980e+002, 1.307180e+004
8.040801e+002, 1.308506e+004
8.045622e+002, 1.308589e+004
8.050443e+002, 1.308859e+004
8.055264e+002, 1.309825e+004
8.060085e+002, 1.311214e+004
8.064907e+002, 1.312167e+004
8.069728e+002, 1.312643e+004
8.074549e+002, 1.312768e+004
8.079370e+002, 1.312272e+004
8.084191e+002, 1.311784e+004
8.089012e+002, 1.313021e+004
8.093834e+002, 1.315501e+004
8.098655e+002, 1.317503e+004
8.103476e+002, 1.317613e+004
8.108297e+002, 1.317530e+004
8.113118e+002, 1.318417e+004
8.117939e+002, 1.319958e+004
8.122761e+002, 1.321174e+004
8.127582e+002, 1.321819e+004
8.132403e+002, 1.322281e+004
8.137224e+002, 1.322530e+004
8.142045e+002, 1.322698e+004
8.146866e+002, 1.323171e+004
8.151688e+002, 1.323942e+004
8.156509e+002, 1.324880e+004
8.161330e+002, 1.325943e+004
8.166151e+002, 1.327131e+004
8.170972e+002, 1.328529e+004
8.175793e+002, 1.330041e+004
8.180615e+002, 1.331465e+004
8.185436e+002, 1.332763e+004
8.190257e+002, 1.333864e+004
8.195078e+002, 1.334672e+004
8.199899e+002, 1.335235e+004
8.204720e+002, 1.335704e+004
8.209542e+002, 1.336025e+004
8.214363e+002, 1.336331e+004
8.219184e+002, 1.336588e+004
8.224005e+002, 1.336918e+004
8.228826e+002, 1.337714e+004
8.233647e+002, 1.338899e+004
8.238469e+002, 1.339969e+004
8.243290e+002, 1.340811e+004
8.248111e+002, 1.341397e+004
8.252932e+002, 1.341531e+004
8.257753e+002, 1.341436e+004
8.262574e+002, 1.341538e+004
8.267396e+002, 1.341810e+004
8.272217e+002, 1.342527e+004
8.277038e+002, 1.343940e+004
8.281859e+002, 1.345701e+004
8.286681e+002, 1.347182e+004
8.291502e+002, 1.348325e+004
8.296323e+002, 1.349533e+004
8.301144e+002, 1.350991e+004
8.305966e+002, 1.352316e+004
8.310787e+002, 1.352653e+004
8.315608e+002, 1.352432e+004
8.320429e+002, 1.352738e+004
8.325250e+002, 1.354304e+004
8.330071e+002, 1.355876e+004
8.334893e+002, 1.356799e+004
8.339714e+002, 1.357341e+004
8.344535e+002, 1.357947e+004
8.349356e+002, 1.358659e+004
8.354177e+002, 1.359375e+004
8.358998e+002, 1.359992e+004
8.363820e+002, 1.360728e+004
8.368641e+002, 1.362003e+004
8.373462e+002, 1.363755e+004
8.378283e+002, 1.365495e+004
8.383104e+002, 1.367107e+004
8.387925e+002, 1.368652e+004
8.392747e+002, 1.370164e+004
8.397568e+002, 1.371660e+004
8.402389e+002, 1.373204e+004
8.407210e+002, 1.375067e+004
8.412031e+002, 1.376499e+004
8.416852e+002, 1.376890e+004
8.421674e+002, 1.377124e+004
8.426495e+002, 1.378098e+004
8.431316e+002, 1.379994e+004
8.436137e+002, 1.381660e+004
8.440958e+002, 1.383020e+004
8.445779e+002, 1.384241e+004
8.450601e+002, 1.385428e+004
8.455422e+002, 1.386643e+004
8.460243e+002, 1.387972e+004
8.465064e+002, 1.389398e+004
8.469885e+002, 1.391168e+004
8.474706e+002, 1.393919e+004
8.479528e+002, 1.396757e+004
8.484349e+002, 1.398778e+004
8.489170e+002, 1.399371e+004
8.493991e+002, 1.400856e+004
8.498812e+002, 1.403647e+004
8.503633e+002, 1.406466e+004
8.508455e+002, 1.408150e+004
8.513276e+002, 1.408857e+004
8.518097e+002, 1.409625e+004
8.522918e+002, 1.410515e+004
8.527739e+002, 1.411516e+004
8.532560e+002, 1.412734e+004
8.537382e+002, 1.414024e+004
8.542203e+002, 1.415334e+004
8.547024e+002, 1.416694e+004
8.551845e+002, 1.417813e+004
8.556666e+002, 1.418543e+004
8.561487e+002, 1.419136e+004
8.566309e+002, 1.419648e+004
8.571130e+002, 1.420080e+004
8.575951e+002, 1.420781e+004
8.580772e+002, 1.421762e+004
8.585593e+002, 1.422908e+004
8.590414e+002, 1.424391e+004
8.595236e+002, 1.425869e+004
8.600057e+002, 1.426640e+004
8.604878e+002, 1.426797e+004
8.609699e+002, 1.427110e+004
8.614520e+002, 1.428359e+004
8.619341e+002, 1.429421e+004
8.624163e+002, 1.429666e+004
8.628984e+002, 1.429214e+004
8.633805e+002, 1.428902e+004
8.638626e+002, 1.428894e+004
8.643447e+002, 1.428411e+004
8.648268e+002, 1.426890e+004
8.653090e+002, 1.424880e+004
8.657911e+002, 1.423802e+004
8.662732e+002, 1.423490e+004
8.667553e+002, 1.423318e+004
8.672374e+002, 1.423071e+004
8.677195e+002, 1.422726e+004
8.682017e+002, 1.422434e+004
8.686838e+002, 1.422018e+004
8.691659e+002, 1.420937e+004
8.696480e+002, 1.418599e+004
8.701301e+002, 1.416704e+004
8.706122e+002, 1.415880e+004
8.710944e+002, 1.415358e+004
8.715765e+002, 1.413252e+004
8.720586e+002, 1.409796e+004
8.725407e+002, 1.406674e+004
8.730228e+002, 1.404470e+004
8.735049e+002, 1.402682e+004
8.739871e+002, 1.400964e+004
8.744692e+002, 1.399321e+004
8.749513e+002, 1.397730e+004
8.754334e+002, 1.396141e+004
8.759155e+002, 1.394717e+004
8.763976e+002, 1.393348e+004
8.768798e+002, 1.392248e+004
8.773619e+002, 1.391827e+004
8.778440e+002, 1.392145e+004
8.783261e+002, 1.391831e+004
8.788082e+002, 1.390618e+004
8.792903e+002, 1.389237e+004
8.797725e+002, 1.388321e+004
8.802546e+002, 1.387760e+004
8.807367e+002, 1.387451e+004
8.812188e+002, 1.387411e+004
8.817009e+002, 1.387333e+004
8.821830e+002, 1.387132e+004
8.826652e+002, 1.386800e+004
8.831473e+002, 1.386345e+004
8.836294e+002, 1.385763e+004
8.841115e+002, 1.385054e+004
8.845936e+002, 1.384190e+004
8.850757e+002, 1.383402e+004
8.855579e+002, 1.382818e+004
8.860400e+002, 1.382467e+004
8.865221e+002, 1.382632e+004
8.870042e+002, 1.383260e+004
8.874863e+002, 1.383466e+004
8.879684e+002, 1.382309e+004
8.884506e+002, 1.381046e+004
8.889327e+002, 1.380324e+004
8.894148e+002, 1.380154e+004
8.898969e+002, 1.380366e+004
8.903790e+002, 1.381092e+004
8.908611e+002, 1.381781e+004
8.913433e+002, 1.382221e+004
8.918254e+002, 1.382434e+004
8.923075e+002, 1.382327e+004
8.927896e+002, 1.382002e+004
8.932717e+002, 1.381956e+004
8.937538e+002, 1.382684e+004
8.942360e+002, 1.383490e+004
8.947181e+002, 1.383964e+004
8.952002e+002, 1.384180e+004
8.956823e+002, 1.384338e+004
8.961644e+002, 1.384382e+004
8.966465e+002, 1.384511e+004
8.971287e+002, 1.384791e+004
8.976108e+002, 1.385135e+004
8.980929e+002, 1.385444e+004
8.985750e+002, 1.385697e+004
8.990571e+002, 1.385716e+004
8.995392e+002, 1.385365e+004
9.000214e+002, 1.385071e+004
9.005035e+002, 1.385337e+004
9.009856e+002, 1.385788e+004
9.014677e+002, 1.385972e+004
9.019498e+002, 1.385464e+004
9.024319e+002, 1.385336e+004
9.029141e+002, 1.385794e+004
9.033962e+002, 1.386340e+004
9.038783e+002, 1.386523e+004
9.043604e+002, 1.386366e+004
9.048425e+002, 1.385988e+004
9.053246e+002, 1.385367e+004
9.058068e+002, 1.385063e+004
9.062889e+002, 1.385935e+004
9.067710e+002, 1.387050e+004
9.072531e+002, 1.387520e+004
9.077352e+002, 1.387212e+004
9.082173e+002, 1.386864e+004
9.086995e+002, 1.386596e+004
9.091816e+002, 1.386275e+004
9.096637e+002, 1.385715e+004
9.101458e+002, 1.385038e+004
9.106279e+002, 1.385265e+004
9.111100e+002, 1.386353e+004
9.115922e+002, 1.387365e+004
9.120743e+002, 1.387809e+004
9.125564e+002, 1.387915e+004
9.130385e+002, 1.387832e+004
9.135206e+002, 1.387611e+004
9.140027e+002, 1.387389e+004
9.144849e+002, 1.387001e+004
9.149670e+002, 1.386909e+004
9.154491e+002, 1.387299e+004
9.159312e+002, 1.387958e+004
9.164133e+002, 1.388533e+004
9.168954e+002, 1.389016e+004
9.173776e+002, 1.389035e+004
9.178597e+002, 1.388283e+004
9.183418e+002, 1.387688e+004
9.188239e+002, 1.388635e+004
9.193060e+002, 1.390245e+004
9.197881e+002, 1.391246e+004
9.202703e+002, 1.390909e+004
9.207524e+002, 1.390805e+004
9.212345e+002, 1.391294e+004
9.217166e+002, 1.391942e+004
9.221987e+002, 1.392371e+004
9.226808e+002, 1.392566e+004
9.231630e+002, 1.392946e+004
9.236451e+002, 1.393540e+004
9.241272e+002, 1.394156e+004
9.246093e+002, 1.394650e+004
9.250914e+002, 1.395060e+004
9.255735e+002, 1.395408e+004
9.260557e+002, 1.395694e+004
9.265378e+002, 1.395966e+004
9.270199e+002, 1.396263e+004
9.275020e+002, 1.396509e+004
9.279841e+002, 1.396643e+004
9.284662e+002, 1.396701e+004
9.289484e+002, 1.396987e+004
9.294305e+002, 1.397501e+004
9.299126e+002, 1.397759e+004
9.303947e+002, 1.397316e+004
9.308768e+002, 1.396746e+004
9.313589e+002, 1.396717e+004
9.318411e+002, 1.397093e+004
9.323232e+002, 1.397563e+004
9.328053e+002, 1.398448e+004
9.332874e+002, 1.398859e+004
9.337695e+002, 1.398357e+004
9.342516e+002, 1.397628e+004
9.347338e+002, 1.397913e+004
9.352159e+002, 1.399209e+004
9.356980e+002, 1.399617e+004
9.361801e+002, 1.398659e+004
9.366622e+002, 1.397721e+004
9.371443e+002, 1.398428e+004
9.376265e+002, 1.399853e+004
9.381086e+002, 1.400811e+004
9.385907e+002, 1.400907e+004
9.390728e+002, 1.401338e+004
9.395549e+002, 1.402485e+004
9.400370e+002, 1.403734e+004
9.405192e+002, 1.404766e+004
9.410013e+002, 1.405573e+004
9.414834e+002, 1.406067e+004
9.419655e+002, 1.406253e+004
9.424476e+002, 1.406549e+004
9.429297e+002, 1.407587e+004
9.434119e+002, 1.408593e+004
9.438940e+002, 1.408614e+004
9.443761e+002, 1.407877e+004
9.448582e+002, 1.407475e+004
9.453403e+002, 1.407986e+004
9.458224e+002, 1.408436e+004
9.463046e+002, 1.408681e+004
9.467867e+002, 1.408731e+004
9.472688e+002, 1.408436e+004
9.477509e+002, 1.407879e+004
9.482330e+002, 1.407761e+004
9.487151e+002, 1.408452e+004
9.491973e+002, 1.409201e+004
9.496794e+002, 1.409229e+004
9.501615e+002, 1.408983e+004
9.506436e+002, 1.409013e+004
9.511257e+002, 1.409600e+004
9.516078e+002, 1.410165e+004
9.520900e+002, 1.410670e+004
9.525721e+002, 1.411224e+004
9.530542e+002, 1.412019e+004
9.535363e+002, 1.412975e+004
9.540184e+002, 1.413462e+004
9.545005e+002, 1.413473e+004
9.549827e+002, 1.413664e+004
9.554648e+002, 1.414668e+004
9.559469e+002, 1.415854e+004
9.564290e+002, 1.416675e+004
9.569111e+002, 1.417143e+004
9.573932e+002, 1.417983e+004
9.578754e+002, 1.419510e+004
9.583575e+002, 1.420635e+004
9.588396e+002, 1.420828e+004
9.593217e+002, 1.420565e+004
9.598038e+002, 1.421006e+004
9.602859e+002, 1.421987e+004
9.607681e+002, 1.422958e+004
9.612502e+002, 1.423752e+004
9.617323e+002, 1.424429e+004
9.622144e+002, 1.425209e+004
9.626965e+002, 1.425817e+004
9.631786e+002, 1.425868e+004
9.636608e+002, 1.425166e+004
9.641429e+002, 1.424469e+004
9.646250e+002, 1.423728e+004
9.651071e+002, 1.423340e+004
9.655892e+002, 1.424105e+004
9.660714e+002, 1.425434e+004
9.665535e+002, 1.426036e+004
9.670356e+002, 1.425821e+004
9.675177e+002, 1.425362e+004
9.679998e+002, 1.424521e+004
9.684819e+002, 1.423935e+004
9.689641e+002, 1.424060e+004
9.694462e+002, 1.424774e+004
9.699283e+002, 1.425204e+004
9.704104e+002, 1.425277e+004
9.708925e+002, 1.425515e+004
9.713746e+002, 1.426102e+004
9.718568e+002, 1.426953e+004
9.723389e+002, 1.428250e+004
9.728210e+002, 1.429665e+004
9.733031e+002, 1.430533e+004
9.737852e+002, 1.429697e+004
9.742673e+002, 1.429515e+004
9.747495e+002, 1.430831e+004
9.752316e+002, 1.432634e+004
9.757137e+002, 1.433873e+004
9.761958e+002, 1.434538e+004
9.766779e+002, 1.435467e+004
9.771600e+002, 1.436813e+004
9.776422e+002, 1.437590e+004
9.781243e+002, 1.436361e+004
9.786064e+002, 1.434524e+004
9.790885e+002, 1.433556e+004
9.795706e+002, 1.433612e+004
9.800527e+002, 1.433843e+004
9.805349e+002, 1.434227e+004
9.810170e+002, 1.434614e+004
9.814991e+002, 1.435070e+004
9.819812e+002, 1.435426e+004
9.824633e+002, 1.434696e+004
9.829454e+002, 1.433145e+004
9.834276e+002, 1.432472e+004
9.839097e+002, 1.433970e+004
9.843918e+002, 1.435702e+004
9.848739e+002, 1.436369e+004
9.853560e+002, 1.436347e+004
9.858381e+002, 1.436180e+004
9.863203e+002, 1.435801e+004
9.868024e+002, 1.435627e+004
9.872845e+002, 1.435763e+004
9.877666e+002, 1.435929e+004
9.882487e+002, 1.435752e+004
9.887308e+002, 1.435403e+004
9.892130e+002, 1.435300e+004
9.896951e+002, 1.435479e+004
9.901772e+002, 1.435787e+004
9.906593e+002, 1.436283e+004
9.911414e+002, 1.436736e+004
9.916235e+002, 1.436924e+004
9.921057e+002, 1.436915e+004
9.925878e+002, 1.437242e+004
9.930699e+002, 1.437961e+004
9.935520e+002, 1.438430e+004
9.940341e+002, 1.438347e+004
9.945162e+002, 1.437990e+004
9.949984e+002, 1.437561e+004
9.954805e+002, 1.437197e+004
9.959626e+002, 1.437184e+004
9.964447e+002, 1.438050e+004
9.969268e+002, 1.438564e+004
9.974089e+002, 1.438313e+004
9.978911e+002, 1.437960e+004
9.983732e+002, 1.438298e+004
9.988553e+002, 1.439297e+004
9.993374e+002, 1.439214e+004
9.998195e+002, 1.437981e+004
1.000302e+003, 1.436979e+004
1.000784e+003, 1.437532e+004
1.001266e+003, 1.438527e+004
1.001748e+003, 1.438953e+004
1.002230e+003, 1.438845e+004
1.002712e+003, 1.439172e+004
1.003194e+003, 1.440140e+004
1.003676e+003, 1.441112e+004
1.004159e+003, 1.441919e+004
1.004641e+003, 1.442590e+004
1.005123e+003, 1.443193e+004
1.005605e+003, 1.443728e+004
1.006087e+003, 1.444228e+004
1.006569e+003, 1.444730e+004
1.007051e+003, 1.445170e+004
1.007533e+003, 1.445807e+004
1.008016e+003, 1.446196e+004
1.008498e+003, 1.445840e+004
1.008980e+003, 1.444478e+004
1.009462e+003, 1.444114e+004
1.009944e+003, 1.444875e+004
1.010426e+003, 1.445807e+004
1.010908e+003, 1.445785e+004
1.011390e+003, 1.445766e+004
1.011872e+003, 1.447618e+004
1.012355e+003, 1.450783e+004
1.012837e+003, 1.452761e+004
1.013319e+003, 1.451523e+004
1.013801e+003, 1.450530e+004
1.014283e+003, 1.450530e+004
1.014765e+003, 1.451065e+004
1.015247e+003, 1.451283e+004
1.015729e+003, 1.451235e+004
1.016211e+003, 1.451425e+004
1.016694e+003, 1.452020e+004
1.017176e+003, 1.452524e+004
1.017658e+003, 1.452356e+004
1.018140e+003, 1.452066e+004
1.018622e+003, 1.452252e+004
1.019104e+003, 1.453114e+004
1.019586e+003, 1.453523e+004
1.020068e+003, 1.453414e+004
1.020551e+003, 1.453146e+004
1.021033e+003, 1.452873e+004
1.021515e+003, 1.452608e+004
1.021997e+003, 1.452227e+004
1.022479e+003, 1.451864e+004
1.022961e+003, 1.451923e+004
1.023443e+003, 1.452892e+004
1.023925e+003, 1.453897e+004
1.024407e+003, 1.454565e+004
1.024890e+003, 1.455205e+004
1.025372e+003, 1.456373e+004
1.025854e+003, 1.458085e+004
1.026336e+003, 1.458976e+004
1.026818e+003, 1.458853e+004
1.027300e+003, 1.458543e+004
1.027782e+003, 1.458579e+004
1.028264e+003, 1.458921e+004
1.028746e+003, 1.459697e+004
1.029229e+003, 1.460896e+004
1.029711e+003, 1.461683e+004
1.030193e+003, 1.462026e+004
1.030675e+003, 1.461839e+004
1.031157e+003, 1.460648e+004
1.031639e+003, 1.459415e+004
1.032121e+003, 1.461186e+004
1.032603e+003, 1.464829e+004
1.033086e+003, 1.466613e+004
1.033568e+003, 1.464448e+004
1.034050e+003, 1.462324e+004
1.034532e+003, 1.462254e+004
1.035014e+003, 1.462904e+004
1.035496e+003, 1.463068e+004
1.035978e+003, 1.462639e+004
1.036460e+003, 1.462630e+004
1.036943e+003, 1.463076e+004
1.037425e+003, 1.463476e+004
1.037907e+003, 1.463290e+004
1.038389e+003, 1.462992e+004
1.038871e+003, 1.462997e+004
1.039353e+003, 1.463315e+004
1.039835e+003, 1.463954e+004
1.040317e+003, 1.465025e+004
1.040799e+003, 1.466206e+004
1.041281e+003, 1.467525e+004
1.041764e+003, 1.468794e+004
1.042246e+003, 1.469478e+004
1.042728e+003, 1.469863e+004
1.043210e+003, 1.471129e+004
1.043692e+003, 1.473684e+004
1.044174e+003, 1.475491e+004
1.044656e+003, 1.474576e+004
1.045138e+003, 1.473288e+004
1.045621e+003, 1.473217e+004
1.046103e+003, 1.474269e+004
1.046585e+003, 1.474940e+004
1.047067e+003, 1.475206e+004
1.047549e+003, 1.475391e+004
1.048031e+003, 1.475627e+004
1.048513e+003, 1.475869e+004
1.048995e+003, 1.475954e+004
1.049478e+003, 1.476037e+004
1.049960e+003, 1.476383e+004
1.050442e+003, 1.477677e+004
1.050924e+003, 1.478211e+004
1.051406e+003, 1.477649e+004
1.051888e+003, 1.476928e+004
1.052370e+003, 1.476883e+004
1.052852e+003, 1.477395e+004
1.053334e+003, 1.478176e+004
1.053817e+003, 1.479178e+004
1.054299e+003, 1.480059e+004
1.054781e+003, 1.480937e+004
1.055263e+003, 1.481317e+004
1.055745e+003, 1.480542e+004
1.056227e+003, 1.479242e+004
1.056709e+003, 1.478978e+004
1.057191e+003, 1.479811e+004
1.057673e+003, 1.480358e+004
1.058156e+003, 1.480231e+004
1.058638e+003, 1.480169e+004
1.059120e+003, 1.481144e+004
1.059602e+003, 1.482469e+004
1.060084e+003, 1.483354e+004
1.060566e+003, 1.483577e+004
1.061048e+003, 1.484108e+004
1.061530e+003, 1.485292e+004
1.062013e+003, 1.486024e+004
1.062495e+003, 1.485512e+004
1.062977e+003, 1.484400e+004
1.063459e+003, 1.484326e+004
1.063941e+003, 1.485004e+004
1.064423e+003, 1.485605e+004
1.064905e+003, 1.485787e+004
1.065387e+003, 1.485870e+004
1.065870e+003, 1.485705e+004
1.066352e+003, 1.485683e+004
1.066834e+003, 1.486287e+004
1.067316e+003, 1.487523e+004
1.067798e+003, 1.488288e+004
1.068280e+003, 1.488547e+004
1.068762e+003, 1.488817e+004
1.069244e+003, 1.489806e+004
1.069726e+003, 1.490684e+004
1.070208e+003, 1.490546e+004
1.070691e+003, 1.489661e+004
1.071173e+003, 1.489266e+004
1.071655e+003, 1.489352e+004
1.072137e+003, 1.490143e+004
1.072619e+003, 1.491889e+004
1.073101e+003, 1.493740e+004
1.073583e+003, 1.494431e+004
1.074065e+003, 1.494497e+004
1.074548e+003, 1.494871e+004
1.075030e+003, 1.495759e+004
1.075512e+003, 1.496344e+004
1.075994e+003, 1.496073e+004
1.076476e+003, 1.495912e+004
1.076958e+003, 1.496413e+004
1.077440e+003, 1.497252e+004
1.077922e+003, 1.497025e+004
1.078405e+003, 1.495964e+004
1.078887e+003, 1.495175e+004
1.079369e+003, 1.495158e+004
1.079851e+003, 1.495406e+004
1.080333e+003, 1.495801e+004
1.080815e+003, 1.496230e+004
1.081297e+003, 1.496537e+004
1.081779e+003, 1.496659e+004
1.082261e+003, 1.497009e+004
1.082744e+003, 1.497587e+004
1.083226e+003, 1.498406e+004
1.083708e+003, 1.499757e+004
1.084190e+003, 1.501120e+004
1.084672e+003, 1.501938e+004
1.085154e+003, 1.502294e+004
1.085636e+003, 1.502496e+004
1.086118e+003, 1.502394e+004
1.086601e+003, 1.502606e+004
1.087083e+003, 1.503341e+004
1.087565e+003, 1.504071e+004
1.088047e+003, 1.503933e+004
1.088529e+003, 1.503342e+004
1.089011e+003, 1.503194e+004
1.089493e+003, 1.503587e+004
1.089975e+003, 1.504007e+004
1.090458e+003, 1.504134e+004
1.090940e+003, 1.504376e+004
1.091422e+003, 1.504909e+004
1.091904e+003, 1.505631e+004
1.092386e+003, 1.506347e+004
1.092868e+003, 1.506997e+004
1.093350e+003, 1.507120e+004
1.093832e+003, 1.506382e+004
1.094314e+003, 1.505736e+004
1.094797e+003, 1.505857e+004
1.095279e+003, 1.506390e+004
1.095761e+003, 1.507142e+004
1.096243e+003, 1.508149e+004
1.096725e+003, 1.508516e+004
1.097207e+003, 1.508198e+004
1.097689e+003, 1.507876e+004
1.098171e+003, 1.507766e+004
1.098653e+003, 1.508021e+004
1.099136e+003, 1.509230e+004
1.099618e+003, 1.510844e+004
1.100100e+003, 1.511778e+004
1.100582e+003, 1.511229e+004
1.101064e+003, 1.511064e+004
1.101546e+003, 1.511426e+004
1.102028e+003, 1.511877e+004
1.102510e+003, 1.511821e+004
1.102993e+003, 1.511612e+004
1.103475e+003, 1.512206e+004
1.103957e+003, 1.513478e+004
1.104439e+003, 1.514448e+004
1.104921e+003, 1.514516e+004
1.105403e+003, 1.514462e+004
1.105885e+003, 1.514434e+004
1.106367e+003, 1.514478e+004
1.106849e+003, 1.514723e+004
1.107332e+003, 1.515134e+004
1.107814e+003, 1.515370e+004
1.108296e+003, 1.515354e+004
1.108778e+003, 1.515694e+004
1.109260e+003, 1.517291e+004
1.109742e+003, 1.518901e+004
1.110224e+003, 1.519679e+004
1.110706e+003, 1.519761e+004
1.111188e+003, 1.519895e+004
1.111671e+003, 1.520067e+004
1.112153e+003, 1.520374e+004
1.112635e+003, 1.520894e+004
1.113117e+003, 1.521403e+004
1.113599e+003, 1.521606e+004
1.114081e+003, 1.521699e+004
1.114563e+003, 1.521892e+004
1.115045e+003, 1.522199e+004
1.115528e+003, 1.522659e+004
1.116010e+003, 1.523336e+004
1.116492e+003, 1.523919e+004
1.116974e+003, 1.524276e+004
1.117456e+003, 1.524423e+004
1.117938e+003, 1.524236e+004
1.118420e+003, 1.523897e+004
1.118902e+003, 1.523776e+004
1.119385e+003, 1.524147e+004
1.119867e+003, 1.524592e+004
1.120349e+003, 1.525229e+004
1.120831e+003, 1.525696e+004
1.121313e+003, 1.525466e+004
1.121795e+003, 1.524832e+004
1.122277e+003, 1.524648e+004
1.122759e+003, 1.524886e+004
1.123241e+003, 1.525232e+004
1.123724e+003, 1.525253e+004
1.124206e+003, 1.525733e+004
1.124688e+003, 1.527059e+004
1.125170e+003, 1.528730e+004
1.125652e+003, 1.530031e+004
1.126134e+003, 1.530970e+004
1.126616e+003, 1.531567e+004
1.127098e+003, 1.531816e+004
1.127580e+003, 1.531950e+004
1.128063e+003, 1.532157e+004
1.128545e+003, 1.532283e+004
1.129027e+003, 1.532184e+004
1.129509e+003, 1.531952e+004
1.129991e+003, 1.531877e+004
1.130473e+003, 1.531976e+004
1.130955e+003, 1.532064e+004
1.131437e+003, 1.532038e+004
1.131920e+003, 1.532264e+004
1.132402e+003, 1.533392e+004
1.132884e+003, 1.534747e+004
1.133366e+003, 1.535546e+004
1.133848e+003, 1.535667e+004
1.134330e+003, 1.536507e+004
1.134812e+003, 1.538246e+004
1.135294e+003, 1.539629e+004
1.135776e+003, 1.539910e+004
1.136259e+003, 1.539829e+004
1.136741e+003, 1.540285e+004
1.137223e+003, 1.541071e+004
1.137705e+003, 1.541880e+004
1.138187e+003, 1.542595e+004
1.138669e+003, 1.543407e+004
1.139151e+003, 1.544371e+004
1.139633e+003, 1.545259e+004
1.140115e+003, 1.545971e+004
1.140598e+003, 1.546472e+004
1.141080e+003, 1.546577e+004
1.141562e+003, 1.546428e+004
1.142044e+003, 1.546414e+004
1.142526e+003, 1.546738e+004
1.143008e+003, 1.547201e+004
1.143490e+003, 1.547984e+004
1.143972e+003, 1.548599e+004
1.144455e+003, 1.548293e+004
1.144937e+003, 1.547457e+004
1.145419e+003, 1.547451e+004
1.145901e+003, 1.548241e+004
1.146383e+003, 1.549106e+004
1.146865e+003, 1.549587e+004
1.147347e+003, 1.550249e+004
1.147829e+003, 1.551520e+004
1.148312e+003, 1.552827e+004
1.148794e+003, 1.553062e+004
1.149276e+003, 1.552436e+004
1.149758e+003, 1.552356e+004
1.150240e+003, 1.552986e+004
1.150722e+003, 1.553909e+004
1.151204e+003, 1.555299e+004
1.151686e+003, 1.556432e+004
1.152168e+003, 1.556702e+004
1.152651e+003, 1.556466e+004
1.153133e+003, 1.556741e+004
1.153615e+003, 1.557506e+004
1.154097e+003, 1.558550e+004
1.154579e+003, 1.559923e+004
1.155061e+003, 1.560939e+004
1.155543e+003, 1.560735e+004
1.156025e+003, 1.560163e+004
1.156507e+003, 1.559673e+004
1.156990e+003, 1.559358e+004
1.157472e+003, 1.560559e+004
1.157954e+003, 1.563431e+004
1.158436e+003, 1.565491e+004
1.158918e+003, 1.565697e+004
1.159400e+003, 1.565297e+004
1.159882e+003, 1.565113e+004
1.160364e+003, 1.565290e+004
1.160847e+003, 1.566129e+004
1.161329e+003, 1.567782e+004
1.161811e+003, 1.569154e+004
1.162293e+003, 1.570241e+004
1.162775e+003, 1.570971e+004
1.163257e+003, 1.571158e+004
1.163739e+003, 1.571127e+004
1.164221e+003, 1.571108e+004
1.164703e+003, 1.571207e+004
1.165186e+003, 1.571647e+004
1.165668e+003, 1.572802e+004
1.166150e+003, 1.573397e+004
1.166632e+003, 1.573264e+004
1.167114e+003, 1.573136e+004
1.167596e+003, 1.573578e+004
1.168078e+003, 1.574350e+004
1.168560e+003, 1.575217e+004
1.169042e+003, 1.576094e+004
1.169525e+003, 1.576744e+004
1.170007e+003, 1.577228e+004
1.170489e+003, 1.577182e+004
1.170971e+003, 1.576309e+004
1.171453e+003, 1.575651e+004
1.171935e+003, 1.576634e+004
1.172417e+003, 1.578363e+004
1.172899e+003, 1.578810e+004
1.173382e+003, 1.578252e+004
1.173864e+003, 1.578373e+004
1.174346e+003, 1.581167e+004
1.174828e+003, 1.582461e+004
1.175310e+003, 1.581145e+004
1.175792e+003, 1.579155e+004
1.176274e+003, 1.579002e+004
1.176756e+003, 1.580080e+004
1.177239e+003, 1.580954e+004
1.177721e+003, 1.581512e+004
1.178203e+003, 1.582321e+004
1.178685e+003, 1.583999e+004
1.179167e+003, 1.585401e+004
1.179649e+003, 1.586270e+004
1.180131e+003, 1.586705e+004
1.180613e+003, 1.586706e+004
1.181095e+003, 1.586441e+004
1.181578e+003, 1.586416e+004
1.182060e+003, 1.586712e+004
1.182542e+003, 1.587126e+004
1.183024e+003, 1.587296e+004
1.183506e+003, 1.587996e+004
1.183988e+003, 1.589774e+004
1.184470e+003, 1.592030e+004
1.184952e+003, 1.593212e+004
1.185434e+003, 1.593545e+004
1.185917e+003, 1.593803e+004
1.186399e+003, 1.594174e+004
1.186881e+003, 1.594462e+004
1.187363e+003, 1.594188e+004
1.187845e+003, 1.594245e+004
1.188327e+003, 1.595130e+004
1.188809e+003, 1.596617e+004
1.189291e+003, 1.597997e+004
1.189774e+003, 1.599242e+004
1.190256e+003, 1.600319e+004
1.190738e+003, 1.601289e+004
1.191220e+003, 1.601839e+004
1.191702e+003, 1.601251e+004
1.192184e+003, 1.600737e+004
1.192666e+003, 1.601212e+004
1.193148e+003, 1.602443e+004
1.193630e+003, 1.602614e+004
1.194113e+003, 1.601978e+004
1.194595e+003, 1.602094e+004
1.195077e+003, 1.604199e+004
1.195559e+003, 1.606088e+004
1.196041e+003, 1.606626e+004
1.196523e+003, 1.606503e+004
1.197005e+003, 1.606101e+004
1.197487e+003, 1.605467e+004
1.197969e+003, 1.605434e+004
1.198452e+003, 1.605924e+004
1.198934e+003, 1.606301e+004
1.199416e+003, 1.606081e+004
1.199898e+003, 1.605872e+004
1.200380e+003, 1.605907e+004
1.200862e+003, 1.606146e+004
1.201344e+003, 1.606589e+004
1.201826e+003, 1.607238e+004
1.202309e+003, 1.607737e+004
1.202791e+003, 1.608111e+004
1.203273e+003, 1.608643e+004
1.203755e+003, 1.609677e+004
1.204237e+003, 1.610706e+004
1.204719e+003, 1.611436e+004
1.205201e+003, 1.612019e+004
1.205683e+003, 1.612682e+004
1.206166e+003, 1.613403e+004
1.206648e+003, 1.613742e+004
1.207130e+003, 1.613692e+004
1.207612e+003, 1.613605e+004
1.208094e+003, 1.613421e+004
1.208576e+003, 1.613561e+004
1.209058e+003, 1.614656e+004
1.209540e+003, 1.615999e+004
1.210022e+003, 1.616517e+004
1.210505e+003, 1.616255e+004
1.210987e+003, 1.616353e+004
1.211469e+003, 1.616890e+004
1.211951e+003, 1.617350e+004
1.212433e+003, 1.617138e+004
1.212915e+003, 1.617051e+004
1.213397e+003, 1.617732e+004
1.213879e+003, 1.618753e+004
1.214361e+003, 1.619439e+004
1.214844e+003, 1.619800e+004
1.215326e+003, 1.619898e+004
1.215808e+003, 1.619735e+004
1.216290e+003, 1.619474e+004
1.216772e+003, 1.618812e+004
1.217254e+003, 1.618520e+004
1.217736e+003, 1.619192e+004
1.218218e+003, 1.620404e+004
1.218701e+003, 1.621376e+004
1.219183e+003, 1.622109e+004
1.219665e+003, 1.622810e+004
1.220147e+003, 1.623500e+004
1.220629e+003, 1.623983e+004
1.221111e+003, 1.623690e+004
1.221593e+003, 1.623622e+004
1.222075e+003, 1.624419e+004
1.222557e+003, 1.625748e+004
1.223040e+003, 1.626976e+004
1.223522e+003, 1.628047e+004
1.224004e+003, 1.628309e+004
1.224486e+003, 1.627578e+004
1.224968e+003, 1.626966e+004
1.225450e+003, 1.627402e+004
1.225932e+003, 1.627906e+004
1.226414e+003, 1.628023e+004
1.226896e+003, 1.627831e+004
1.227379e+003, 1.627305e+004
1.227861e+003, 1.626612e+004
1.228343e+003, 1.626692e+004
1.228825e+003, 1.627858e+004
1.229307e+003, 1.629077e+004
1.229789e+003, 1.630021e+004
1.230271e+003, 1.630530e+004
1.230753e+003, 1.630362e+004
1.231236e+003, 1.629807e+004
1.231718e+003, 1.629908e+004
1.232200e+003, 1.630504e+004
1.232682e+003, 1.631019e+004
1.233164e+003, 1.631349e+004
1.233646e+003, 1.631372e+004
1.234128e+003, 1.630574e+004
1.234610e+003, 1.629989e+004
1.235093e+003, 1.630221e+004
1.235575e+003, 1.630958e+004
1.236057e+003, 1.631137e+004
1.236539e+003, 1.630947e+004
1.237021e+003, 1.631004e+004
1.237503e+003, 1.631564e+004
1.237985e+003, 1.632091e+004
1.238467e+003, 1.632269e+004
1.238949e+003, 1.632521e+004
1.239432e+003, 1.633078e+004
1.239914e+003, 1.633805e+004
1.240396e+003, 1.634248e+004
1.240878e+003, 1.634522e+004
1.241360e+003, 1.635027e+004
1.241842e+003, 1.636123e+004
1.242324e+003, 1.636596e+004
1.242806e+003, 1.635722e+004
1.243288e+003, 1.634944e+004
1.243771e+003, 1.634915e+004
1.244253e+003, 1.635526e+004
1.244735e+003, 1.636810e+004
1.245217e+003, 1.638458e+004
1.245699e+003, 1.639768e+004
1.246181e+003, 1.640579e+004
1.246663e+003, 1.640854e+004
1.247145e+003, 1.640256e+004
1.247628e+003, 1.639971e+004
1.248110e+003, 1.640748e+004
1.248592e+003, 1.642142e+004
1.249074e+003, 1.643511e+004
1.249556e+003, 1.644682e+004
1.250038e+003, 1.645316e+004
1.250520e+003, 1.645019e+004
1.251002e+003, 1.644881e+004
1.251484e+003, 1.644888e+004
1.251967e+003, 1.645245e+004
1.252449e+003, 1.646305e+004
1.252931e+003, 1.647515e+004
1.253413e+003, 1.647928e+004
1.253895e+003, 1.647873e+004
1.254377e+003, 1.647880e+004
1.254859e+003, 1.647898e+004
1.255341e+003, 1.648534e+004
1.255823e+003, 1.649944e+004
1.256306e+003, 1.651182e+004
1.256788e+003, 1.651609e+004
1.257270e+003, 1.651656e+004
1.257752e+003, 1.652004e+004
1.258234e+003, 1.652281e+004
1.258716e+003, 1.651694e+004
1.259198e+003, 1.649683e+004
1.259680e+003, 1.649373e+004
1.260163e+003, 1.650994e+004
1.260645e+003, 1.652328e+004
1.261127e+003, 1.651992e+004
1.261609e+003, 1.651031e+004
1.262091e+003, 1.650136e+004
1.262573e+003, 1.649338e+004
1.263055e+003, 1.648591e+004
1.263537e+003, 1.647797e+004
1.264020e+003, 1.647724e+004
1.264502e+003, 1.648351e+004
1.264984e+003, 1.649399e+004
1.265466e+003, 1.650908e+004
1.265948e+003, 1.652473e+004
1.266430e+003, 1.654075e+004
1.266912e+003, 1.655362e+004
1.267394e+003, 1.655916e+004
1.267876e+003, 1.655711e+004
1.268359e+003, 1.655584e+004
1.268841e+003, 1.655526e+004
1.269323e+003, 1.655428e+004
1.269805e+003, 1.655273e+004
1.270287e+003, 1.655032e+004
1.270769e+003, 1.654454e+004
1.271251e+003, 1.654029e+004
1.271733e+003, 1.654238e+004
1.272215e+003, 1.655002e+004
1.272698e+003, 1.655718e+004
1.273180e+003, 1.656351e+004
1.273662e+003, 1.656653e+004
1.274144e+003, 1.656461e+004
1.274626e+003, 1.655971e+004
1.275108e+003, 1.654888e+004
1.275590e+003, 1.654055e+004
1.276072e+003, 1.654370e+004
1.276555e+003, 1.655425e+004
1.277037e+003, 1.655732e+004
1.277519e+003, 1.655570e+004
1.278001e+003, 1.655788e+004
1.278483e+003, 1.657378e+004
1.278965e+003, 1.658171e+004
1.279447e+003, 1.657777e+004
1.279929e+003, 1.657199e+004
1.280411e+003, 1.657209e+004
1.280894e+003, 1.657537e+004
1.281376e+003, 1.657758e+004
1.281858e+003, 1.657899e+004
1.282340e+003, 1.658016e+004
1.282822e+003, 1.657841e+004
1.283304e+003, 1.658399e+004
1.283786e+003, 1.659869e+004
1.284268e+003, 1.661245e+004
1.284750e+003, 1.661740e+004
1.285233e+003, 1.661882e+004
1.285715e+003, 1.662297e+004
1.286197e+003, 1.662785e+004
1.286679e+003, 1.662934e+004
1.287161e+003, 1.662540e+004
1.287643e+003, 1.662642e+004
1.288125e+003, 1.663245e+004
1.288607e+003, 1.663923e+004
1.289090e+003, 1.664512e+004
1.289572e+003, 1.664913e+004
1.290054e+003, 1.664939e+004
1.290536e+003, 1.664768e+004
1.291018e+003, 1.664647e+004
1.291500e+003, 1.664571e+004
1.291982e+003, 1.664413e+004
1.292464e+003, 1.664193e+004
1.292947e+003, 1.664097e+004
1.293429e+003, 1.664678e+004
1.293911e+003, 1.664821e+004
1.294393e+003, 1.663504e+004
1.294875e+003, 1.662141e+004
1.295357e+003, 1.661929e+004
1.295839e+003, 1.662573e+004
1.296321e+003, 1.662564e+004
1.296803e+003, 1.662102e+004
1.297286e+003, 1.661752e+004
1.297768e+003, 1.661750e+004
1.298250e+003, 1.661923e+004
1.298732e+003, 1.662315e+004
1.299214e+003, 1.662798e+004
1.299696e+003, 1.663136e+004
1.300178e+003, 1.663408e+004
1.300660e+003, 1.664411e+004
##END=



