##NAMES=Chalcocite
##RRUFFID=R130757
##IDEAL CHEMISTRY=Cu^1+^_2_S^2-^
##LOCALITY=China
##OWNER=RRUFF
##SOURCE=Rob Lavinsky
##DESCRIPTION=Black crystals with blue tarnish on a surface
##STATUS=The identification of this mineral has been confirmed by single-crystal X-ray diffraction.
##URL=rruff.info/R130757
8.813672e+001, 1.053863e+002
8.861884e+001, 1.073295e+002
8.910095e+001, 1.088919e+002
8.958307e+001, 1.097887e+002
9.006519e+001, 1.108339e+002
9.054730e+001, 1.130995e+002
9.102942e+001, 1.174958e+002
9.151154e+001, 1.216178e+002
9.199365e+001, 1.222663e+002
9.247577e+001, 1.199972e+002
9.295789e+001, 1.176023e+002
9.344000e+001, 1.172279e+002
9.392212e+001, 1.181773e+002
9.440424e+001, 1.186861e+002
9.488635e+001, 1.185112e+002
9.536847e+001, 1.179302e+002
9.585059e+001, 1.173685e+002
9.633270e+001, 1.167949e+002
9.681482e+001, 1.164207e+002
9.729694e+001, 1.163432e+002
9.777905e+001, 1.165568e+002
9.826117e+001, 1.173830e+002
9.874329e+001, 1.192291e+002
9.922540e+001, 1.218470e+002
9.970752e+001, 1.233264e+002
1.001896e+002, 1.233583e+002
1.006718e+002, 1.229037e+002
1.011539e+002, 1.231652e+002
1.016360e+002, 1.242841e+002
1.021181e+002, 1.255874e+002
1.026002e+002, 1.268793e+002
1.030823e+002, 1.281591e+002
1.035645e+002, 1.293897e+002
1.040466e+002, 1.303724e+002
1.045287e+002, 1.314416e+002
1.050108e+002, 1.332846e+002
1.054929e+002, 1.361863e+002
1.059750e+002, 1.394271e+002
1.064572e+002, 1.428829e+002
1.069393e+002, 1.477090e+002
1.074214e+002, 1.506683e+002
1.079035e+002, 1.509435e+002
1.083856e+002, 1.492808e+002
1.088677e+002, 1.482662e+002
1.093499e+002, 1.481513e+002
1.098320e+002, 1.484882e+002
1.103141e+002, 1.490842e+002
1.107962e+002, 1.500256e+002
1.112783e+002, 1.511362e+002
1.117604e+002, 1.524758e+002
1.122426e+002, 1.540249e+002
1.127247e+002, 1.555550e+002
1.132068e+002, 1.567014e+002
1.136889e+002, 1.579979e+002
1.141710e+002, 1.598021e+002
1.146531e+002, 1.633389e+002
1.151353e+002, 1.662993e+002
1.156174e+002, 1.677510e+002
1.160995e+002, 1.676773e+002
1.165816e+002, 1.677143e+002
1.170637e+002, 1.688866e+002
1.175458e+002, 1.703471e+002
1.180280e+002, 1.711891e+002
1.185101e+002, 1.704415e+002
1.189922e+002, 1.693952e+002
1.194743e+002, 1.687508e+002
1.199564e+002, 1.685582e+002
1.204385e+002, 1.686772e+002
1.209207e+002, 1.688218e+002
1.214028e+002, 1.692286e+002
1.218849e+002, 1.703086e+002
1.223670e+002, 1.735508e+002
1.228491e+002, 1.770072e+002
1.233312e+002, 1.784193e+002
1.238134e+002, 1.772066e+002
1.242955e+002, 1.752031e+002
1.247776e+002, 1.738933e+002
1.252597e+002, 1.731697e+002
1.257418e+002, 1.726637e+002
1.262239e+002, 1.719931e+002
1.267061e+002, 1.714095e+002
1.271882e+002, 1.714721e+002
1.276703e+002, 1.724216e+002
1.281524e+002, 1.737400e+002
1.286345e+002, 1.747173e+002
1.291166e+002, 1.753767e+002
1.295988e+002, 1.759901e+002
1.300809e+002, 1.769101e+002
1.305630e+002, 1.779972e+002
1.310451e+002, 1.786473e+002
1.315272e+002, 1.786293e+002
1.320093e+002, 1.781687e+002
1.324915e+002, 1.776888e+002
1.329736e+002, 1.771696e+002
1.334557e+002, 1.768092e+002
1.339378e+002, 1.768866e+002
1.344199e+002, 1.773904e+002
1.349020e+002, 1.777916e+002
1.353842e+002, 1.778810e+002
1.358663e+002, 1.777522e+002
1.363484e+002, 1.778454e+002
1.368305e+002, 1.780933e+002
1.373126e+002, 1.787606e+002
1.377947e+002, 1.804771e+002
1.382769e+002, 1.836151e+002
1.387590e+002, 1.858861e+002
1.392411e+002, 1.864813e+002
1.397232e+002, 1.853712e+002
1.402053e+002, 1.842877e+002
1.406874e+002, 1.832478e+002
1.411696e+002, 1.821991e+002
1.416517e+002, 1.810807e+002
1.421338e+002, 1.798610e+002
1.426159e+002, 1.786421e+002
1.430980e+002, 1.773952e+002
1.435801e+002, 1.760638e+002
1.440623e+002, 1.750571e+002
1.445444e+002, 1.743697e+002
1.450265e+002, 1.740220e+002
1.455086e+002, 1.741341e+002
1.459907e+002, 1.753533e+002
1.464728e+002, 1.761815e+002
1.469550e+002, 1.760499e+002
1.474371e+002, 1.743689e+002
1.479192e+002, 1.730825e+002
1.484013e+002, 1.723743e+002
1.488834e+002, 1.720430e+002
1.493655e+002, 1.716371e+002
1.498477e+002, 1.709860e+002
1.503298e+002, 1.704077e+002
1.508119e+002, 1.700366e+002
1.512940e+002, 1.701653e+002
1.517761e+002, 1.700654e+002
1.522583e+002, 1.695388e+002
1.527404e+002, 1.687471e+002
1.532225e+002, 1.681445e+002
1.537046e+002, 1.679264e+002
1.541867e+002, 1.677953e+002
1.546688e+002, 1.676273e+002
1.551510e+002, 1.676700e+002
1.556331e+002, 1.673512e+002
1.561152e+002, 1.663881e+002
1.565973e+002, 1.649347e+002
1.570794e+002, 1.636135e+002
1.575615e+002, 1.624563e+002
1.580437e+002, 1.615215e+002
1.585258e+002, 1.608449e+002
1.590079e+002, 1.607670e+002
1.594900e+002, 1.606017e+002
1.599721e+002, 1.600004e+002
1.604542e+002, 1.590677e+002
1.609364e+002, 1.584110e+002
1.614185e+002, 1.584640e+002
1.619006e+002, 1.587796e+002
1.623827e+002, 1.589983e+002
1.628648e+002, 1.591006e+002
1.633469e+002, 1.590079e+002
1.638291e+002, 1.586420e+002
1.643112e+002, 1.580206e+002
1.647933e+002, 1.572978e+002
1.652754e+002, 1.563055e+002
1.657575e+002, 1.553343e+002
1.662396e+002, 1.546900e+002
1.667218e+002, 1.548969e+002
1.672039e+002, 1.551527e+002
1.676860e+002, 1.548125e+002
1.681681e+002, 1.538951e+002
1.686502e+002, 1.531213e+002
1.691323e+002, 1.530818e+002
1.696145e+002, 1.534442e+002
1.700966e+002, 1.537574e+002
1.705787e+002, 1.539544e+002
1.710608e+002, 1.539577e+002
1.715429e+002, 1.536360e+002
1.720250e+002, 1.529731e+002
1.725072e+002, 1.522433e+002
1.729893e+002, 1.514958e+002
1.734714e+002, 1.508258e+002
1.739535e+002, 1.504088e+002
1.744356e+002, 1.506908e+002
1.749177e+002, 1.511045e+002
1.753999e+002, 1.508385e+002
1.758820e+002, 1.497943e+002
1.763641e+002, 1.487472e+002
1.768462e+002, 1.484194e+002
1.773283e+002, 1.486361e+002
1.778104e+002, 1.489501e+002
1.782926e+002, 1.492233e+002
1.787747e+002, 1.494342e+002
1.792568e+002, 1.495784e+002
1.797389e+002, 1.496679e+002
1.802210e+002, 1.495892e+002
1.807031e+002, 1.490422e+002
1.811853e+002, 1.481611e+002
1.816674e+002, 1.474543e+002
1.821495e+002, 1.473480e+002
1.826316e+002, 1.475959e+002
1.831137e+002, 1.475868e+002
1.835958e+002, 1.472465e+002
1.840780e+002, 1.468268e+002
1.845601e+002, 1.466338e+002
1.850422e+002, 1.466544e+002
1.855243e+002, 1.467645e+002
1.860064e+002, 1.470329e+002
1.864885e+002, 1.473665e+002
1.869707e+002, 1.473746e+002
1.874528e+002, 1.469809e+002
1.879349e+002, 1.464183e+002
1.884170e+002, 1.460093e+002
1.888991e+002, 1.457495e+002
1.893812e+002, 1.455638e+002
1.898634e+002, 1.454284e+002
1.903455e+002, 1.453370e+002
1.908276e+002, 1.452492e+002
1.913097e+002, 1.451560e+002
1.917918e+002, 1.450716e+002
1.922739e+002, 1.450206e+002
1.927561e+002, 1.450012e+002
1.932382e+002, 1.450023e+002
1.937203e+002, 1.450576e+002
1.942024e+002, 1.451546e+002
1.946845e+002, 1.451070e+002
1.951666e+002, 1.448584e+002
1.956488e+002, 1.445287e+002
1.961309e+002, 1.443603e+002
1.966130e+002, 1.443662e+002
1.970951e+002, 1.444188e+002
1.975772e+002, 1.444341e+002
1.980593e+002, 1.444115e+002
1.985415e+002, 1.444898e+002
1.990236e+002, 1.447279e+002
1.995057e+002, 1.450133e+002
1.999878e+002, 1.450488e+002
2.004699e+002, 1.447857e+002
2.009520e+002, 1.445151e+002
2.014342e+002, 1.444375e+002
2.019163e+002, 1.445757e+002
2.023984e+002, 1.446001e+002
2.028805e+002, 1.444341e+002
2.033626e+002, 1.441904e+002
2.038447e+002, 1.441955e+002
2.043269e+002, 1.445247e+002
2.048090e+002, 1.448304e+002
2.052911e+002, 1.449016e+002
2.057732e+002, 1.447085e+002
2.062553e+002, 1.444566e+002
2.067374e+002, 1.440762e+002
2.072196e+002, 1.436982e+002
2.077017e+002, 1.437526e+002
2.081838e+002, 1.443952e+002
2.086659e+002, 1.450441e+002
2.091480e+002, 1.453570e+002
2.096301e+002, 1.452719e+002
2.101123e+002, 1.451492e+002
2.105944e+002, 1.450137e+002
2.110765e+002, 1.448512e+002
2.115586e+002, 1.445840e+002
2.120407e+002, 1.441283e+002
2.125228e+002, 1.437576e+002
2.130050e+002, 1.436396e+002
2.134871e+002, 1.438250e+002
2.139692e+002, 1.440836e+002
2.144513e+002, 1.444537e+002
2.149334e+002, 1.448684e+002
2.154155e+002, 1.451129e+002
2.158977e+002, 1.450929e+002
2.163798e+002, 1.450842e+002
2.168619e+002, 1.452862e+002
2.173440e+002, 1.458557e+002
2.178261e+002, 1.461133e+002
2.183082e+002, 1.459017e+002
2.187904e+002, 1.453932e+002
2.192725e+002, 1.451281e+002
2.197546e+002, 1.452168e+002
2.202367e+002, 1.453551e+002
2.207188e+002, 1.453625e+002
2.212009e+002, 1.451220e+002
2.216831e+002, 1.451000e+002
2.221652e+002, 1.454592e+002
2.226473e+002, 1.460079e+002
2.231294e+002, 1.461092e+002
2.236115e+002, 1.454370e+002
2.240936e+002, 1.448654e+002
2.245758e+002, 1.448890e+002
2.250579e+002, 1.459229e+002
2.255400e+002, 1.465129e+002
2.260221e+002, 1.464876e+002
2.265042e+002, 1.460444e+002
2.269863e+002, 1.456972e+002
2.274685e+002, 1.453838e+002
2.279506e+002, 1.452579e+002
2.284327e+002, 1.454365e+002
2.289148e+002, 1.461641e+002
2.293969e+002, 1.466118e+002
2.298790e+002, 1.466292e+002
2.303612e+002, 1.464040e+002
2.308433e+002, 1.464300e+002
2.313254e+002, 1.468598e+002
2.318075e+002, 1.473065e+002
2.322896e+002, 1.476169e+002
2.327717e+002, 1.477898e+002
2.332539e+002, 1.478014e+002
2.337360e+002, 1.475189e+002
2.342181e+002, 1.471187e+002
2.347002e+002, 1.470441e+002
2.351823e+002, 1.475541e+002
2.356644e+002, 1.479942e+002
2.361466e+002, 1.480753e+002
2.366287e+002, 1.476185e+002
2.371108e+002, 1.472829e+002
2.375929e+002, 1.470830e+002
2.380750e+002, 1.470026e+002
2.385571e+002, 1.470424e+002
2.390393e+002, 1.473660e+002
2.395214e+002, 1.475534e+002
2.400035e+002, 1.474251e+002
2.404856e+002, 1.468540e+002
2.409677e+002, 1.463431e+002
2.414498e+002, 1.458241e+002
2.419320e+002, 1.454059e+002
2.424141e+002, 1.453181e+002
2.428962e+002, 1.458392e+002
2.433783e+002, 1.462436e+002
2.438604e+002, 1.462566e+002
2.443425e+002, 1.457500e+002
2.448247e+002, 1.453329e+002
2.453068e+002, 1.450258e+002
2.457889e+002, 1.447973e+002
2.462710e+002, 1.446022e+002
2.467531e+002, 1.444795e+002
2.472352e+002, 1.443203e+002
2.477174e+002, 1.440860e+002
2.481995e+002, 1.437657e+002
2.486816e+002, 1.434229e+002
2.491637e+002, 1.430357e+002
2.496458e+002, 1.426375e+002
2.501279e+002, 1.422525e+002
2.506101e+002, 1.417606e+002
2.510922e+002, 1.415097e+002
2.515743e+002, 1.417199e+002
2.520564e+002, 1.425163e+002
2.525385e+002, 1.427849e+002
2.530206e+002, 1.423049e+002
2.535028e+002, 1.414955e+002
2.539849e+002, 1.408521e+002
2.544670e+002, 1.403491e+002
2.549491e+002, 1.400561e+002
2.554312e+002, 1.400814e+002
2.559133e+002, 1.404579e+002
2.563955e+002, 1.405233e+002
2.568776e+002, 1.401080e+002
2.573597e+002, 1.395698e+002
2.578418e+002, 1.393067e+002
2.583239e+002, 1.394531e+002
2.588061e+002, 1.395427e+002
2.592882e+002, 1.394484e+002
2.597703e+002, 1.391739e+002
2.602524e+002, 1.390464e+002
2.607345e+002, 1.391466e+002
2.612166e+002, 1.392787e+002
2.616988e+002, 1.392476e+002
2.621809e+002, 1.389759e+002
2.626630e+002, 1.387756e+002
2.631451e+002, 1.387559e+002
2.636272e+002, 1.388786e+002
2.641093e+002, 1.387518e+002
2.645915e+002, 1.382379e+002
2.650736e+002, 1.377183e+002
2.655557e+002, 1.375327e+002
2.660378e+002, 1.378134e+002
2.665199e+002, 1.379664e+002
2.670020e+002, 1.378731e+002
2.674842e+002, 1.375889e+002
2.679663e+002, 1.374153e+002
2.684484e+002, 1.374067e+002
2.689305e+002, 1.373827e+002
2.694126e+002, 1.371668e+002
2.698947e+002, 1.366610e+002
2.703769e+002, 1.363904e+002
2.708590e+002, 1.364434e+002
2.713411e+002, 1.367422e+002
2.718232e+002, 1.370560e+002
2.723053e+002, 1.373948e+002
2.727874e+002, 1.377149e+002
2.732696e+002, 1.379868e+002
2.737517e+002, 1.382018e+002
2.742338e+002, 1.384121e+002
2.747159e+002, 1.386013e+002
2.751980e+002, 1.388093e+002
2.756801e+002, 1.391658e+002
2.761623e+002, 1.397200e+002
2.766444e+002, 1.402074e+002
2.771265e+002, 1.403955e+002
2.776086e+002, 1.402427e+002
2.780907e+002, 1.404790e+002
2.785728e+002, 1.412387e+002
2.790550e+002, 1.422087e+002
2.795371e+002, 1.428067e+002
2.800192e+002, 1.429881e+002
2.805013e+002, 1.431596e+002
2.809834e+002, 1.434536e+002
2.814655e+002, 1.438715e+002
2.819477e+002, 1.445144e+002
2.824298e+002, 1.454074e+002
2.829119e+002, 1.464371e+002
2.833940e+002, 1.473416e+002
2.838761e+002, 1.481074e+002
2.843582e+002, 1.492546e+002
2.848404e+002, 1.511612e+002
2.853225e+002, 1.536673e+002
2.858046e+002, 1.558045e+002
2.862867e+002, 1.575134e+002
2.867688e+002, 1.590331e+002
2.872509e+002, 1.606394e+002
2.877331e+002, 1.623173e+002
2.882152e+002, 1.638598e+002
2.886973e+002, 1.652368e+002
2.891794e+002, 1.664299e+002
2.896615e+002, 1.675084e+002
2.901436e+002, 1.685269e+002
2.906258e+002, 1.689253e+002
2.911079e+002, 1.680732e+002
2.915900e+002, 1.661042e+002
2.920721e+002, 1.636795e+002
2.925542e+002, 1.608733e+002
2.930363e+002, 1.578272e+002
2.935185e+002, 1.547412e+002
2.940006e+002, 1.515958e+002
2.944827e+002, 1.486982e+002
2.949648e+002, 1.463402e+002
2.954469e+002, 1.443666e+002
2.959290e+002, 1.422733e+002
2.964112e+002, 1.397896e+002
2.968933e+002, 1.374083e+002
2.973754e+002, 1.360227e+002
2.978575e+002, 1.355268e+002
2.983396e+002, 1.352410e+002
2.988217e+002, 1.348797e+002
2.993039e+002, 1.343990e+002
2.997860e+002, 1.336773e+002
3.002681e+002, 1.326387e+002
3.007502e+002, 1.315307e+002
3.012323e+002, 1.305627e+002
3.017144e+002, 1.297456e+002
3.021966e+002, 1.291689e+002
3.026787e+002, 1.290781e+002
3.031608e+002, 1.291657e+002
3.036429e+002, 1.289968e+002
3.041250e+002, 1.285200e+002
3.046071e+002, 1.279270e+002
3.050893e+002, 1.272377e+002
3.055714e+002, 1.265587e+002
3.060535e+002, 1.261380e+002
3.065356e+002, 1.262859e+002
3.070177e+002, 1.266165e+002
3.074998e+002, 1.267727e+002
3.079820e+002, 1.267455e+002
3.084641e+002, 1.266397e+002
3.089462e+002, 1.264706e+002
3.094283e+002, 1.262847e+002
3.099104e+002, 1.261474e+002
3.103925e+002, 1.261508e+002
3.108747e+002, 1.261611e+002
3.113568e+002, 1.261003e+002
3.118389e+002, 1.259712e+002
3.123210e+002, 1.257877e+002
3.128031e+002, 1.254506e+002
3.132852e+002, 1.251098e+002
3.137674e+002, 1.249108e+002
3.142495e+002, 1.249575e+002
3.147316e+002, 1.250721e+002
3.152137e+002, 1.251996e+002
3.156958e+002, 1.253315e+002
3.161779e+002, 1.254404e+002
3.166601e+002, 1.255265e+002
3.171422e+002, 1.255764e+002
3.176243e+002, 1.255899e+002
3.181064e+002, 1.256011e+002
3.185885e+002, 1.254983e+002
3.190706e+002, 1.251699e+002
3.195528e+002, 1.247047e+002
3.200349e+002, 1.242750e+002
3.205170e+002, 1.238783e+002
3.209991e+002, 1.235689e+002
3.214812e+002, 1.234000e+002
3.219633e+002, 1.234260e+002
3.224455e+002, 1.234007e+002
3.229276e+002, 1.232680e+002
3.234097e+002, 1.230605e+002
3.238918e+002, 1.228186e+002
3.243739e+002, 1.225836e+002
3.248560e+002, 1.222822e+002
3.253382e+002, 1.218225e+002
3.258203e+002, 1.211634e+002
3.263024e+002, 1.207353e+002
3.267845e+002, 1.208014e+002
3.272666e+002, 1.209812e+002
3.277487e+002, 1.209723e+002
3.282309e+002, 1.206159e+002
3.287130e+002, 1.202535e+002
3.291951e+002, 1.199185e+002
3.296772e+002, 1.196071e+002
3.301593e+002, 1.192761e+002
3.306414e+002, 1.188773e+002
3.311236e+002, 1.185074e+002
3.316057e+002, 1.182209e+002
3.320878e+002, 1.180787e+002
3.325699e+002, 1.179024e+002
3.330520e+002, 1.176522e+002
3.335341e+002, 1.173695e+002
3.340163e+002, 1.171878e+002
3.344984e+002, 1.171921e+002
3.349805e+002, 1.171548e+002
3.354626e+002, 1.169464e+002
3.359447e+002, 1.164746e+002
3.364268e+002, 1.162143e+002
3.369090e+002, 1.162693e+002
3.373911e+002, 1.164286e+002
3.378732e+002, 1.163203e+002
3.383553e+002, 1.158495e+002
3.388374e+002, 1.154524e+002
3.393195e+002, 1.153011e+002
3.398017e+002, 1.153853e+002
3.402838e+002, 1.153434e+002
3.407659e+002, 1.151549e+002
3.412480e+002, 1.148955e+002
3.417301e+002, 1.145903e+002
3.422122e+002, 1.142278e+002
3.426944e+002, 1.140300e+002
3.431765e+002, 1.140984e+002
3.436586e+002, 1.143408e+002
3.441407e+002, 1.144538e+002
3.446228e+002, 1.144319e+002
3.451049e+002, 1.143380e+002
3.455871e+002, 1.141688e+002
3.460692e+002, 1.139443e+002
3.465513e+002, 1.138383e+002
3.470334e+002, 1.139045e+002
3.475155e+002, 1.140301e+002
3.479977e+002, 1.140212e+002
3.484798e+002, 1.138904e+002
3.489619e+002, 1.137445e+002
3.494440e+002, 1.136006e+002
3.499261e+002, 1.134910e+002
3.504082e+002, 1.135352e+002
3.508904e+002, 1.137667e+002
3.513725e+002, 1.139774e+002
3.518546e+002, 1.139237e+002
3.523367e+002, 1.136739e+002
3.528188e+002, 1.134079e+002
3.533009e+002, 1.132026e+002
3.537831e+002, 1.130229e+002
3.542652e+002, 1.128341e+002
3.547473e+002, 1.126357e+002
3.552294e+002, 1.124224e+002
3.557115e+002, 1.121847e+002
3.561936e+002, 1.119319e+002
3.566758e+002, 1.116728e+002
3.571579e+002, 1.113753e+002
3.576400e+002, 1.111130e+002
3.581221e+002, 1.109692e+002
3.586042e+002, 1.109144e+002
3.590863e+002, 1.108363e+002
3.595685e+002, 1.106799e+002
3.600506e+002, 1.104793e+002
3.605327e+002, 1.102454e+002
3.610148e+002, 1.099502e+002
3.614969e+002, 1.097052e+002
3.619790e+002, 1.095656e+002
3.624612e+002, 1.095059e+002
3.629433e+002, 1.094799e+002
3.634254e+002, 1.094903e+002
3.639075e+002, 1.095163e+002
3.643896e+002, 1.095528e+002
3.648717e+002, 1.096001e+002
3.653539e+002, 1.096438e+002
3.658360e+002, 1.097593e+002
3.663181e+002, 1.098306e+002
3.668002e+002, 1.097555e+002
3.672823e+002, 1.093567e+002
3.677644e+002, 1.089914e+002
3.682466e+002, 1.086160e+002
3.687287e+002, 1.082604e+002
3.692108e+002, 1.082558e+002
3.696929e+002, 1.092326e+002
3.701750e+002, 1.100107e+002
3.706571e+002, 1.099472e+002
3.711393e+002, 1.083220e+002
3.716214e+002, 1.071212e+002
3.721035e+002, 1.065056e+002
3.725856e+002, 1.062666e+002
3.730677e+002, 1.059228e+002
3.735498e+002, 1.053457e+002
3.740320e+002, 1.049073e+002
3.745141e+002, 1.047958e+002
3.749962e+002, 1.050645e+002
3.754783e+002, 1.051933e+002
3.759604e+002, 1.051756e+002
3.764425e+002, 1.050278e+002
3.769247e+002, 1.047309e+002
3.774068e+002, 1.042583e+002
3.778889e+002, 1.038188e+002
3.783710e+002, 1.034782e+002
3.788531e+002, 1.032115e+002
3.793352e+002, 1.028720e+002
3.798174e+002, 1.024397e+002
3.802995e+002, 1.020884e+002
3.807816e+002, 1.020088e+002
3.812637e+002, 1.021668e+002
3.817458e+002, 1.022953e+002
3.822279e+002, 1.023744e+002
3.827101e+002, 1.023775e+002
3.831922e+002, 1.022221e+002
3.836743e+002, 1.019287e+002
3.841564e+002, 1.016480e+002
3.846385e+002, 1.014689e+002
3.851206e+002, 1.013559e+002
3.856028e+002, 1.012407e+002
3.860849e+002, 1.011211e+002
3.865670e+002, 1.009948e+002
3.870491e+002, 1.008500e+002
3.875312e+002, 1.006965e+002
3.880133e+002, 1.005513e+002
3.884955e+002, 1.003987e+002
3.889776e+002, 1.002748e+002
3.894597e+002, 1.002714e+002
3.899418e+002, 1.003577e+002
3.904239e+002, 1.003491e+002
3.909060e+002, 1.000264e+002
3.913882e+002, 9.961462e+001
3.918703e+002, 9.931951e+001
3.923524e+002, 9.920305e+001
3.928345e+002, 9.916015e+001
3.933166e+002, 9.923222e+001
3.937987e+002, 9.933730e+001
3.942809e+002, 9.931107e+001
3.947630e+002, 9.902583e+001
3.952451e+002, 9.866251e+001
3.957272e+002, 9.822333e+001
3.962093e+002, 9.766278e+001
3.966914e+002, 9.735593e+001
3.971736e+002, 9.754044e+001
3.976557e+002, 9.793233e+001
3.981378e+002, 9.827164e+001
3.986199e+002, 9.867323e+001
3.991020e+002, 9.885121e+001
3.995841e+002, 9.865664e+001
4.000663e+002, 9.815687e+001
4.005484e+002, 9.779914e+001
4.010305e+002, 9.758627e+001
4.015126e+002, 9.751279e+001
4.019947e+002, 9.762926e+001
4.024768e+002, 9.818672e+001
4.029590e+002, 9.830981e+001
4.034411e+002, 9.781338e+001
4.039232e+002, 9.702277e+001
4.044053e+002, 9.650016e+001
4.048874e+002, 9.628595e+001
4.053695e+002, 9.623040e+001
4.058517e+002, 9.635281e+001
4.063338e+002, 9.663040e+001
4.068159e+002, 9.667802e+001
4.072980e+002, 9.643915e+001
4.077801e+002, 9.616923e+001
4.082622e+002, 9.619059e+001
4.087444e+002, 9.648221e+001
4.092265e+002, 9.652311e+001
4.097086e+002, 9.611015e+001
4.101907e+002, 9.552925e+001
4.106728e+002, 9.541028e+001
4.111549e+002, 9.571535e+001
4.116371e+002, 9.604562e+001
4.121192e+002, 9.618468e+001
4.126013e+002, 9.616672e+001
4.130834e+002, 9.600044e+001
4.135655e+002, 9.565718e+001
4.140476e+002, 9.538865e+001
4.145298e+002, 9.552837e+001
4.150119e+002, 9.591535e+001
4.154940e+002, 9.623063e+001
4.159761e+002, 9.638418e+001
4.164582e+002, 9.638114e+001
4.169403e+002, 9.615263e+001
4.174225e+002, 9.573357e+001
4.179046e+002, 9.533656e+001
4.183867e+002, 9.504528e+001
4.188688e+002, 9.485767e+001
4.193509e+002, 9.479546e+001
4.198330e+002, 9.492560e+001
4.203152e+002, 9.504354e+001
4.207973e+002, 9.514754e+001
4.212794e+002, 9.517944e+001
4.217615e+002, 9.503526e+001
4.222436e+002, 9.429974e+001
4.227257e+002, 9.375020e+001
4.232079e+002, 9.375079e+001
4.236900e+002, 9.440853e+001
4.241721e+002, 9.487141e+001
4.246542e+002, 9.501299e+001
4.251363e+002, 9.497530e+001
4.256184e+002, 9.485461e+001
4.261006e+002, 9.458015e+001
4.265827e+002, 9.432787e+001
4.270648e+002, 9.407535e+001
4.275469e+002, 9.385303e+001
4.280290e+002, 9.380109e+001
4.285111e+002, 9.402002e+001
4.289933e+002, 9.420619e+001
4.294754e+002, 9.415260e+001
4.299575e+002, 9.377730e+001
4.304396e+002, 9.385735e+001
4.309217e+002, 9.458087e+001
4.314038e+002, 9.535829e+001
4.318860e+002, 9.530720e+001
4.323681e+002, 9.439137e+001
4.328502e+002, 9.366199e+001
4.333323e+002, 9.345783e+001
4.338144e+002, 9.358540e+001
4.342965e+002, 9.350182e+001
4.347787e+002, 9.321245e+001
4.352608e+002, 9.296200e+001
4.357429e+002, 9.299515e+001
4.362250e+002, 9.319742e+001
4.367071e+002, 9.327551e+001
4.371892e+002, 9.318236e+001
4.376714e+002, 9.302223e+001
4.381535e+002, 9.285300e+001
4.386356e+002, 9.270220e+001
4.391177e+002, 9.263225e+001
4.395998e+002, 9.273756e+001
4.400819e+002, 9.288738e+001
4.405641e+002, 9.292817e+001
4.410462e+002, 9.287713e+001
4.415283e+002, 9.293231e+001
4.420104e+002, 9.340652e+001
4.424925e+002, 9.391911e+001
4.429746e+002, 9.412644e+001
4.434568e+002, 9.379529e+001
4.439389e+002, 9.345113e+001
4.444210e+002, 9.319168e+001
4.449031e+002, 9.303432e+001
4.453852e+002, 9.301266e+001
4.458673e+002, 9.330651e+001
4.463495e+002, 9.357269e+001
4.468316e+002, 9.369154e+001
4.473137e+002, 9.363449e+001
4.477958e+002, 9.362780e+001
4.482779e+002, 9.377343e+001
4.487600e+002, 9.388701e+001
4.492422e+002, 9.381877e+001
4.497243e+002, 9.345356e+001
4.502064e+002, 9.314532e+001
4.506885e+002, 9.291300e+001
4.511706e+002, 9.275345e+001
4.516527e+002, 9.267592e+001
4.521349e+002, 9.270245e+001
4.526170e+002, 9.272805e+001
4.530991e+002, 9.269567e+001
4.535812e+002, 9.260786e+001
4.540633e+002, 9.255551e+001
4.545454e+002, 9.253406e+001
4.550276e+002, 9.256006e+001
4.555097e+002, 9.266901e+001
4.559918e+002, 9.284901e+001
4.564739e+002, 9.304178e+001
4.569560e+002, 9.327667e+001
4.574381e+002, 9.345606e+001
4.579203e+002, 9.340196e+001
4.584024e+002, 9.314571e+001
4.588845e+002, 9.282779e+001
4.593666e+002, 9.246546e+001
4.598488e+002, 9.212244e+001
4.603309e+002, 9.187484e+001
4.608130e+002, 9.172957e+001
4.612951e+002, 9.168134e+001
4.617772e+002, 9.174850e+001
4.622593e+002, 9.190563e+001
4.627415e+002, 9.212363e+001
4.632236e+002, 9.262518e+001
4.637057e+002, 9.295015e+001
4.641878e+002, 9.279796e+001
4.646699e+002, 9.229480e+001
4.651520e+002, 9.187901e+001
4.656342e+002, 9.165270e+001
4.661163e+002, 9.155733e+001
4.665984e+002, 9.159655e+001
4.670805e+002, 9.184924e+001
4.675626e+002, 9.200983e+001
4.680447e+002, 9.201056e+001
4.685269e+002, 9.195518e+001
4.690090e+002, 9.194221e+001
4.694911e+002, 9.195850e+001
4.699732e+002, 9.204091e+001
4.704553e+002, 9.218349e+001
4.709374e+002, 9.239487e+001
4.714196e+002, 9.280610e+001
4.719017e+002, 9.355748e+001
4.723838e+002, 9.406219e+001
4.728659e+002, 9.385113e+001
4.733480e+002, 9.292106e+001
4.738301e+002, 9.233807e+001
4.743123e+002, 9.215304e+001
4.747944e+002, 9.216553e+001
4.752765e+002, 9.215926e+001
4.757586e+002, 9.214399e+001
4.762407e+002, 9.218018e+001
4.767228e+002, 9.232271e+001
4.772050e+002, 9.248589e+001
4.776871e+002, 9.253726e+001
4.781692e+002, 9.248978e+001
4.786513e+002, 9.240076e+001
4.791334e+002, 9.222538e+001
4.796155e+002, 9.207069e+001
4.800977e+002, 9.208007e+001
4.805798e+002, 9.229151e+001
4.810619e+002, 9.250594e+001
4.815440e+002, 9.254482e+001
4.820261e+002, 9.254101e+001
4.825082e+002, 9.264899e+001
4.829904e+002, 9.312844e+001
4.834725e+002, 9.350304e+001
4.839546e+002, 9.362011e+001
4.844367e+002, 9.350851e+001
4.849188e+002, 9.330222e+001
4.854009e+002, 9.282185e+001
4.858831e+002, 9.242604e+001
4.863652e+002, 9.227118e+001
4.868473e+002, 9.244143e+001
4.873294e+002, 9.254053e+001
4.878115e+002, 9.250714e+001
4.882936e+002, 9.245661e+001
4.887758e+002, 9.253915e+001
4.892579e+002, 9.284275e+001
4.897400e+002, 9.296854e+001
4.902221e+002, 9.276633e+001
4.907042e+002, 9.239561e+001
4.911863e+002, 9.241379e+001
4.916685e+002, 9.286491e+001
4.921506e+002, 9.325417e+001
4.926327e+002, 9.322986e+001
4.931148e+002, 9.289436e+001
4.935969e+002, 9.272474e+001
4.940790e+002, 9.273555e+001
4.945612e+002, 9.283252e+001
4.950433e+002, 9.297751e+001
4.955254e+002, 9.313665e+001
4.960075e+002, 9.324123e+001
4.964896e+002, 9.328204e+001
4.969717e+002, 9.324574e+001
4.974539e+002, 9.299540e+001
4.979360e+002, 9.264394e+001
4.984181e+002, 9.249483e+001
4.989002e+002, 9.293771e+001
4.993823e+002, 9.343523e+001
4.998644e+002, 9.359530e+001
5.003466e+002, 9.336005e+001
5.008287e+002, 9.324540e+001
5.013108e+002, 9.353624e+001
5.017929e+002, 9.393189e+001
5.022750e+002, 9.420236e+001
5.027571e+002, 9.430656e+001
5.032393e+002, 9.429662e+001
5.037214e+002, 9.407234e+001
5.042035e+002, 9.375916e+001
5.046856e+002, 9.362218e+001
5.051677e+002, 9.371598e+001
5.056498e+002, 9.389717e+001
5.061320e+002, 9.417461e+001
5.066141e+002, 9.454066e+001
5.070962e+002, 9.468165e+001
5.075783e+002, 9.454771e+001
5.080604e+002, 9.436064e+001
5.085425e+002, 9.434135e+001
5.090247e+002, 9.446862e+001
5.095068e+002, 9.441016e+001
5.099889e+002, 9.406818e+001
5.104710e+002, 9.371677e+001
5.109531e+002, 9.382259e+001
5.114352e+002, 9.427017e+001
5.119174e+002, 9.463502e+001
5.123995e+002, 9.468398e+001
5.128816e+002, 9.458904e+001
5.133637e+002, 9.449686e+001
5.138458e+002, 9.441763e+001
5.143279e+002, 9.441719e+001
5.148101e+002, 9.466073e+001
5.152922e+002, 9.491825e+001
5.157743e+002, 9.497515e+001
5.162564e+002, 9.472987e+001
5.167385e+002, 9.452451e+001
5.172206e+002, 9.444269e+001
5.177028e+002, 9.447580e+001
5.181849e+002, 9.461590e+001
5.186670e+002, 9.506573e+001
5.191491e+002, 9.538608e+001
5.196312e+002, 9.548016e+001
5.201133e+002, 9.539146e+001
5.205955e+002, 9.530620e+001
5.210776e+002, 9.526473e+001
5.215597e+002, 9.516264e+001
5.220418e+002, 9.490076e+001
5.225239e+002, 9.444019e+001
5.230060e+002, 9.429523e+001
5.234882e+002, 9.454120e+001
5.239703e+002, 9.489317e+001
5.244524e+002, 9.505762e+001
5.249345e+002, 9.504490e+001
5.254166e+002, 9.499879e+001
5.258987e+002, 9.491376e+001
5.263809e+002, 9.486871e+001
5.268630e+002, 9.508715e+001
5.273451e+002, 9.548613e+001
5.278272e+002, 9.572454e+001
5.283093e+002, 9.548034e+001
5.287914e+002, 9.507321e+001
5.292736e+002, 9.479120e+001
5.297557e+002, 9.464392e+001
5.302378e+002, 9.469122e+001
5.307199e+002, 9.521348e+001
5.312020e+002, 9.579873e+001
5.316841e+002, 9.607171e+001
5.321663e+002, 9.579424e+001
5.326484e+002, 9.559041e+001
5.331305e+002, 9.572684e+001
5.336126e+002, 9.599876e+001
5.340947e+002, 9.611083e+001
5.345768e+002, 9.574024e+001
5.350590e+002, 9.558917e+001
5.355411e+002, 9.591957e+001
5.360232e+002, 9.660719e+001
5.365053e+002, 9.682745e+001
5.369874e+002, 9.635931e+001
5.374695e+002, 9.591881e+001
5.379517e+002, 9.597482e+001
5.384338e+002, 9.657247e+001
5.389159e+002, 9.663728e+001
5.393980e+002, 9.604647e+001
5.398801e+002, 9.540956e+001
5.403622e+002, 9.558507e+001
5.408444e+002, 9.636909e+001
5.413265e+002, 9.676375e+001
5.418086e+002, 9.642765e+001
5.422907e+002, 9.586342e+001
5.427728e+002, 9.570719e+001
5.432549e+002, 9.585539e+001
5.437371e+002, 9.601835e+001
5.442192e+002, 9.601702e+001
5.447013e+002, 9.599606e+001
5.451834e+002, 9.610035e+001
5.456655e+002, 9.632162e+001
5.461476e+002, 9.646761e+001
5.466298e+002, 9.646827e+001
5.471119e+002, 9.636140e+001
5.475940e+002, 9.613940e+001
5.480761e+002, 9.561922e+001
5.485582e+002, 9.536572e+001
5.490403e+002, 9.560372e+001
5.495225e+002, 9.603651e+001
5.500046e+002, 9.630753e+001
5.504867e+002, 9.633196e+001
5.509688e+002, 9.637148e+001
5.514509e+002, 9.649845e+001
5.519330e+002, 9.666349e+001
5.524152e+002, 9.665049e+001
5.528973e+002, 9.642156e+001
5.533794e+002, 9.623542e+001
5.538615e+002, 9.626057e+001
5.543436e+002, 9.645169e+001
5.548257e+002, 9.658662e+001
5.553079e+002, 9.666515e+001
5.557900e+002, 9.666136e+001
5.562721e+002, 9.650455e+001
5.567542e+002, 9.625829e+001
5.572363e+002, 9.603271e+001
5.577184e+002, 9.584331e+001
5.582006e+002, 9.570232e+001
5.586827e+002, 9.568932e+001
5.591648e+002, 9.572093e+001
5.596469e+002, 9.565500e+001
5.601290e+002, 9.527509e+001
5.606111e+002, 9.495130e+001
5.610933e+002, 9.487804e+001
5.615754e+002, 9.501646e+001
5.620575e+002, 9.509583e+001
5.625396e+002, 9.495358e+001
5.630217e+002, 9.486490e+001
5.635038e+002, 9.498587e+001
5.639860e+002, 9.542296e+001
5.644681e+002, 9.551794e+001
5.649502e+002, 9.506332e+001
5.654323e+002, 9.458661e+001
5.659144e+002, 9.471539e+001
5.663965e+002, 9.552707e+001
5.668787e+002, 9.599673e+001
5.673608e+002, 9.592583e+001
5.678429e+002, 9.556113e+001
5.683250e+002, 9.525117e+001
5.688071e+002, 9.500385e+001
5.692892e+002, 9.488464e+001
5.697714e+002, 9.500892e+001
5.702535e+002, 9.522243e+001
5.707356e+002, 9.527748e+001
5.712177e+002, 9.520926e+001
5.716998e+002, 9.521836e+001
5.721819e+002, 9.563815e+001
5.726641e+002, 9.603752e+001
5.731462e+002, 9.599586e+001
5.736283e+002, 9.534999e+001
5.741104e+002, 9.488908e+001
5.745925e+002, 9.500777e+001
5.750746e+002, 9.533022e+001
5.755568e+002, 9.551653e+001
5.760389e+002, 9.539196e+001
5.765210e+002, 9.533458e+001
5.770031e+002, 9.544259e+001
5.774852e+002, 9.559098e+001
5.779673e+002, 9.545801e+001
5.784495e+002, 9.487651e+001
5.789316e+002, 9.456430e+001
5.794137e+002, 9.485619e+001
5.798958e+002, 9.556882e+001
5.803779e+002, 9.591095e+001
5.808600e+002, 9.587032e+001
5.813422e+002, 9.573022e+001
5.818243e+002, 9.562563e+001
5.823064e+002, 9.557335e+001
5.827885e+002, 9.562439e+001
5.832706e+002, 9.578586e+001
5.837527e+002, 9.599937e+001
5.842349e+002, 9.631204e+001
5.847170e+002, 9.661343e+001
5.851991e+002, 9.675997e+001
5.856812e+002, 9.666504e+001
5.861633e+002, 9.649498e+001
5.866454e+002, 9.625716e+001
5.871276e+002, 9.599921e+001
5.876097e+002, 9.581166e+001
5.880918e+002, 9.581931e+001
5.885739e+002, 9.577087e+001
5.890560e+002, 9.551897e+001
5.895381e+002, 9.512610e+001
5.900203e+002, 9.509427e+001
5.905024e+002, 9.563168e+001
5.909845e+002, 9.611740e+001
5.914666e+002, 9.619006e+001
5.919487e+002, 9.584470e+001
5.924308e+002, 9.570816e+001
5.929130e+002, 9.580279e+001
5.933951e+002, 9.599799e+001
5.938772e+002, 9.623389e+001
5.943593e+002, 9.647235e+001
5.948414e+002, 9.656969e+001
5.953235e+002, 9.648087e+001
5.958057e+002, 9.631223e+001
5.962878e+002, 9.607820e+001
5.967699e+002, 9.585143e+001
5.972520e+002, 9.576999e+001
5.977341e+002, 9.603721e+001
5.982162e+002, 9.631558e+001
5.986984e+002, 9.642081e+001
5.991805e+002, 9.639224e+001
5.996626e+002, 9.639221e+001
6.001447e+002, 9.648903e+001
6.006268e+002, 9.658730e+001
6.011089e+002, 9.666943e+001
6.015911e+002, 9.674227e+001
6.020732e+002, 9.669613e+001
6.025553e+002, 9.643398e+001
6.030374e+002, 9.620852e+001
6.035195e+002, 9.622784e+001
6.040016e+002, 9.651347e+001
6.044838e+002, 9.679642e+001
6.049659e+002, 9.709503e+001
6.054480e+002, 9.727640e+001
6.059301e+002, 9.703857e+001
6.064122e+002, 9.650268e+001
6.068943e+002, 9.617029e+001
6.073765e+002, 9.624515e+001
6.078586e+002, 9.646324e+001
6.083407e+002, 9.657614e+001
6.088228e+002, 9.660431e+001
6.093049e+002, 9.659503e+001
6.097870e+002, 9.649344e+001
6.102692e+002, 9.642794e+001
6.107513e+002, 9.652118e+001
6.112334e+002, 9.675267e+001
6.117155e+002, 9.687115e+001
6.121976e+002, 9.669650e+001
6.126797e+002, 9.651598e+001
6.131619e+002, 9.649580e+001
6.136440e+002, 9.672293e+001
6.141261e+002, 9.668095e+001
6.146082e+002, 9.623479e+001
6.150903e+002, 9.573158e+001
6.155724e+002, 9.549007e+001
6.160546e+002, 9.551894e+001
6.165367e+002, 9.558482e+001
6.170188e+002, 9.566826e+001
6.175009e+002, 9.575806e+001
6.179830e+002, 9.581388e+001
6.184651e+002, 9.585745e+001
6.189473e+002, 9.597690e+001
6.194294e+002, 9.632260e+001
6.199115e+002, 9.661778e+001
6.203936e+002, 9.644881e+001
6.208757e+002, 9.598816e+001
6.213578e+002, 9.574905e+001
6.218400e+002, 9.629309e+001
6.223221e+002, 9.682246e+001
6.228042e+002, 9.689133e+001
6.232863e+002, 9.647500e+001
6.237684e+002, 9.609080e+001
6.242505e+002, 9.576670e+001
6.247327e+002, 9.550930e+001
6.252148e+002, 9.531615e+001
6.256969e+002, 9.516914e+001
6.261790e+002, 9.518752e+001
6.266611e+002, 9.543026e+001
6.271432e+002, 9.571502e+001
6.276254e+002, 9.581569e+001
6.281075e+002, 9.574845e+001
6.285896e+002, 9.579485e+001
6.290717e+002, 9.603662e+001
6.295538e+002, 9.630235e+001
6.300359e+002, 9.633976e+001
6.305181e+002, 9.621566e+001
6.310002e+002, 9.609838e+001
6.314823e+002, 9.602080e+001
6.319644e+002, 9.600748e+001
6.324465e+002, 9.615630e+001
6.329286e+002, 9.639617e+001
6.334108e+002, 9.650314e+001
6.338929e+002, 9.623487e+001
6.343750e+002, 9.597775e+001
6.348571e+002, 9.589021e+001
6.353392e+002, 9.598440e+001
6.358214e+002, 9.611395e+001
6.363035e+002, 9.635255e+001
6.367856e+002, 9.652630e+001
6.372677e+002, 9.651269e+001
6.377498e+002, 9.628037e+001
6.382319e+002, 9.609703e+001
6.387141e+002, 9.595552e+001
6.391962e+002, 9.588832e+001
6.396783e+002, 9.602151e+001
6.401604e+002, 9.627409e+001
6.406425e+002, 9.629417e+001
6.411246e+002, 9.595752e+001
6.416068e+002, 9.557674e+001
6.420889e+002, 9.546227e+001
6.425710e+002, 9.552734e+001
6.430531e+002, 9.562511e+001
6.435352e+002, 9.577331e+001
6.440173e+002, 9.586600e+001
6.444995e+002, 9.578201e+001
6.449816e+002, 9.560217e+001
6.454637e+002, 9.555880e+001
6.459458e+002, 9.577938e+001
6.464279e+002, 9.604412e+001
6.469100e+002, 9.633250e+001
6.473922e+002, 9.663667e+001
6.478743e+002, 9.682707e+001
6.483564e+002, 9.689658e+001
6.488385e+002, 9.687614e+001
6.493206e+002, 9.670338e+001
6.498027e+002, 9.641546e+001
6.502849e+002, 9.641698e+001
6.507670e+002, 9.672387e+001
6.512491e+002, 9.705661e+001
6.517312e+002, 9.716849e+001
6.522133e+002, 9.713461e+001
6.526954e+002, 9.706788e+001
6.531776e+002, 9.698284e+001
6.536597e+002, 9.689005e+001
6.541418e+002, 9.682265e+001
6.546239e+002, 9.673878e+001
6.551060e+002, 9.658959e+001
6.555881e+002, 9.615142e+001
6.560703e+002, 9.590697e+001
6.565524e+002, 9.605901e+001
6.570345e+002, 9.641219e+001
6.575166e+002, 9.663913e+001
6.579987e+002, 9.674197e+001
6.584808e+002, 9.670218e+001
6.589630e+002, 9.644567e+001
6.594451e+002, 9.607555e+001
6.599272e+002, 9.596660e+001
6.604093e+002, 9.611945e+001
6.608914e+002, 9.631708e+001
6.613735e+002, 9.654963e+001
6.618557e+002, 9.671061e+001
6.623378e+002, 9.647263e+001
6.628199e+002, 9.589443e+001
6.633020e+002, 9.549610e+001
6.637841e+002, 9.587569e+001
6.642662e+002, 9.639145e+001
6.647484e+002, 9.646658e+001
6.652305e+002, 9.594642e+001
6.657126e+002, 9.558761e+001
6.661947e+002, 9.570475e+001
6.666768e+002, 9.596245e+001
6.671589e+002, 9.612452e+001
6.676411e+002, 9.617855e+001
6.681232e+002, 9.614059e+001
6.686053e+002, 9.593909e+001
6.690874e+002, 9.574154e+001
6.695695e+002, 9.579636e+001
6.700516e+002, 9.609999e+001
6.705338e+002, 9.639227e+001
6.710159e+002, 9.667745e+001
6.714980e+002, 9.679965e+001
6.719801e+002, 9.629958e+001
6.724622e+002, 9.542642e+001
6.729443e+002, 9.488181e+001
6.734265e+002, 9.523892e+001
6.739086e+002, 9.575124e+001
6.743907e+002, 9.591327e+001
6.748728e+002, 9.582042e+001
6.753549e+002, 9.576183e+001
6.758370e+002, 9.596706e+001
6.763192e+002, 9.607625e+001
6.768013e+002, 9.584696e+001
6.772834e+002, 9.532841e+001
6.777655e+002, 9.520619e+001
6.782476e+002, 9.569878e+001
6.787297e+002, 9.613748e+001
6.792119e+002, 9.612248e+001
6.796940e+002, 9.568426e+001
6.801761e+002, 9.540923e+001
6.806582e+002, 9.529942e+001
6.811403e+002, 9.534904e+001
6.816224e+002, 9.575638e+001
6.821046e+002, 9.626855e+001
6.825867e+002, 9.628614e+001
6.830688e+002, 9.566462e+001
6.835509e+002, 9.517136e+001
6.840330e+002, 9.549707e+001
6.845151e+002, 9.613380e+001
6.849973e+002, 9.656306e+001
6.854794e+002, 9.656726e+001
6.859615e+002, 9.654896e+001
6.864436e+002, 9.661061e+001
6.869257e+002, 9.666261e+001
6.874078e+002, 9.658710e+001
6.878900e+002, 9.632088e+001
6.883721e+002, 9.608460e+001
6.888542e+002, 9.588489e+001
6.893363e+002, 9.576594e+001
6.898184e+002, 9.588177e+001
6.903005e+002, 9.621069e+001
6.907827e+002, 9.648891e+001
6.912648e+002, 9.660550e+001
6.917469e+002, 9.662508e+001
6.922290e+002, 9.659650e+001
6.927111e+002, 9.654099e+001
6.931932e+002, 9.652969e+001
6.936754e+002, 9.662518e+001
6.941575e+002, 9.674999e+001
6.946396e+002, 9.682421e+001
6.951217e+002, 9.685934e+001
6.956038e+002, 9.703416e+001
6.960859e+002, 9.772631e+001
6.965681e+002, 9.817923e+001
6.970502e+002, 9.802382e+001
6.975323e+002, 9.722664e+001
6.980144e+002, 9.666260e+001
6.984965e+002, 9.634200e+001
6.989786e+002, 9.621994e+001
6.994608e+002, 9.632597e+001
6.999429e+002, 9.661617e+001
7.004250e+002, 9.695009e+001
7.009071e+002, 9.733437e+001
7.013892e+002, 9.753890e+001
7.018713e+002, 9.713483e+001
7.023535e+002, 9.653275e+001
7.028356e+002, 9.627251e+001
7.033177e+002, 9.656117e+001
7.037998e+002, 9.687366e+001
7.042819e+002, 9.693303e+001
7.047640e+002, 9.694942e+001
7.052462e+002, 9.717115e+001
7.057283e+002, 9.798625e+001
7.062104e+002, 9.833199e+001
7.066925e+002, 9.797045e+001
7.071746e+002, 9.730443e+001
7.076567e+002, 9.700516e+001
7.081389e+002, 9.710329e+001
7.086210e+002, 9.707053e+001
7.091031e+002, 9.673051e+001
7.095852e+002, 9.630003e+001
7.100673e+002, 9.611444e+001
7.105494e+002, 9.613811e+001
7.110316e+002, 9.625733e+001
7.115137e+002, 9.649390e+001
7.119958e+002, 9.674157e+001
7.124779e+002, 9.694992e+001
7.129600e+002, 9.711675e+001
7.134421e+002, 9.723170e+001
7.139243e+002, 9.727382e+001
7.144064e+002, 9.728328e+001
7.148885e+002, 9.726214e+001
7.153706e+002, 9.721526e+001
7.158527e+002, 9.718531e+001
7.163348e+002, 9.718130e+001
7.168170e+002, 9.716434e+001
7.172991e+002, 9.708360e+001
7.177812e+002, 9.697021e+001
7.182633e+002, 9.704414e+001
7.187454e+002, 9.729916e+001
7.192275e+002, 9.747942e+001
7.197097e+002, 9.731681e+001
7.201918e+002, 9.702768e+001
7.206739e+002, 9.687061e+001
7.211560e+002, 9.686865e+001
7.216381e+002, 9.689757e+001
7.221202e+002, 9.691963e+001
7.226024e+002, 9.693850e+001
7.230845e+002, 9.693236e+001
7.235666e+002, 9.682992e+001
7.240487e+002, 9.696170e+001
7.245308e+002, 9.752557e+001
7.250129e+002, 9.806452e+001
7.254951e+002, 9.814425e+001
7.259772e+002, 9.773474e+001
7.264593e+002, 9.742502e+001
7.269414e+002, 9.725498e+001
7.274235e+002, 9.719298e+001
7.279056e+002, 9.724702e+001
7.283878e+002, 9.737529e+001
7.288699e+002, 9.747112e+001
7.293520e+002, 9.747276e+001
7.298341e+002, 9.755021e+001
7.303162e+002, 9.793570e+001
7.307983e+002, 9.841977e+001
7.312805e+002, 9.874401e+001
7.317626e+002, 9.881033e+001
7.322447e+002, 9.875468e+001
7.327268e+002, 9.850859e+001
7.332089e+002, 9.819886e+001
7.336910e+002, 9.804932e+001
7.341732e+002, 9.810457e+001
7.346553e+002, 9.810365e+001
7.351374e+002, 9.794094e+001
7.356195e+002, 9.777402e+001
7.361016e+002, 9.797394e+001
7.365837e+002, 9.846233e+001
7.370659e+002, 9.890527e+001
7.375480e+002, 9.922682e+001
7.380301e+002, 9.937690e+001
7.385122e+002, 9.918611e+001
7.389943e+002, 9.878139e+001
7.394764e+002, 9.849128e+001
7.399586e+002, 9.843259e+001
7.404407e+002, 9.849999e+001
7.409228e+002, 9.878133e+001
7.414049e+002, 9.918687e+001
7.418870e+002, 9.929151e+001
7.423691e+002, 9.897733e+001
7.428513e+002, 9.866295e+001
7.433334e+002, 9.844042e+001
7.438155e+002, 9.835506e+001
7.442976e+002, 9.877615e+001
7.447797e+002, 9.966506e+001
7.452618e+002, 1.002916e+002
7.457440e+002, 9.994078e+001
7.462261e+002, 9.924590e+001
7.467082e+002, 9.895200e+001
7.471903e+002, 9.904631e+001
7.476724e+002, 9.914873e+001
7.481545e+002, 9.903871e+001
7.486367e+002, 9.893649e+001
7.491188e+002, 9.900720e+001
7.496009e+002, 9.929020e+001
7.500830e+002, 9.934818e+001
7.505651e+002, 9.903741e+001
7.510472e+002, 9.876316e+001
7.515294e+002, 9.880749e+001
7.520115e+002, 9.915762e+001
7.524936e+002, 9.941916e+001
7.529757e+002, 9.959640e+001
7.534578e+002, 9.964197e+001
7.539399e+002, 9.937128e+001
7.544221e+002, 9.900172e+001
7.549042e+002, 9.886063e+001
7.553863e+002, 9.899095e+001
7.558684e+002, 9.924725e+001
7.563505e+002, 9.983160e+001
7.568326e+002, 1.003304e+002
7.573148e+002, 1.003644e+002
7.577969e+002, 9.959004e+001
7.582790e+002, 9.919290e+001
7.587611e+002, 9.934969e+001
7.592432e+002, 9.964165e+001
7.597253e+002, 9.967840e+001
7.602075e+002, 9.945138e+001
7.606896e+002, 9.935285e+001
7.611717e+002, 9.942010e+001
7.616538e+002, 9.956771e+001
7.621359e+002, 9.980945e+001
7.626180e+002, 1.000398e+002
7.631002e+002, 9.999630e+001
7.635823e+002, 9.949597e+001
7.640644e+002, 9.917536e+001
7.645465e+002, 9.959616e+001
7.650286e+002, 1.002734e+002
7.655107e+002, 1.006818e+002
7.659929e+002, 1.005188e+002
7.664750e+002, 1.004400e+002
7.669571e+002, 1.004943e+002
7.674392e+002, 1.005887e+002
7.679213e+002, 1.005977e+002
7.684034e+002, 1.005179e+002
7.688856e+002, 1.004325e+002
7.693677e+002, 1.003288e+002
7.698498e+002, 1.003085e+002
7.703319e+002, 1.005990e+002
7.708140e+002, 1.010596e+002
7.712961e+002, 1.013972e+002
7.717783e+002, 1.014942e+002
7.722604e+002, 1.014983e+002
7.727425e+002, 1.014003e+002
7.732246e+002, 1.012830e+002
7.737067e+002, 1.012745e+002
7.741888e+002, 1.014766e+002
7.746710e+002, 1.016625e+002
7.751531e+002, 1.018322e+002
7.756352e+002, 1.019619e+002
7.761173e+002, 1.019923e+002
7.765994e+002, 1.019212e+002
7.770815e+002, 1.018420e+002
7.775637e+002, 1.017590e+002
7.780458e+002, 1.017169e+002
7.785279e+002, 1.018405e+002
7.790100e+002, 1.020517e+002
7.794921e+002, 1.021712e+002
7.799742e+002, 1.019617e+002
7.804564e+002, 1.018342e+002
7.809385e+002, 1.020568e+002
7.814206e+002, 1.024780e+002
7.819027e+002, 1.027745e+002
7.823848e+002, 1.029130e+002
7.828669e+002, 1.029406e+002
7.833491e+002, 1.028355e+002
7.838312e+002, 1.026453e+002
7.843133e+002, 1.024778e+002
7.847954e+002, 1.023344e+002
7.852775e+002, 1.021989e+002
7.857596e+002, 1.020327e+002
7.862418e+002, 1.019253e+002
7.867239e+002, 1.020860e+002
7.872060e+002, 1.024059e+002
7.876881e+002, 1.026232e+002
7.881702e+002, 1.024878e+002
7.886523e+002, 1.023671e+002
7.891345e+002, 1.024073e+002
7.896166e+002, 1.025757e+002
7.900987e+002, 1.027740e+002
7.905808e+002, 1.030665e+002
7.910629e+002, 1.032389e+002
7.915450e+002, 1.031926e+002
7.920272e+002, 1.030273e+002
7.925093e+002, 1.030423e+002
7.929914e+002, 1.032225e+002
7.934735e+002, 1.033969e+002
7.939556e+002, 1.035006e+002
7.944377e+002, 1.035591e+002
7.949199e+002, 1.035875e+002
7.954020e+002, 1.035955e+002
7.958841e+002, 1.036070e+002
7.963662e+002, 1.036680e+002
7.968483e+002, 1.036952e+002
7.973304e+002, 1.036767e+002
7.978126e+002, 1.036016e+002
7.982947e+002, 1.034122e+002
7.987768e+002, 1.030354e+002
7.992589e+002, 1.027496e+002
7.997410e+002, 1.026349e+002
8.002231e+002, 1.026629e+002
8.007053e+002, 1.028050e+002
8.011874e+002, 1.030401e+002
8.016695e+002, 1.032512e+002
8.021516e+002, 1.033574e+002
8.026337e+002, 1.034344e+002
8.031158e+002, 1.035349e+002
8.035980e+002, 1.036588e+002
8.040801e+002, 1.038105e+002
8.045622e+002, 1.041528e+002
8.050443e+002, 1.043236e+002
8.055264e+002, 1.041204e+002
8.060085e+002, 1.036993e+002
8.064907e+002, 1.035907e+002
8.069728e+002, 1.038525e+002
8.074549e+002, 1.041316e+002
8.079370e+002, 1.043344e+002
8.084191e+002, 1.044595e+002
8.089012e+002, 1.044791e+002
8.093834e+002, 1.044130e+002
8.098655e+002, 1.043325e+002
8.103476e+002, 1.043141e+002
8.108297e+002, 1.042526e+002
8.113118e+002, 1.039868e+002
8.117939e+002, 1.036206e+002
8.122761e+002, 1.034686e+002
8.127582e+002, 1.036951e+002
8.132403e+002, 1.039855e+002
8.137224e+002, 1.043427e+002
8.142045e+002, 1.046953e+002
8.146866e+002, 1.047736e+002
8.151688e+002, 1.045722e+002
8.156509e+002, 1.044584e+002
8.161330e+002, 1.045850e+002
8.166151e+002, 1.048462e+002
8.170972e+002, 1.051661e+002
8.175793e+002, 1.054954e+002
8.180615e+002, 1.057166e+002
8.185436e+002, 1.057368e+002
8.190257e+002, 1.056789e+002
8.195078e+002, 1.054990e+002
8.199899e+002, 1.052804e+002
8.204720e+002, 1.052654e+002
8.209542e+002, 1.055907e+002
8.214363e+002, 1.057846e+002
8.219184e+002, 1.057276e+002
8.224005e+002, 1.054994e+002
8.228826e+002, 1.052111e+002
8.233647e+002, 1.048897e+002
8.238469e+002, 1.047048e+002
8.243290e+002, 1.047333e+002
8.248111e+002, 1.049001e+002
8.252932e+002, 1.052560e+002
8.257753e+002, 1.056870e+002
8.262574e+002, 1.059581e+002
8.267396e+002, 1.058001e+002
8.272217e+002, 1.057456e+002
8.277038e+002, 1.060151e+002
8.281859e+002, 1.063743e+002
8.286681e+002, 1.063040e+002
8.291502e+002, 1.057085e+002
8.296323e+002, 1.053975e+002
8.301144e+002, 1.056360e+002
8.305966e+002, 1.060641e+002
8.310787e+002, 1.061365e+002
8.315608e+002, 1.059649e+002
8.320429e+002, 1.058192e+002
8.325250e+002, 1.058110e+002
8.330071e+002, 1.058198e+002
8.334893e+002, 1.057949e+002
8.339714e+002, 1.057453e+002
8.344535e+002, 1.056788e+002
8.349356e+002, 1.055408e+002
8.354177e+002, 1.055013e+002
8.358998e+002, 1.056079e+002
8.363820e+002, 1.057711e+002
8.368641e+002, 1.058513e+002
8.373462e+002, 1.058594e+002
8.378283e+002, 1.059151e+002
8.383104e+002, 1.060714e+002
8.387925e+002, 1.061738e+002
8.392747e+002, 1.060014e+002
8.397568e+002, 1.057046e+002
8.402389e+002, 1.054899e+002
8.407210e+002, 1.054459e+002
8.412031e+002, 1.054209e+002
8.416852e+002, 1.053466e+002
8.421674e+002, 1.053080e+002
8.426495e+002, 1.054143e+002
8.431316e+002, 1.057100e+002
8.436137e+002, 1.058929e+002
8.440958e+002, 1.059302e+002
8.445779e+002, 1.059079e+002
8.450601e+002, 1.059341e+002
8.455422e+002, 1.059735e+002
8.460243e+002, 1.059403e+002
8.465064e+002, 1.058066e+002
8.469885e+002, 1.056750e+002
8.474706e+002, 1.055644e+002
8.479528e+002, 1.055029e+002
8.484349e+002, 1.055351e+002
8.489170e+002, 1.057369e+002
8.493991e+002, 1.057843e+002
8.498812e+002, 1.056030e+002
8.503633e+002, 1.054093e+002
8.508455e+002, 1.053777e+002
8.513276e+002, 1.054942e+002
8.518097e+002, 1.057504e+002
8.522918e+002, 1.061547e+002
8.527739e+002, 1.063584e+002
8.532560e+002, 1.058824e+002
8.537382e+002, 1.052094e+002
8.542203e+002, 1.047759e+002
8.547024e+002, 1.046425e+002
8.551845e+002, 1.046284e+002
8.556666e+002, 1.048413e+002
8.561487e+002, 1.050141e+002
8.566309e+002, 1.049915e+002
8.571130e+002, 1.047783e+002
8.575951e+002, 1.047151e+002
8.580772e+002, 1.048131e+002
8.585593e+002, 1.049192e+002
8.590414e+002, 1.049431e+002
8.595236e+002, 1.049027e+002
8.600057e+002, 1.047942e+002
8.604878e+002, 1.046328e+002
8.609699e+002, 1.045155e+002
8.614520e+002, 1.046036e+002
8.619341e+002, 1.046313e+002
8.624163e+002, 1.043580e+002
8.628984e+002, 1.038623e+002
8.633805e+002, 1.037616e+002
8.638626e+002, 1.042101e+002
8.643447e+002, 1.045257e+002
8.648268e+002, 1.043977e+002
8.653090e+002, 1.039943e+002
8.657911e+002, 1.036812e+002
8.662732e+002, 1.034546e+002
8.667553e+002, 1.033125e+002
8.672374e+002, 1.032946e+002
8.677195e+002, 1.033157e+002
8.682017e+002, 1.033674e+002
8.686838e+002, 1.034174e+002
8.691659e+002, 1.033697e+002
8.696480e+002, 1.031940e+002
8.701301e+002, 1.029568e+002
8.706122e+002, 1.026147e+002
8.710944e+002, 1.022765e+002
8.715765e+002, 1.022331e+002
8.720586e+002, 1.024428e+002
8.725407e+002, 1.025882e+002
8.730228e+002, 1.025895e+002
8.735049e+002, 1.024684e+002
8.739871e+002, 1.021940e+002
8.744692e+002, 1.018280e+002
8.749513e+002, 1.014614e+002
8.754334e+002, 1.009959e+002
8.759155e+002, 1.007159e+002
8.763976e+002, 1.007172e+002
8.768798e+002, 1.008298e+002
8.773619e+002, 1.008773e+002
8.778440e+002, 1.008597e+002
8.783261e+002, 1.007295e+002
8.788082e+002, 1.004568e+002
8.792903e+002, 1.001898e+002
8.797725e+002, 1.000782e+002
8.802546e+002, 1.000737e+002
8.807367e+002, 1.001433e+002
8.812188e+002, 1.003207e+002
8.817009e+002, 1.003635e+002
8.821830e+002, 1.000459e+002
8.826652e+002, 9.967070e+001
8.831473e+002, 9.945428e+001
8.836294e+002, 9.942470e+001
8.841115e+002, 9.937274e+001
8.845936e+002, 9.930143e+001
8.850757e+002, 9.919636e+001
8.855579e+002, 9.905423e+001
8.860400e+002, 9.886889e+001
8.865221e+002, 9.857610e+001
8.870042e+002, 9.819353e+001
8.874863e+002, 9.791447e+001
8.879684e+002, 9.788068e+001
8.884506e+002, 9.794909e+001
8.889327e+002, 9.813512e+001
8.894148e+002, 9.840878e+001
8.898969e+002, 9.831796e+001
8.903790e+002, 9.768806e+001
8.908611e+002, 9.723250e+001
8.913433e+002, 9.733643e+001
8.918254e+002, 9.775540e+001
8.923075e+002, 9.784555e+001
8.927896e+002, 9.766736e+001
8.932717e+002, 9.748816e+001
8.937538e+002, 9.747091e+001
8.942360e+002, 9.746153e+001
8.947181e+002, 9.734148e+001
8.952002e+002, 9.716132e+001
8.956823e+002, 9.706869e+001
8.961644e+002, 9.716571e+001
8.966465e+002, 9.714401e+001
8.971287e+002, 9.691802e+001
8.976108e+002, 9.660328e+001
8.980929e+002, 9.637616e+001
8.985750e+002, 9.624303e+001
8.990571e+002, 9.626772e+001
8.995392e+002, 9.654582e+001
9.000214e+002, 9.675359e+001
9.005035e+002, 9.659877e+001
9.009856e+002, 9.624590e+001
9.014677e+002, 9.587064e+001
9.019498e+002, 9.536641e+001
9.024319e+002, 9.514093e+001
9.029141e+002, 9.533665e+001
9.033962e+002, 9.560103e+001
9.038783e+002, 9.556991e+001
9.043604e+002, 9.528222e+001
9.048425e+002, 9.514606e+001
9.053246e+002, 9.519028e+001
9.058068e+002, 9.528430e+001
9.062889e+002, 9.550681e+001
9.067710e+002, 9.560041e+001
9.072531e+002, 9.521104e+001
9.077352e+002, 9.426469e+001
9.082173e+002, 9.358247e+001
9.086995e+002, 9.330165e+001
9.091816e+002, 9.326704e+001
9.096637e+002, 9.348864e+001
9.101458e+002, 9.391437e+001
9.106279e+002, 9.422533e+001
9.111100e+002, 9.441931e+001
9.115922e+002, 9.444554e+001
9.120743e+002, 9.412814e+001
9.125564e+002, 9.374429e+001
9.130385e+002, 9.357601e+001
9.135206e+002, 9.357819e+001
9.140027e+002, 9.360156e+001
9.144849e+002, 9.374589e+001
9.149670e+002, 9.371150e+001
9.154491e+002, 9.334504e+001
9.159312e+002, 9.284299e+001
9.164133e+002, 9.264622e+001
9.168954e+002, 9.274781e+001
9.173776e+002, 9.280485e+001
9.178597e+002, 9.270625e+001
9.183418e+002, 9.262285e+001
9.188239e+002, 9.285037e+001
9.193060e+002, 9.317216e+001
9.197881e+002, 9.326046e+001
9.202703e+002, 9.283853e+001
9.207524e+002, 9.258945e+001
9.212345e+002, 9.264219e+001
9.217166e+002, 9.286162e+001
9.221987e+002, 9.322044e+001
9.226808e+002, 9.373405e+001
9.231630e+002, 9.393071e+001
9.236451e+002, 9.378132e+001
9.241272e+002, 9.346803e+001
9.246093e+002, 9.300447e+001
9.250914e+002, 9.255212e+001
9.255735e+002, 9.228852e+001
9.260557e+002, 9.223010e+001
9.265378e+002, 9.230685e+001
9.270199e+002, 9.266466e+001
9.275020e+002, 9.297601e+001
9.279841e+002, 9.311695e+001
9.284662e+002, 9.311474e+001
9.289484e+002, 9.315147e+001
9.294305e+002, 9.322649e+001
9.299126e+002, 9.322806e+001
9.303947e+002, 9.303997e+001
9.308768e+002, 9.282081e+001
9.313589e+002, 9.282209e+001
9.318411e+002, 9.293217e+001
9.323232e+002, 9.290459e+001
9.328053e+002, 9.250694e+001
9.332874e+002, 9.216984e+001
9.337695e+002, 9.195912e+001
9.342516e+002, 9.184182e+001
9.347338e+002, 9.175912e+001
9.352159e+002, 9.171102e+001
9.356980e+002, 9.182227e+001
9.361801e+002, 9.214135e+001
9.366622e+002, 9.246570e+001
9.371443e+002, 9.264473e+001
9.376265e+002, 9.268102e+001
9.381086e+002, 9.251827e+001
9.385907e+002, 9.204675e+001
9.390728e+002, 9.180894e+001
9.395549e+002, 9.210841e+001
9.400370e+002, 9.238670e+001
9.405192e+002, 9.225082e+001
9.410013e+002, 9.173583e+001
9.414834e+002, 9.158371e+001
9.419655e+002, 9.178793e+001
9.424476e+002, 9.207796e+001
9.429297e+002, 9.233957e+001
9.434119e+002, 9.254974e+001
9.438940e+002, 9.273055e+001
9.443761e+002, 9.285179e+001
9.448582e+002, 9.277946e+001
9.453403e+002, 9.223304e+001
9.458224e+002, 9.183717e+001
9.463046e+002, 9.176301e+001
9.467867e+002, 9.187924e+001
9.472688e+002, 9.192094e+001
9.477509e+002, 9.188422e+001
9.482330e+002, 9.169331e+001
9.487151e+002, 9.124876e+001
9.491973e+002, 9.086057e+001
9.496794e+002, 9.085558e+001
9.501615e+002, 9.105042e+001
9.506436e+002, 9.123131e+001
9.511257e+002, 9.139987e+001
9.516078e+002, 9.144662e+001
9.520900e+002, 9.130521e+001
9.525721e+002, 9.115361e+001
9.530542e+002, 9.119611e+001
9.535363e+002, 9.137862e+001
9.540184e+002, 9.127450e+001
9.545005e+002, 9.088490e+001
9.549827e+002, 9.066537e+001
9.554648e+002, 9.122952e+001
9.559469e+002, 9.183743e+001
9.564290e+002, 9.187999e+001
9.569111e+002, 9.137058e+001
9.573932e+002, 9.102641e+001
9.578754e+002, 9.089685e+001
9.583575e+002, 9.088553e+001
9.588396e+002, 9.101616e+001
9.593217e+002, 9.118789e+001
9.598038e+002, 9.110973e+001
9.602859e+002, 9.085443e+001
9.607681e+002, 9.068417e+001
9.612502e+002, 9.074650e+001
9.617323e+002, 9.083430e+001
9.622144e+002, 9.085378e+001
9.626965e+002, 9.082047e+001
9.631786e+002, 9.073753e+001
9.636608e+002, 9.052518e+001
9.641429e+002, 9.053912e+001
9.646250e+002, 9.086504e+001
9.651071e+002, 9.118013e+001
9.655892e+002, 9.111839e+001
9.660714e+002, 9.081848e+001
9.665535e+002, 9.055203e+001
9.670356e+002, 9.034581e+001
9.675177e+002, 9.019764e+001
9.679998e+002, 9.006897e+001
9.684819e+002, 9.003853e+001
9.689641e+002, 9.018774e+001
9.694462e+002, 9.048365e+001
9.699283e+002, 9.073409e+001
9.704104e+002, 9.094958e+001
9.708925e+002, 9.101775e+001
9.713746e+002, 9.081365e+001
9.718568e+002, 9.054733e+001
9.723389e+002, 9.057587e+001
9.728210e+002, 9.078201e+001
9.733031e+002, 9.091808e+001
9.737852e+002, 9.086203e+001
9.742673e+002, 9.076888e+001
9.747495e+002, 9.062616e+001
9.752316e+002, 9.049306e+001
9.757137e+002, 9.041281e+001
9.761958e+002, 9.038210e+001
9.766779e+002, 9.055598e+001
9.771600e+002, 9.097469e+001
9.776422e+002, 9.129237e+001
9.781243e+002, 9.113659e+001
9.786064e+002, 9.077210e+001
9.790885e+002, 9.043461e+001
9.795706e+002, 9.014938e+001
9.800527e+002, 8.998648e+001
9.805349e+002, 9.001580e+001
9.810170e+002, 9.008141e+001
9.814991e+002, 9.014753e+001
9.819812e+002, 9.020066e+001
9.824633e+002, 9.015413e+001
9.829454e+002, 9.003381e+001
9.834276e+002, 9.000411e+001
9.839097e+002, 9.018433e+001
9.843918e+002, 9.040288e+001
9.848739e+002, 9.056301e+001
9.853560e+002, 9.067443e+001
9.858381e+002, 9.075183e+001
9.863203e+002, 9.081871e+001
9.868024e+002, 9.078868e+001
9.872845e+002, 9.060812e+001
9.877666e+002, 9.046153e+001
9.882487e+002, 9.060062e+001
9.887308e+002, 9.091392e+001
9.892130e+002, 9.117522e+001
9.896951e+002, 9.135644e+001
9.901772e+002, 9.129818e+001
9.906593e+002, 9.046124e+001
9.911414e+002, 8.979234e+001
9.916235e+002, 8.992346e+001
9.921057e+002, 9.070019e+001
9.925878e+002, 9.134483e+001
9.930699e+002, 9.187428e+001
9.935520e+002, 9.212289e+001
9.940341e+002, 9.196240e+001
9.945162e+002, 9.161227e+001
9.949984e+002, 9.127333e+001
9.954805e+002, 9.100251e+001
9.959626e+002, 9.091151e+001
9.964447e+002, 9.117638e+001
9.969268e+002, 9.139389e+001
9.974089e+002, 9.154482e+001
9.978911e+002, 9.158614e+001
9.983732e+002, 9.140111e+001
9.988553e+002, 9.100677e+001
9.993374e+002, 9.085505e+001
9.998195e+002, 9.096716e+001
1.000302e+003, 9.124453e+001
1.000784e+003, 9.189939e+001
1.001266e+003, 9.245866e+001
1.001748e+003, 9.242671e+001
1.002230e+003, 9.185151e+001
1.002712e+003, 9.144872e+001
1.003194e+003, 9.129367e+001
1.003676e+003, 9.124979e+001
1.004159e+003, 9.130358e+001
1.004641e+003, 9.141296e+001
1.005123e+003, 9.153127e+001
1.005605e+003, 9.163509e+001
1.006087e+003, 9.165717e+001
1.006569e+003, 9.157650e+001
1.007051e+003, 9.141696e+001
1.007533e+003, 9.102735e+001
1.008016e+003, 9.068469e+001
1.008498e+003, 9.066779e+001
1.008980e+003, 9.107781e+001
1.009462e+003, 9.120261e+001
1.009944e+003, 9.100027e+001
1.010426e+003, 9.083504e+001
1.010908e+003, 9.106623e+001
1.011390e+003, 9.143781e+001
1.011872e+003, 9.163574e+001
1.012355e+003, 9.166741e+001
1.012837e+003, 9.161606e+001
1.013319e+003, 9.143763e+001
1.013801e+003, 9.125602e+001
1.014283e+003, 9.106178e+001
1.014765e+003, 9.090782e+001
1.015247e+003, 9.088076e+001
1.015729e+003, 9.097932e+001
1.016211e+003, 9.125146e+001
1.016694e+003, 9.175906e+001
1.017176e+003, 9.215743e+001
1.017658e+003, 9.206383e+001
1.018140e+003, 9.180320e+001
1.018622e+003, 9.169778e+001
1.019104e+003, 9.182599e+001
1.019586e+003, 9.170898e+001
1.020068e+003, 9.123108e+001
1.020551e+003, 9.089955e+001
1.021033e+003, 9.108128e+001
1.021515e+003, 9.153580e+001
1.021997e+003, 9.178136e+001
1.022479e+003, 9.184566e+001
1.022961e+003, 9.180526e+001
1.023443e+003, 9.151961e+001
1.023925e+003, 9.134703e+001
1.024407e+003, 9.142488e+001
1.024890e+003, 9.164127e+001
1.025372e+003, 9.188901e+001
1.025854e+003, 9.216753e+001
1.026336e+003, 9.237670e+001
1.026818e+003, 9.249445e+001
1.027300e+003, 9.268610e+001
1.027782e+003, 9.337854e+001
1.028264e+003, 9.402048e+001
1.028746e+003, 9.394061e+001
1.029229e+003, 9.309196e+001
1.029711e+003, 9.258556e+001
1.030193e+003, 9.260621e+001
1.030675e+003, 9.270041e+001
1.031157e+003, 9.267543e+001
1.031639e+003, 9.268092e+001
1.032121e+003, 9.331139e+001
1.032603e+003, 9.427844e+001
1.033086e+003, 9.460439e+001
1.033568e+003, 9.361417e+001
1.034050e+003, 9.275164e+001
1.034532e+003, 9.277775e+001
1.035014e+003, 9.315283e+001
1.035496e+003, 9.343244e+001
1.035978e+003, 9.362595e+001
1.036460e+003, 9.361008e+001
1.036943e+003, 9.337337e+001
1.037425e+003, 9.311739e+001
1.037907e+003, 9.297158e+001
1.038389e+003, 9.289690e+001
1.038871e+003, 9.284247e+001
1.039353e+003, 9.282044e+001
1.039835e+003, 9.289632e+001
1.040317e+003, 9.324589e+001
1.040799e+003, 9.339094e+001
1.041281e+003, 9.317036e+001
1.041764e+003, 9.285601e+001
1.042246e+003, 9.292048e+001
1.042728e+003, 9.325463e+001
1.043210e+003, 9.351804e+001
1.043692e+003, 9.365591e+001
1.044174e+003, 9.371143e+001
1.044656e+003, 9.368128e+001
1.045138e+003, 9.360197e+001
1.045621e+003, 9.348040e+001
1.046103e+003, 9.332429e+001
1.046585e+003, 9.321851e+001
1.047067e+003, 9.316363e+001
1.047549e+003, 9.317027e+001
1.048031e+003, 9.329657e+001
1.048513e+003, 9.341360e+001
1.048995e+003, 9.331186e+001
1.049478e+003, 9.310675e+001
1.049960e+003, 9.299481e+001
1.050442e+003, 9.319872e+001
1.050924e+003, 9.321928e+001
1.051406e+003, 9.299007e+001
1.051888e+003, 9.268809e+001
1.052370e+003, 9.242882e+001
1.052852e+003, 9.223161e+001
1.053334e+003, 9.220261e+001
1.053817e+003, 9.232730e+001
1.054299e+003, 9.242943e+001
1.054781e+003, 9.237300e+001
1.055263e+003, 9.231311e+001
1.055745e+003, 9.232291e+001
1.056227e+003, 9.237998e+001
1.056709e+003, 9.248337e+001
1.057191e+003, 9.264690e+001
1.057673e+003, 9.254053e+001
1.058156e+003, 9.204194e+001
1.058638e+003, 9.148389e+001
1.059120e+003, 9.113947e+001
1.059602e+003, 9.095831e+001
1.060084e+003, 9.090134e+001
1.060566e+003, 9.098036e+001
1.061048e+003, 9.109907e+001
1.061530e+003, 9.125321e+001
1.062013e+003, 9.144965e+001
1.062495e+003, 9.174033e+001
1.062977e+003, 9.203844e+001
1.063459e+003, 9.209618e+001
1.063941e+003, 9.198251e+001
1.064423e+003, 9.189849e+001
1.064905e+003, 9.199749e+001
1.065387e+003, 9.203277e+001
1.065870e+003, 9.182714e+001
1.066352e+003, 9.160462e+001
1.066834e+003, 9.159655e+001
1.067316e+003, 9.180549e+001
1.067798e+003, 9.190125e+001
1.068280e+003, 9.187280e+001
1.068762e+003, 9.176441e+001
1.069244e+003, 9.156378e+001
1.069726e+003, 9.133372e+001
1.070208e+003, 9.102522e+001
1.070691e+003, 9.072237e+001
1.071173e+003, 9.081200e+001
1.071655e+003, 9.152634e+001
1.072137e+003, 9.185713e+001
1.072619e+003, 9.152461e+001
1.073101e+003, 9.103535e+001
1.073583e+003, 9.112561e+001
1.074065e+003, 9.150090e+001
1.074548e+003, 9.169007e+001
1.075030e+003, 9.160031e+001
1.075512e+003, 9.144878e+001
1.075994e+003, 9.118673e+001
1.076476e+003, 9.101216e+001
1.076958e+003, 9.102428e+001
1.077440e+003, 9.117992e+001
1.077922e+003, 9.137104e+001
1.078405e+003, 9.157301e+001
1.078887e+003, 9.165318e+001
1.079369e+003, 9.147247e+001
1.079851e+003, 9.131670e+001
1.080333e+003, 9.141393e+001
1.080815e+003, 9.157697e+001
1.081297e+003, 9.159614e+001
1.081779e+003, 9.144212e+001
1.082261e+003, 9.129826e+001
1.082744e+003, 9.116031e+001
1.083226e+003, 9.106989e+001
1.083708e+003, 9.108520e+001
1.084190e+003, 9.113998e+001
1.084672e+003, 9.115733e+001
1.085154e+003, 9.115380e+001
1.085636e+003, 9.119180e+001
1.086118e+003, 9.128263e+001
1.086601e+003, 9.141640e+001
1.087083e+003, 9.161474e+001
1.087565e+003, 9.180140e+001
1.088047e+003, 9.189997e+001
1.088529e+003, 9.190820e+001
1.089011e+003, 9.179108e+001
1.089493e+003, 9.154670e+001
1.089975e+003, 9.133313e+001
1.090458e+003, 9.121510e+001
1.090940e+003, 9.114499e+001
1.091422e+003, 9.110672e+001
1.091904e+003, 9.110014e+001
1.092386e+003, 9.111922e+001
1.092868e+003, 9.116762e+001
1.093350e+003, 9.129163e+001
1.093832e+003, 9.154693e+001
1.094314e+003, 9.174183e+001
1.094797e+003, 9.175314e+001
1.095279e+003, 9.163399e+001
1.095761e+003, 9.137908e+001
1.096243e+003, 9.097477e+001
1.096725e+003, 9.084581e+001
1.097207e+003, 9.101517e+001
1.097689e+003, 9.120596e+001
1.098171e+003, 9.122553e+001
1.098653e+003, 9.122830e+001
1.099136e+003, 9.151466e+001
1.099618e+003, 9.189016e+001
1.100100e+003, 9.195947e+001
1.100582e+003, 9.124110e+001
1.101064e+003, 9.101570e+001
1.101546e+003, 9.147635e+001
1.102028e+003, 9.202110e+001
1.102510e+003, 9.206465e+001
1.102993e+003, 9.179729e+001
1.103475e+003, 9.162970e+001
1.103957e+003, 9.155534e+001
1.104439e+003, 9.142014e+001
1.104921e+003, 9.094540e+001
1.105403e+003, 9.070171e+001
1.105885e+003, 9.091476e+001
1.106367e+003, 9.133176e+001
1.106849e+003, 9.155192e+001
1.107332e+003, 9.158483e+001
1.107814e+003, 9.141209e+001
1.108296e+003, 9.100763e+001
1.108778e+003, 9.072450e+001
1.109260e+003, 9.097728e+001
1.109742e+003, 9.124539e+001
1.110224e+003, 9.110231e+001
1.110706e+003, 9.066959e+001
1.111188e+003, 9.068227e+001
1.111671e+003, 9.115299e+001
1.112153e+003, 9.140157e+001
1.112635e+003, 9.113648e+001
1.113117e+003, 9.076551e+001
1.113599e+003, 9.066597e+001
1.114081e+003, 9.070355e+001
1.114563e+003, 9.071374e+001
1.115045e+003, 9.064308e+001
1.115528e+003, 9.077764e+001
1.116010e+003, 9.119871e+001
1.116492e+003, 9.147775e+001
1.116974e+003, 9.123877e+001
1.117456e+003, 9.083279e+001
1.117938e+003, 9.088055e+001
1.118420e+003, 9.119337e+001
1.118902e+003, 9.136680e+001
1.119385e+003, 9.112910e+001
1.119867e+003, 9.097143e+001
1.120349e+003, 9.091405e+001
1.120831e+003, 9.094746e+001
1.121313e+003, 9.115437e+001
1.121795e+003, 9.142867e+001
1.122277e+003, 9.138689e+001
1.122759e+003, 9.108273e+001
1.123241e+003, 9.089349e+001
1.123724e+003, 9.122324e+001
1.124206e+003, 9.139120e+001
1.124688e+003, 9.111156e+001
1.125170e+003, 9.066550e+001
1.125652e+003, 9.047011e+001
1.126134e+003, 9.050508e+001
1.126616e+003, 9.071993e+001
1.127098e+003, 9.111656e+001
1.127580e+003, 9.134676e+001
1.128063e+003, 9.096096e+001
1.128545e+003, 9.053738e+001
1.129027e+003, 9.047004e+001
1.129509e+003, 9.066171e+001
1.129991e+003, 9.076074e+001
1.130473e+003, 9.076238e+001
1.130955e+003, 9.099377e+001
1.131437e+003, 9.163497e+001
1.131920e+003, 9.214954e+001
1.132402e+003, 9.183195e+001
1.132884e+003, 9.127706e+001
1.133366e+003, 9.110878e+001
1.133848e+003, 9.140482e+001
1.134330e+003, 9.151292e+001
1.134812e+003, 9.138209e+001
1.135294e+003, 9.134689e+001
1.135776e+003, 9.159413e+001
1.136259e+003, 9.193860e+001
1.136741e+003, 9.215350e+001
1.137223e+003, 9.228913e+001
1.137705e+003, 9.243600e+001
1.138187e+003, 9.267486e+001
1.138669e+003, 9.273743e+001
1.139151e+003, 9.253678e+001
1.139633e+003, 9.238147e+001
1.140115e+003, 9.260709e+001
1.140598e+003, 9.295618e+001
1.141080e+003, 9.271758e+001
1.141562e+003, 9.214409e+001
1.142044e+003, 9.193542e+001
1.142526e+003, 9.296844e+001
1.143008e+003, 9.343678e+001
1.143490e+003, 9.289352e+001
1.143972e+003, 9.216034e+001
1.144455e+003, 9.209635e+001
1.144937e+003, 9.251389e+001
1.145419e+003, 9.285752e+001
1.145901e+003, 9.308918e+001
1.146383e+003, 9.316427e+001
1.146865e+003, 9.285191e+001
1.147347e+003, 9.263855e+001
1.147829e+003, 9.268359e+001
1.148312e+003, 9.288091e+001
1.148794e+003, 9.307349e+001
1.149276e+003, 9.326939e+001
1.149758e+003, 9.355242e+001
1.150240e+003, 9.393449e+001
1.150722e+003, 9.420513e+001
1.151204e+003, 9.419843e+001
1.151686e+003, 9.406710e+001
1.152168e+003, 9.384157e+001
1.152651e+003, 9.357517e+001
1.153133e+003, 9.340692e+001
1.153615e+003, 9.333573e+001
1.154097e+003, 9.334563e+001
1.154579e+003, 9.344172e+001
1.155061e+003, 9.357301e+001
1.155543e+003, 9.377650e+001
1.156025e+003, 9.393627e+001
1.156507e+003, 9.391075e+001
1.156990e+003, 9.372697e+001
1.157472e+003, 9.364172e+001
1.157954e+003, 9.366285e+001
1.158436e+003, 9.365663e+001
1.158918e+003, 9.355646e+001
1.159400e+003, 9.346284e+001
1.159882e+003, 9.351678e+001
1.160364e+003, 9.361227e+001
1.160847e+003, 9.359180e+001
1.161329e+003, 9.339587e+001
1.161811e+003, 9.345078e+001
1.162293e+003, 9.380286e+001
1.162775e+003, 9.410729e+001
1.163257e+003, 9.413395e+001
1.163739e+003, 9.408414e+001
1.164221e+003, 9.426689e+001
1.164703e+003, 9.453384e+001
1.165186e+003, 9.462112e+001
1.165668e+003, 9.431692e+001
1.166150e+003, 9.423465e+001
1.166632e+003, 9.442899e+001
1.167114e+003, 9.464338e+001
1.167596e+003, 9.466993e+001
1.168078e+003, 9.461249e+001
1.168560e+003, 9.464526e+001
1.169042e+003, 9.473492e+001
1.169525e+003, 9.479089e+001
1.170007e+003, 9.488517e+001
1.170489e+003, 9.472795e+001
1.170971e+003, 9.416586e+001
1.171453e+003, 9.370318e+001
1.171935e+003, 9.397633e+001
1.172417e+003, 9.462227e+001
1.172899e+003, 9.496769e+001
1.173382e+003, 9.502043e+001
1.173864e+003, 9.495652e+001
1.174346e+003, 9.469436e+001
1.174828e+003, 9.449905e+001
1.175310e+003, 9.434961e+001
1.175792e+003, 9.438115e+001
1.176274e+003, 9.501864e+001
1.176756e+003, 9.590130e+001
1.177239e+003, 9.605700e+001
1.177721e+003, 9.546404e+001
1.178203e+003, 9.508495e+001
1.178685e+003, 9.555151e+001
1.179167e+003, 9.595931e+001
1.179649e+003, 9.611048e+001
1.180131e+003, 9.607004e+001
1.180613e+003, 9.584261e+001
1.181095e+003, 9.553312e+001
1.181578e+003, 9.550594e+001
1.182060e+003, 9.583074e+001
1.182542e+003, 9.606586e+001
1.183024e+003, 9.595302e+001
1.183506e+003, 9.577802e+001
1.183988e+003, 9.559496e+001
1.184470e+003, 9.546217e+001
1.184952e+003, 9.558578e+001
1.185434e+003, 9.589094e+001
1.185917e+003, 9.612027e+001
1.186399e+003, 9.621117e+001
1.186881e+003, 9.623103e+001
1.187363e+003, 9.608099e+001
1.187845e+003, 9.602459e+001
1.188327e+003, 9.628793e+001
1.188809e+003, 9.669913e+001
1.189291e+003, 9.647626e+001
1.189774e+003, 9.577463e+001
1.190256e+003, 9.534229e+001
1.190738e+003, 9.550257e+001
1.191220e+003, 9.571261e+001
1.191702e+003, 9.567972e+001
1.192184e+003, 9.563940e+001
1.192666e+003, 9.578613e+001
1.193148e+003, 9.606063e+001
1.193630e+003, 9.599402e+001
1.194113e+003, 9.565396e+001
1.194595e+003, 9.543413e+001
1.195077e+003, 9.552020e+001
1.195559e+003, 9.572115e+001
1.196041e+003, 9.620383e+001
1.196523e+003, 9.652654e+001
1.197005e+003, 9.622104e+001
1.197487e+003, 9.535143e+001
1.197969e+003, 9.509260e+001
1.198452e+003, 9.537372e+001
1.198934e+003, 9.563618e+001
1.199416e+003, 9.544670e+001
1.199898e+003, 9.535215e+001
1.200380e+003, 9.582915e+001
1.200862e+003, 9.636754e+001
1.201344e+003, 9.641000e+001
1.201826e+003, 9.595860e+001
1.202309e+003, 9.574496e+001
1.202791e+003, 9.576088e+001
1.203273e+003, 9.586074e+001
1.203755e+003, 9.619106e+001
1.204237e+003, 9.631871e+001
1.204719e+003, 9.573813e+001
1.205201e+003, 9.501223e+001
1.205683e+003, 9.487143e+001
1.206166e+003, 9.530436e+001
1.206648e+003, 9.550384e+001
1.207130e+003, 9.544709e+001
1.207612e+003, 9.534252e+001
1.208094e+003, 9.529339e+001
1.208576e+003, 9.526501e+001
1.209058e+003, 9.532984e+001
1.209540e+003, 9.535125e+001
1.210022e+003, 9.501727e+001
1.210505e+003, 9.435226e+001
1.210987e+003, 9.428790e+001
1.211469e+003, 9.487266e+001
1.211951e+003, 9.533141e+001
1.212433e+003, 9.486992e+001
1.212915e+003, 9.443684e+001
1.213397e+003, 9.466608e+001
1.213879e+003, 9.521896e+001
1.214361e+003, 9.559922e+001
1.214844e+003, 9.580449e+001
1.215326e+003, 9.572454e+001
1.215808e+003, 9.534372e+001
1.216290e+003, 9.501498e+001
1.216772e+003, 9.489862e+001
1.217254e+003, 9.499503e+001
1.217736e+003, 9.544688e+001
1.218218e+003, 9.603101e+001
1.218701e+003, 9.627867e+001
1.219183e+003, 9.621474e+001
1.219665e+003, 9.614969e+001
1.220147e+003, 9.613060e+001
1.220629e+003, 9.609259e+001
1.221111e+003, 9.591438e+001
1.221593e+003, 9.579035e+001
1.222075e+003, 9.583306e+001
1.222557e+003, 9.599471e+001
1.223040e+003, 9.620313e+001
1.223522e+003, 9.644029e+001
1.224004e+003, 9.652840e+001
1.224486e+003, 9.642040e+001
1.224968e+003, 9.634922e+001
1.225450e+003, 9.654536e+001
1.225932e+003, 9.671960e+001
1.226414e+003, 9.669023e+001
1.226896e+003, 9.655054e+001
1.227379e+003, 9.657872e+001
1.227861e+003, 9.675504e+001
1.228343e+003, 9.701275e+001
1.228825e+003, 9.737057e+001
1.229307e+003, 9.758099e+001
1.229789e+003, 9.742377e+001
1.230271e+003, 9.715170e+001
1.230753e+003, 9.681794e+001
1.231236e+003, 9.651292e+001
1.231718e+003, 9.666574e+001
1.232200e+003, 9.713567e+001
1.232682e+003, 9.731243e+001
1.233164e+003, 9.697421e+001
1.233646e+003, 9.667335e+001
1.234128e+003, 9.669978e+001
1.234610e+003, 9.681200e+001
1.235093e+003, 9.692432e+001
1.235575e+003, 9.702272e+001
1.236057e+003, 9.701861e+001
1.236539e+003, 9.695786e+001
1.237021e+003, 9.701888e+001
1.237503e+003, 9.731380e+001
1.237985e+003, 9.749088e+001
1.238467e+003, 9.730521e+001
1.238949e+003, 9.710626e+001
1.239432e+003, 9.703635e+001
1.239914e+003, 9.706747e+001
1.240396e+003, 9.712436e+001
1.240878e+003, 9.721076e+001
1.241360e+003, 9.730299e+001
1.241842e+003, 9.729464e+001
1.242324e+003, 9.766299e+001
1.242806e+003, 9.896540e+001
1.243288e+003, 9.989888e+001
1.243771e+003, 9.968532e+001
1.244253e+003, 9.877614e+001
1.244735e+003, 9.815594e+001
1.245217e+003, 9.779598e+001
1.245699e+003, 9.763962e+001
1.246181e+003, 9.775054e+001
1.246663e+003, 9.784447e+001
1.247145e+003, 9.787438e+001
1.247628e+003, 9.791062e+001
1.248110e+003, 9.798661e+001
1.248592e+003, 9.809810e+001
1.249074e+003, 9.829911e+001
1.249556e+003, 9.850992e+001
1.250038e+003, 9.855937e+001
1.250520e+003, 9.826283e+001
1.251002e+003, 9.820631e+001
1.251484e+003, 9.851752e+001
1.251967e+003, 9.872654e+001
1.252449e+003, 9.841676e+001
1.252931e+003, 9.800061e+001
1.253413e+003, 9.827500e+001
1.253895e+003, 9.887705e+001
1.254377e+003, 9.914094e+001
1.254859e+003, 9.874617e+001
1.255341e+003, 9.853500e+001
1.255823e+003, 9.852174e+001
1.256306e+003, 9.862835e+001
1.256788e+003, 9.889328e+001
1.257270e+003, 9.915399e+001
1.257752e+003, 9.922659e+001
1.258234e+003, 9.915468e+001
1.258716e+003, 9.895441e+001
1.259198e+003, 9.849977e+001
1.259680e+003, 9.855751e+001
1.260163e+003, 9.918958e+001
1.260645e+003, 9.976434e+001
1.261127e+003, 9.996534e+001
1.261609e+003, 9.991524e+001
1.262091e+003, 9.952216e+001
1.262573e+003, 9.905492e+001
1.263055e+003, 9.889197e+001
1.263537e+003, 9.907665e+001
1.264020e+003, 9.928305e+001
1.264502e+003, 9.951070e+001
1.264984e+003, 9.971204e+001
1.265466e+003, 9.983311e+001
1.265948e+003, 9.994633e+001
1.266430e+003, 1.000877e+002
1.266912e+003, 1.002532e+002
1.267394e+003, 1.004645e+002
1.267876e+003, 1.007208e+002
1.268359e+003, 1.007933e+002
1.268841e+003, 1.006978e+002
1.269323e+003, 1.005741e+002
1.269805e+003, 1.004400e+002
1.270287e+003, 1.003726e+002
1.270769e+003, 1.004636e+002
1.271251e+003, 1.005917e+002
1.271733e+003, 1.006798e+002
1.272215e+003, 1.007258e+002
1.272698e+003, 1.006937e+002
1.273180e+003, 1.005956e+002
1.273662e+003, 1.004860e+002
1.274144e+003, 1.003920e+002
1.274626e+003, 1.002797e+002
1.275108e+003, 1.000778e+002
1.275590e+003, 9.994810e+001
1.276072e+003, 1.000477e+002
1.276555e+003, 1.003171e+002
1.277037e+003, 1.006089e+002
1.277519e+003, 1.008932e+002
1.278001e+003, 1.010867e+002
1.278483e+003, 1.011029e+002
1.278965e+003, 1.010994e+002
1.279447e+003, 1.010968e+002
1.279929e+003, 1.010525e+002
1.280411e+003, 1.009199e+002
1.280894e+003, 1.007328e+002
1.281376e+003, 1.004440e+002
1.281858e+003, 1.001689e+002
1.282340e+003, 1.001793e+002
1.282822e+003, 1.008731e+002
1.283304e+003, 1.010901e+002
1.283786e+003, 1.007411e+002
1.284268e+003, 1.003587e+002
1.284750e+003, 1.003067e+002
1.285233e+003, 1.004157e+002
1.285715e+003, 1.005743e+002
1.286197e+003, 1.007205e+002
1.286679e+003, 1.007267e+002
1.287161e+003, 1.005324e+002
1.287643e+003, 1.004557e+002
1.288125e+003, 1.004990e+002
1.288607e+003, 1.005824e+002
1.289090e+003, 1.007108e+002
1.289572e+003, 1.007950e+002
1.290054e+003, 1.007777e+002
1.290536e+003, 1.006678e+002
1.291018e+003, 1.004370e+002
1.291500e+003, 1.000707e+002
1.291982e+003, 1.000944e+002
1.292464e+003, 1.004605e+002
1.292947e+003, 1.007369e+002
1.293429e+003, 1.006375e+002
1.293911e+003, 1.004876e+002
1.294393e+003, 1.004088e+002
1.294875e+003, 1.003584e+002
1.295357e+003, 1.003092e+002
1.295839e+003, 1.002609e+002
1.296321e+003, 1.001654e+002
1.296803e+003, 1.000732e+002
1.297286e+003, 1.001723e+002
1.297768e+003, 1.008798e+002
1.298250e+003, 1.011628e+002
1.298732e+003, 1.006811e+002
1.299214e+003, 1.001806e+002
1.299696e+003, 1.002438e+002
1.300178e+003, 1.006028e+002
1.300660e+003, 1.007928e+002
##END=



