##NAMES=Chalcocite
##RRUFFID=R130757
##IDEAL CHEMISTRY=Cu^1+^_2_S^2-^
##LOCALITY=China
##OWNER=RRUFF
##SOURCE=Rob Lavinsky
##DESCRIPTION=Black crystals with blue tarnish on a surface
##STATUS=The identification of this mineral has been confirmed by single-crystal X-ray diffraction.
##URL=rruff.info/R130757
8.806445e+001, 3.223565e+002
8.854657e+001, 3.219833e+002
8.902869e+001, 3.218696e+002
8.951080e+001, 3.221017e+002
8.999292e+001, 3.225525e+002
9.047504e+001, 3.232202e+002
9.095715e+001, 3.241874e+002
9.143927e+001, 3.250290e+002
9.192139e+001, 3.250818e+002
9.240350e+001, 3.244004e+002
9.288562e+001, 3.234811e+002
9.336774e+001, 3.203062e+002
9.384985e+001, 3.130230e+002
9.433197e+001, 3.023997e+002
9.481409e+001, 2.930192e+002
9.529620e+001, 2.837473e+002
9.577832e+001, 2.752997e+002
9.626044e+001, 2.677751e+002
9.674255e+001, 2.611624e+002
9.722467e+001, 2.554539e+002
9.770679e+001, 2.506678e+002
9.818890e+001, 2.464088e+002
9.867102e+001, 2.427898e+002
9.915314e+001, 2.393611e+002
9.963525e+001, 2.356414e+002
1.001174e+002, 2.313819e+002
1.005995e+002, 2.268311e+002
1.010816e+002, 2.229002e+002
1.015637e+002, 2.199224e+002
1.020458e+002, 2.171920e+002
1.025280e+002, 2.147112e+002
1.030101e+002, 2.123575e+002
1.034922e+002, 2.099014e+002
1.039743e+002, 2.071384e+002
1.044564e+002, 2.040573e+002
1.049385e+002, 2.018131e+002
1.054207e+002, 2.011800e+002
1.059028e+002, 2.004796e+002
1.063849e+002, 1.989035e+002
1.068670e+002, 1.964049e+002
1.073491e+002, 1.932570e+002
1.078312e+002, 1.894286e+002
1.083134e+002, 1.849791e+002
1.087955e+002, 1.810914e+002
1.092776e+002, 1.779843e+002
1.097597e+002, 1.754918e+002
1.102418e+002, 1.734665e+002
1.107239e+002, 1.720175e+002
1.112061e+002, 1.707421e+002
1.116882e+002, 1.691708e+002
1.121703e+002, 1.673842e+002
1.126524e+002, 1.658547e+002
1.131345e+002, 1.650773e+002
1.136166e+002, 1.649863e+002
1.140988e+002, 1.644910e+002
1.145809e+002, 1.632374e+002
1.150630e+002, 1.616812e+002
1.155451e+002, 1.599453e+002
1.160272e+002, 1.580787e+002
1.165093e+002, 1.562645e+002
1.169915e+002, 1.547608e+002
1.174736e+002, 1.537342e+002
1.179557e+002, 1.525882e+002
1.184378e+002, 1.511217e+002
1.189199e+002, 1.496428e+002
1.194020e+002, 1.483674e+002
1.198842e+002, 1.473655e+002
1.203663e+002, 1.465562e+002
1.208484e+002, 1.457489e+002
1.213305e+002, 1.447249e+002
1.218126e+002, 1.439760e+002
1.222947e+002, 1.439613e+002
1.227769e+002, 1.441264e+002
1.232590e+002, 1.436931e+002
1.237411e+002, 1.422023e+002
1.242232e+002, 1.399349e+002
1.247053e+002, 1.381648e+002
1.251874e+002, 1.370424e+002
1.256696e+002, 1.361147e+002
1.261517e+002, 1.351712e+002
1.266338e+002, 1.342631e+002
1.271159e+002, 1.336167e+002
1.275980e+002, 1.335425e+002
1.280801e+002, 1.338091e+002
1.285623e+002, 1.336306e+002
1.290444e+002, 1.327211e+002
1.295265e+002, 1.315397e+002
1.300086e+002, 1.305193e+002
1.304907e+002, 1.296920e+002
1.309728e+002, 1.288808e+002
1.314550e+002, 1.280078e+002
1.319371e+002, 1.270732e+002
1.324192e+002, 1.260587e+002
1.329013e+002, 1.248827e+002
1.333834e+002, 1.236327e+002
1.338655e+002, 1.225688e+002
1.343477e+002, 1.217405e+002
1.348298e+002, 1.210548e+002
1.353119e+002, 1.205264e+002
1.357940e+002, 1.200942e+002
1.362761e+002, 1.196403e+002
1.367582e+002, 1.190245e+002
1.372404e+002, 1.182371e+002
1.377225e+002, 1.177699e+002
1.382046e+002, 1.181579e+002
1.386867e+002, 1.184094e+002
1.391688e+002, 1.182361e+002
1.396509e+002, 1.176313e+002
1.401331e+002, 1.167190e+002
1.406152e+002, 1.155815e+002
1.410973e+002, 1.141216e+002
1.415794e+002, 1.128131e+002
1.420615e+002, 1.115637e+002
1.425436e+002, 1.104904e+002
1.430258e+002, 1.097140e+002
1.435079e+002, 1.092366e+002
1.439900e+002, 1.088961e+002
1.444721e+002, 1.084783e+002
1.449542e+002, 1.079325e+002
1.454363e+002, 1.074351e+002
1.459185e+002, 1.070023e+002
1.464006e+002, 1.066134e+002
1.468827e+002, 1.062919e+002
1.473648e+002, 1.060702e+002
1.478469e+002, 1.057977e+002
1.483290e+002, 1.051096e+002
1.488112e+002, 1.039533e+002
1.492933e+002, 1.029558e+002
1.497754e+002, 1.024413e+002
1.502575e+002, 1.022755e+002
1.507396e+002, 1.020534e+002
1.512217e+002, 1.016353e+002
1.517039e+002, 1.011387e+002
1.521860e+002, 1.007023e+002
1.526681e+002, 1.003216e+002
1.531502e+002, 1.000207e+002
1.536323e+002, 9.991164e+001
1.541144e+002, 1.000087e+002
1.545966e+002, 9.989075e+001
1.550787e+002, 9.933001e+001
1.555608e+002, 9.855679e+001
1.560429e+002, 9.765347e+001
1.565250e+002, 9.662584e+001
1.570071e+002, 9.561914e+001
1.574893e+002, 9.485115e+001
1.579714e+002, 9.440686e+001
1.584535e+002, 9.398258e+001
1.589356e+002, 9.340273e+001
1.594177e+002, 9.287817e+001
1.598998e+002, 9.264711e+001
1.603820e+002, 9.279623e+001
1.608641e+002, 9.311412e+001
1.613462e+002, 9.309498e+001
1.618283e+002, 9.252628e+001
1.623104e+002, 9.187302e+001
1.627925e+002, 9.103953e+001
1.632747e+002, 9.020267e+001
1.637568e+002, 8.957372e+001
1.642389e+002, 8.926670e+001
1.647210e+002, 8.918580e+001
1.652031e+002, 8.893304e+001
1.656852e+002, 8.830020e+001
1.661674e+002, 8.773144e+001
1.666495e+002, 8.728034e+001
1.671316e+002, 8.694156e+001
1.676137e+002, 8.670932e+001
1.680958e+002, 8.658480e+001
1.685779e+002, 8.656012e+001
1.690601e+002, 8.657806e+001
1.695422e+002, 8.685655e+001
1.700243e+002, 8.695666e+001
1.705064e+002, 8.658856e+001
1.709885e+002, 8.584930e+001
1.714706e+002, 8.511468e+001
1.719528e+002, 8.458544e+001
1.724349e+002, 8.427226e+001
1.729170e+002, 8.408116e+001
1.733991e+002, 8.415438e+001
1.738812e+002, 8.423489e+001
1.743633e+002, 8.410294e+001
1.748455e+002, 8.375347e+001
1.753276e+002, 8.338038e+001
1.758097e+002, 8.311153e+001
1.762918e+002, 8.289668e+001
1.767739e+002, 8.264946e+001
1.772560e+002, 8.236654e+001
1.777382e+002, 8.203436e+001
1.782203e+002, 8.157897e+001
1.787024e+002, 8.092078e+001
1.791845e+002, 8.041393e+001
1.796666e+002, 8.041931e+001
1.801487e+002, 8.064385e+001
1.806309e+002, 8.071239e+001
1.811130e+002, 8.042294e+001
1.815951e+002, 7.990159e+001
1.820772e+002, 7.948094e+001
1.825593e+002, 7.919296e+001
1.830414e+002, 7.896819e+001
1.835236e+002, 7.877775e+001
1.840057e+002, 7.862206e+001
1.844878e+002, 7.851277e+001
1.849699e+002, 7.847476e+001
1.854520e+002, 7.848399e+001
1.859341e+002, 7.838679e+001
1.864163e+002, 7.813096e+001
1.868984e+002, 7.781011e+001
1.873805e+002, 7.737709e+001
1.878626e+002, 7.689972e+001
1.883447e+002, 7.648827e+001
1.888268e+002, 7.622395e+001
1.893090e+002, 7.610303e+001
1.897911e+002, 7.595737e+001
1.902732e+002, 7.575636e+001
1.907553e+002, 7.556234e+001
1.912374e+002, 7.541696e+001
1.917195e+002, 7.529418e+001
1.922017e+002, 7.511990e+001
1.926838e+002, 7.482110e+001
1.931659e+002, 7.438239e+001
1.936480e+002, 7.416496e+001
1.941301e+002, 7.438335e+001
1.946122e+002, 7.456454e+001
1.950944e+002, 7.441800e+001
1.955765e+002, 7.402246e+001
1.960586e+002, 7.371688e+001
1.965407e+002, 7.382164e+001
1.970228e+002, 7.435334e+001
1.975049e+002, 7.453561e+001
1.979871e+002, 7.407807e+001
1.984692e+002, 7.354819e+001
1.989513e+002, 7.329700e+001
1.994334e+002, 7.332874e+001
1.999155e+002, 7.344228e+001
2.003976e+002, 7.350728e+001
2.008798e+002, 7.351389e+001
2.013619e+002, 7.345225e+001
2.018440e+002, 7.323711e+001
2.023261e+002, 7.300660e+001
2.028082e+002, 7.290491e+001
2.032903e+002, 7.294483e+001
2.037725e+002, 7.299606e+001
2.042546e+002, 7.301760e+001
2.047367e+002, 7.297202e+001
2.052188e+002, 7.274019e+001
2.057009e+002, 7.203984e+001
2.061830e+002, 7.124927e+001
2.066652e+002, 7.093642e+001
2.071473e+002, 7.121327e+001
2.076294e+002, 7.155419e+001
2.081115e+002, 7.158527e+001
2.085936e+002, 7.144316e+001
2.090757e+002, 7.132624e+001
2.095579e+002, 7.132815e+001
2.100400e+002, 7.139040e+001
2.105221e+002, 7.141668e+001
2.110042e+002, 7.144503e+001
2.114863e+002, 7.133846e+001
2.119685e+002, 7.090168e+001
2.124506e+002, 7.032303e+001
2.129327e+002, 6.987624e+001
2.134148e+002, 6.969299e+001
2.138969e+002, 6.972778e+001
2.143790e+002, 6.985893e+001
2.148612e+002, 7.015942e+001
2.153433e+002, 7.043914e+001
2.158254e+002, 7.073129e+001
2.163075e+002, 7.094495e+001
2.167896e+002, 7.093271e+001
2.172717e+002, 7.057175e+001
2.177539e+002, 6.995236e+001
2.182360e+002, 6.947408e+001
2.187181e+002, 6.910868e+001
2.192002e+002, 6.895692e+001
2.196823e+002, 6.918693e+001
2.201644e+002, 6.959689e+001
2.206466e+002, 6.991208e+001
2.211287e+002, 6.996254e+001
2.216108e+002, 6.979369e+001
2.220929e+002, 6.965984e+001
2.225750e+002, 6.952435e+001
2.230571e+002, 6.947526e+001
2.235393e+002, 6.954893e+001
2.240214e+002, 6.971363e+001
2.245035e+002, 6.997721e+001
2.249856e+002, 7.036610e+001
2.254677e+002, 7.080608e+001
2.259498e+002, 7.080970e+001
2.264320e+002, 6.977829e+001
2.269141e+002, 6.895196e+001
2.273962e+002, 6.858067e+001
2.278783e+002, 6.853841e+001
2.283604e+002, 6.863389e+001
2.288425e+002, 6.876999e+001
2.293247e+002, 6.892815e+001
2.298068e+002, 6.899886e+001
2.302889e+002, 6.897070e+001
2.307710e+002, 6.887688e+001
2.312531e+002, 6.863748e+001
2.317352e+002, 6.834359e+001
2.322174e+002, 6.816263e+001
2.326995e+002, 6.819498e+001
2.331816e+002, 6.838509e+001
2.336637e+002, 6.848813e+001
2.341458e+002, 6.844470e+001
2.346279e+002, 6.840044e+001
2.351101e+002, 6.843592e+001
2.355922e+002, 6.849447e+001
2.360743e+002, 6.844759e+001
2.365564e+002, 6.821602e+001
2.370385e+002, 6.786810e+001
2.375206e+002, 6.762399e+001
2.380028e+002, 6.741573e+001
2.384849e+002, 6.737261e+001
2.389670e+002, 6.771007e+001
2.394491e+002, 6.824984e+001
2.399312e+002, 6.854955e+001
2.404133e+002, 6.834799e+001
2.408955e+002, 6.791082e+001
2.413776e+002, 6.786978e+001
2.418597e+002, 6.839610e+001
2.423418e+002, 6.882097e+001
2.428239e+002, 6.873812e+001
2.433060e+002, 6.832307e+001
2.437882e+002, 6.808161e+001
2.442703e+002, 6.825001e+001
2.447524e+002, 6.858778e+001
2.452345e+002, 6.870123e+001
2.457166e+002, 6.856937e+001
2.461987e+002, 6.837371e+001
2.466809e+002, 6.814504e+001
2.471630e+002, 6.791231e+001
2.476451e+002, 6.779333e+001
2.481272e+002, 6.788985e+001
2.486093e+002, 6.801501e+001
2.490914e+002, 6.789365e+001
2.495736e+002, 6.751759e+001
2.500557e+002, 6.723848e+001
2.505378e+002, 6.735871e+001
2.510199e+002, 6.776723e+001
2.515020e+002, 6.798547e+001
2.519841e+002, 6.781557e+001
2.524663e+002, 6.758086e+001
2.529484e+002, 6.762702e+001
2.534305e+002, 6.791728e+001
2.539126e+002, 6.812720e+001
2.543947e+002, 6.795068e+001
2.548768e+002, 6.749529e+001
2.553590e+002, 6.729803e+001
2.558411e+002, 6.756808e+001
2.563232e+002, 6.790154e+001
2.568053e+002, 6.803127e+001
2.572874e+002, 6.798676e+001
2.577695e+002, 6.787236e+001
2.582516e+002, 6.773060e+001
2.587338e+002, 6.756517e+001
2.592159e+002, 6.737702e+001
2.596980e+002, 6.704237e+001
2.601801e+002, 6.688330e+001
2.606622e+002, 6.721046e+001
2.611443e+002, 6.782079e+001
2.616265e+002, 6.825836e+001
2.621086e+002, 6.816872e+001
2.625907e+002, 6.767669e+001
2.630728e+002, 6.735785e+001
2.635549e+002, 6.728056e+001
2.640370e+002, 6.728574e+001
2.645192e+002, 6.741109e+001
2.650013e+002, 6.754701e+001
2.654834e+002, 6.750591e+001
2.659655e+002, 6.714622e+001
2.664476e+002, 6.656201e+001
2.669297e+002, 6.608347e+001
2.674119e+002, 6.577517e+001
2.678940e+002, 6.547709e+001
2.683761e+002, 6.511256e+001
2.688582e+002, 6.473672e+001
2.693403e+002, 6.442430e+001
2.698224e+002, 6.422154e+001
2.703046e+002, 6.408298e+001
2.707867e+002, 6.387059e+001
2.712688e+002, 6.349097e+001
2.717509e+002, 6.321075e+001
2.722330e+002, 6.314809e+001
2.727151e+002, 6.316540e+001
2.731973e+002, 6.312802e+001
2.736794e+002, 6.298171e+001
2.741615e+002, 6.276229e+001
2.746436e+002, 6.252591e+001
2.751257e+002, 6.219832e+001
2.756078e+002, 6.201010e+001
2.760900e+002, 6.204179e+001
2.765721e+002, 6.216500e+001
2.770542e+002, 6.222159e+001
2.775363e+002, 6.217952e+001
2.780184e+002, 6.221370e+001
2.785005e+002, 6.270111e+001
2.789827e+002, 6.407534e+001
2.794648e+002, 6.491267e+001
2.799469e+002, 6.478417e+001
2.804290e+002, 6.444531e+001
2.809111e+002, 6.431348e+001
2.813932e+002, 6.450084e+001
2.818754e+002, 6.495293e+001
2.823575e+002, 6.562427e+001
2.828396e+002, 6.658022e+001
2.833217e+002, 6.757463e+001
2.838038e+002, 6.850741e+001
2.842859e+002, 6.955209e+001
2.847681e+002, 7.077299e+001
2.852502e+002, 7.219043e+001
2.857323e+002, 7.381092e+001
2.862144e+002, 7.565529e+001
2.866965e+002, 7.775504e+001
2.871786e+002, 7.992638e+001
2.876608e+002, 8.249223e+001
2.881429e+002, 8.483582e+001
2.886250e+002, 8.684089e+001
2.891071e+002, 8.841814e+001
2.895892e+002, 8.947517e+001
2.900714e+002, 8.996381e+001
2.905535e+002, 8.988680e+001
2.910356e+002, 8.897732e+001
2.915177e+002, 8.674177e+001
2.919998e+002, 8.420828e+001
2.924819e+002, 8.145829e+001
2.929641e+002, 7.861520e+001
2.934462e+002, 7.580820e+001
2.939283e+002, 7.308661e+001
2.944104e+002, 7.048814e+001
2.948925e+002, 6.816226e+001
2.953746e+002, 6.616181e+001
2.958568e+002, 6.440364e+001
2.963389e+002, 6.290374e+001
2.968210e+002, 6.162757e+001
2.973031e+002, 6.054506e+001
2.977852e+002, 5.963752e+001
2.982673e+002, 5.889024e+001
2.987495e+002, 5.826998e+001
2.992316e+002, 5.791811e+001
2.997137e+002, 5.751733e+001
3.001958e+002, 5.702641e+001
3.006779e+002, 5.649298e+001
3.011600e+002, 5.594305e+001
3.016422e+002, 5.538916e+001
3.021243e+002, 5.486841e+001
3.026064e+002, 5.445359e+001
3.030885e+002, 5.420597e+001
3.035706e+002, 5.396809e+001
3.040527e+002, 5.369809e+001
3.045349e+002, 5.346455e+001
3.050170e+002, 5.333389e+001
3.054991e+002, 5.331039e+001
3.059812e+002, 5.334130e+001
3.064633e+002, 5.337637e+001
3.069454e+002, 5.345842e+001
3.074276e+002, 5.337668e+001
3.079097e+002, 5.293296e+001
3.083918e+002, 5.252424e+001
3.088739e+002, 5.239063e+001
3.093560e+002, 5.251214e+001
3.098381e+002, 5.271967e+001
3.103203e+002, 5.288103e+001
3.108024e+002, 5.299929e+001
3.112845e+002, 5.299915e+001
3.117666e+002, 5.270691e+001
3.122487e+002, 5.249103e+001
3.127308e+002, 5.253588e+001
3.132130e+002, 5.275828e+001
3.136951e+002, 5.296735e+001
3.141772e+002, 5.304001e+001
3.146593e+002, 5.299550e+001
3.151414e+002, 5.296495e+001
3.156235e+002, 5.297498e+001
3.161057e+002, 5.296721e+001
3.165878e+002, 5.293980e+001
3.170699e+002, 5.288640e+001
3.175520e+002, 5.279227e+001
3.180341e+002, 5.265063e+001
3.185162e+002, 5.248062e+001
3.189984e+002, 5.233216e+001
3.194805e+002, 5.219444e+001
3.199626e+002, 5.209843e+001
3.204447e+002, 5.209506e+001
3.209268e+002, 5.210543e+001
3.214089e+002, 5.201981e+001
3.218911e+002, 5.182260e+001
3.223732e+002, 5.164657e+001
3.228553e+002, 5.172276e+001
3.233374e+002, 5.232681e+001
3.238195e+002, 5.247231e+001
3.243016e+002, 5.183573e+001
3.247838e+002, 5.106074e+001
3.252659e+002, 5.049942e+001
3.257480e+002, 5.019774e+001
3.262301e+002, 5.005673e+001
3.267122e+002, 4.998791e+001
3.271943e+002, 4.999750e+001
3.276765e+002, 5.003143e+001
3.281586e+002, 5.016930e+001
3.286407e+002, 5.024892e+001
3.291228e+002, 5.021005e+001
3.296049e+002, 5.006329e+001
3.300870e+002, 4.982691e+001
3.305692e+002, 4.949926e+001
3.310513e+002, 4.910584e+001
3.315334e+002, 4.884975e+001
3.320155e+002, 4.882387e+001
3.324976e+002, 4.883893e+001
3.329797e+002, 4.892641e+001
3.334619e+002, 4.902255e+001
3.339440e+002, 4.904358e+001
3.344261e+002, 4.895201e+001
3.349082e+002, 4.878978e+001
3.353904e+002, 4.865279e+001
3.358725e+002, 4.853883e+001
3.363546e+002, 4.846114e+001
3.368367e+002, 4.849453e+001
3.373188e+002, 4.851563e+001
3.378009e+002, 4.838943e+001
3.382831e+002, 4.810469e+001
3.387652e+002, 4.779329e+001
3.392473e+002, 4.764261e+001
3.397294e+002, 4.772258e+001
3.402115e+002, 4.774446e+001
3.406936e+002, 4.757458e+001
3.411758e+002, 4.747082e+001
3.416579e+002, 4.766644e+001
3.421400e+002, 4.807179e+001
3.426221e+002, 4.837342e+001
3.431042e+002, 4.828324e+001
3.435863e+002, 4.780188e+001
3.440685e+002, 4.740513e+001
3.445506e+002, 4.706026e+001
3.450327e+002, 4.685009e+001
3.455148e+002, 4.690876e+001
3.459969e+002, 4.709693e+001
3.464790e+002, 4.719444e+001
3.469612e+002, 4.707536e+001
3.474433e+002, 4.681407e+001
3.479254e+002, 4.664431e+001
3.484075e+002, 4.660836e+001
3.488896e+002, 4.660603e+001
3.493717e+002, 4.664800e+001
3.498539e+002, 4.669812e+001
3.503360e+002, 4.673408e+001
3.508181e+002, 4.674668e+001
3.513002e+002, 4.672488e+001
3.517823e+002, 4.664397e+001
3.522644e+002, 4.648255e+001
3.527466e+002, 4.633232e+001
3.532287e+002, 4.617147e+001
3.537108e+002, 4.604422e+001
3.541929e+002, 4.599491e+001
3.546750e+002, 4.601041e+001
3.551571e+002, 4.603044e+001
3.556393e+002, 4.600827e+001
3.561214e+002, 4.594393e+001
3.566035e+002, 4.583982e+001
3.570856e+002, 4.564822e+001
3.575677e+002, 4.547435e+001
3.580498e+002, 4.533568e+001
3.585320e+002, 4.524215e+001
3.590141e+002, 4.523301e+001
3.594962e+002, 4.537240e+001
3.599783e+002, 4.554589e+001
3.604604e+002, 4.539591e+001
3.609425e+002, 4.471912e+001
3.614247e+002, 4.419423e+001
3.619068e+002, 4.405209e+001
3.623889e+002, 4.412084e+001
3.628710e+002, 4.431332e+001
3.633531e+002, 4.461275e+001
3.638352e+002, 4.487716e+001
3.643174e+002, 4.489274e+001
3.647995e+002, 4.462674e+001
3.652816e+002, 4.445044e+001
3.657637e+002, 4.453695e+001
3.662458e+002, 4.463420e+001
3.667279e+002, 4.454494e+001
3.672101e+002, 4.429282e+001
3.676922e+002, 4.407174e+001
3.681743e+002, 4.405320e+001
3.686564e+002, 4.418762e+001
3.691385e+002, 4.424412e+001
3.696206e+002, 4.418805e+001
3.701028e+002, 4.410479e+001
3.705849e+002, 4.402774e+001
3.710670e+002, 4.396284e+001
3.715491e+002, 4.392989e+001
3.720312e+002, 4.397153e+001
3.725133e+002, 4.401165e+001
3.729955e+002, 4.392939e+001
3.734776e+002, 4.371384e+001
3.739597e+002, 4.347509e+001
3.744418e+002, 4.317214e+001
3.749239e+002, 4.292649e+001
3.754060e+002, 4.294334e+001
3.758882e+002, 4.331861e+001
3.763703e+002, 4.361852e+001
3.768524e+002, 4.349264e+001
3.773345e+002, 4.302607e+001
3.778166e+002, 4.254383e+001
3.782987e+002, 4.206902e+001
3.787809e+002, 4.169280e+001
3.792630e+002, 4.155398e+001
3.797451e+002, 4.162230e+001
3.802272e+002, 4.171128e+001
3.807093e+002, 4.180861e+001
3.811914e+002, 4.187103e+001
3.816736e+002, 4.180727e+001
3.821557e+002, 4.160563e+001
3.826378e+002, 4.142439e+001
3.831199e+002, 4.140490e+001
3.836020e+002, 4.150279e+001
3.840841e+002, 4.150548e+001
3.845663e+002, 4.132331e+001
3.850484e+002, 4.113063e+001
3.855305e+002, 4.103667e+001
3.860126e+002, 4.101599e+001
3.864947e+002, 4.098735e+001
3.869768e+002, 4.091607e+001
3.874590e+002, 4.082171e+001
3.879411e+002, 4.074850e+001
3.884232e+002, 4.070937e+001
3.889053e+002, 4.064997e+001
3.893874e+002, 4.055427e+001
3.898695e+002, 4.043518e+001
3.903517e+002, 4.027450e+001
3.908338e+002, 4.007475e+001
3.913159e+002, 3.994372e+001
3.917980e+002, 4.002248e+001
3.922801e+002, 4.035413e+001
3.927622e+002, 4.048036e+001
3.932444e+002, 4.023649e+001
3.937265e+002, 3.996336e+001
3.942086e+002, 3.981462e+001
3.946907e+002, 3.977961e+001
3.951728e+002, 3.980085e+001
3.956549e+002, 3.984882e+001
3.961371e+002, 3.991862e+001
3.966192e+002, 3.998889e+001
3.971013e+002, 4.017419e+001
3.975834e+002, 4.021299e+001
3.980655e+002, 3.996327e+001
3.985476e+002, 3.962017e+001
3.990298e+002, 3.935853e+001
3.995119e+002, 3.923236e+001
3.999940e+002, 3.921664e+001
4.004761e+002, 3.929321e+001
4.009582e+002, 3.950951e+001
4.014403e+002, 3.964928e+001
4.019225e+002, 3.971301e+001
4.024046e+002, 3.971143e+001
4.028867e+002, 3.958680e+001
4.033688e+002, 3.939716e+001
4.038509e+002, 3.927552e+001
4.043330e+002, 3.932362e+001
4.048152e+002, 3.950587e+001
4.052973e+002, 3.961849e+001
4.057794e+002, 3.962845e+001
4.062615e+002, 3.961256e+001
4.067436e+002, 3.957411e+001
4.072257e+002, 3.952563e+001
4.077079e+002, 3.948791e+001
4.081900e+002, 3.946580e+001
4.086721e+002, 3.942775e+001
4.091542e+002, 3.929845e+001
4.096363e+002, 3.903799e+001
4.101184e+002, 3.890882e+001
4.106006e+002, 3.905836e+001
4.110827e+002, 3.924151e+001
4.115648e+002, 3.938900e+001
4.120469e+002, 3.947304e+001
4.125290e+002, 3.942690e+001
4.130111e+002, 3.909756e+001
4.134933e+002, 3.862395e+001
4.139754e+002, 3.850490e+001
4.144575e+002, 3.888617e+001
4.149396e+002, 3.923451e+001
4.154217e+002, 3.925793e+001
4.159038e+002, 3.911888e+001
4.163860e+002, 3.899261e+001
4.168681e+002, 3.892796e+001
4.173502e+002, 3.884974e+001
4.178323e+002, 3.862478e+001
4.183144e+002, 3.828443e+001
4.187965e+002, 3.812447e+001
4.192787e+002, 3.828785e+001
4.197608e+002, 3.855656e+001
4.202429e+002, 3.869202e+001
4.207250e+002, 3.870530e+001
4.212071e+002, 3.871086e+001
4.216892e+002, 3.880240e+001
4.221714e+002, 3.888313e+001
4.226535e+002, 3.875297e+001
4.231356e+002, 3.839683e+001
4.236177e+002, 3.815733e+001
4.240998e+002, 3.833932e+001
4.245819e+002, 3.881555e+001
4.250641e+002, 3.900549e+001
4.255462e+002, 3.864618e+001
4.260283e+002, 3.833825e+001
4.265104e+002, 3.841845e+001
4.269925e+002, 3.872037e+001
4.274746e+002, 3.890744e+001
4.279568e+002, 3.886005e+001
4.284389e+002, 3.873013e+001
4.289210e+002, 3.875497e+001
4.294031e+002, 3.903021e+001
4.298852e+002, 3.919028e+001
4.303673e+002, 3.918204e+001
4.308495e+002, 3.910185e+001
4.313316e+002, 3.897376e+001
4.318137e+002, 3.882655e+001
4.322958e+002, 3.873720e+001
4.327779e+002, 3.877290e+001
4.332600e+002, 3.890813e+001
4.337422e+002, 3.893489e+001
4.342243e+002, 3.871432e+001
4.347064e+002, 3.854737e+001
4.351885e+002, 3.855447e+001
4.356706e+002, 3.859381e+001
4.361527e+002, 3.847348e+001
4.366349e+002, 3.815040e+001
4.371170e+002, 3.779284e+001
4.375991e+002, 3.764765e+001
4.380812e+002, 3.777116e+001
4.385633e+002, 3.790099e+001
4.390454e+002, 3.814226e+001
4.395276e+002, 3.828813e+001
4.400097e+002, 3.814956e+001
4.404918e+002, 3.784850e+001
4.409739e+002, 3.767578e+001
4.414560e+002, 3.785465e+001
4.419381e+002, 3.822813e+001
4.424203e+002, 3.829539e+001
4.429024e+002, 3.788820e+001
4.433845e+002, 3.762416e+001
4.438666e+002, 3.784040e+001
4.443487e+002, 3.818711e+001
4.448308e+002, 3.841248e+001
4.453130e+002, 3.847170e+001
4.457951e+002, 3.840948e+001
4.462772e+002, 3.818418e+001
4.467593e+002, 3.784393e+001
4.472414e+002, 3.765651e+001
4.477235e+002, 3.769898e+001
4.482057e+002, 3.779939e+001
4.486878e+002, 3.781920e+001
4.491699e+002, 3.779507e+001
4.496520e+002, 3.781788e+001
4.501341e+002, 3.797910e+001
4.506162e+002, 3.813292e+001
4.510984e+002, 3.811131e+001
4.515805e+002, 3.794307e+001
4.520626e+002, 3.781258e+001
4.525447e+002, 3.780347e+001
4.530268e+002, 3.785712e+001
4.535089e+002, 3.787290e+001
4.539911e+002, 3.786014e+001
4.544732e+002, 3.779327e+001
4.549553e+002, 3.759921e+001
4.554374e+002, 3.738676e+001
4.559195e+002, 3.725533e+001
4.564016e+002, 3.721946e+001
4.568838e+002, 3.727924e+001
4.573659e+002, 3.745556e+001
4.578480e+002, 3.773721e+001
4.583301e+002, 3.791971e+001
4.588122e+002, 3.804757e+001
4.592943e+002, 3.804361e+001
4.597765e+002, 3.778841e+001
4.602586e+002, 3.742728e+001
4.607407e+002, 3.712572e+001
4.612228e+002, 3.694553e+001
4.617049e+002, 3.688099e+001
4.621870e+002, 3.694294e+001
4.626692e+002, 3.719474e+001
4.631513e+002, 3.737043e+001
4.636334e+002, 3.744431e+001
4.641155e+002, 3.747267e+001
4.645976e+002, 3.746016e+001
4.650797e+002, 3.742137e+001
4.655619e+002, 3.738207e+001
4.660440e+002, 3.736070e+001
4.665261e+002, 3.734298e+001
4.670082e+002, 3.727949e+001
4.674903e+002, 3.713868e+001
4.679724e+002, 3.703798e+001
4.684546e+002, 3.703475e+001
4.689367e+002, 3.706349e+001
4.694188e+002, 3.709094e+001
4.699009e+002, 3.710997e+001
4.703830e+002, 3.710370e+001
4.708651e+002, 3.703537e+001
4.713473e+002, 3.692850e+001
4.718294e+002, 3.686740e+001
4.723115e+002, 3.685743e+001
4.727936e+002, 3.689117e+001
4.732757e+002, 3.702760e+001
4.737578e+002, 3.719251e+001
4.742400e+002, 3.723005e+001
4.747221e+002, 3.703263e+001
4.752042e+002, 3.684188e+001
4.756863e+002, 3.684761e+001
4.761684e+002, 3.699299e+001
4.766505e+002, 3.713418e+001
4.771327e+002, 3.724542e+001
4.776148e+002, 3.727623e+001
4.780969e+002, 3.712216e+001
4.785790e+002, 3.674175e+001
4.790611e+002, 3.650184e+001
4.795432e+002, 3.646786e+001
4.800254e+002, 3.653896e+001
4.805075e+002, 3.673308e+001
4.809896e+002, 3.698547e+001
4.814717e+002, 3.711480e+001
4.819538e+002, 3.700941e+001
4.824359e+002, 3.676986e+001
4.829181e+002, 3.668657e+001
4.834002e+002, 3.693645e+001
4.838823e+002, 3.708779e+001
4.843644e+002, 3.708788e+001
4.848465e+002, 3.702942e+001
4.853286e+002, 3.696045e+001
4.858108e+002, 3.689617e+001
4.862929e+002, 3.684579e+001
4.867750e+002, 3.681719e+001
4.872571e+002, 3.680948e+001
4.877392e+002, 3.681751e+001
4.882213e+002, 3.685935e+001
4.887035e+002, 3.688621e+001
4.891856e+002, 3.680906e+001
4.896677e+002, 3.675106e+001
4.901498e+002, 3.689067e+001
4.906319e+002, 3.727094e+001
4.911140e+002, 3.763001e+001
4.915962e+002, 3.765076e+001
4.920783e+002, 3.738198e+001
4.925604e+002, 3.724144e+001
4.930425e+002, 3.733824e+001
4.935246e+002, 3.743621e+001
4.940067e+002, 3.734602e+001
4.944889e+002, 3.712769e+001
4.949710e+002, 3.689916e+001
4.954531e+002, 3.663981e+001
4.959352e+002, 3.643351e+001
4.964173e+002, 3.638201e+001
4.968994e+002, 3.644707e+001
4.973816e+002, 3.648082e+001
4.978637e+002, 3.642557e+001
4.983458e+002, 3.634903e+001
4.988279e+002, 3.635496e+001
4.993100e+002, 3.646575e+001
4.997921e+002, 3.654770e+001
5.002743e+002, 3.660395e+001
5.007564e+002, 3.661971e+001
5.012385e+002, 3.655320e+001
5.017206e+002, 3.643424e+001
5.022027e+002, 3.633979e+001
5.026848e+002, 3.631123e+001
5.031670e+002, 3.634555e+001
5.036491e+002, 3.644633e+001
5.041312e+002, 3.678076e+001
5.046133e+002, 3.689940e+001
5.050954e+002, 3.658279e+001
5.055775e+002, 3.623146e+001
5.060597e+002, 3.613165e+001
5.065418e+002, 3.627110e+001
5.070239e+002, 3.645878e+001
5.075060e+002, 3.655733e+001
5.079881e+002, 3.657693e+001
5.084702e+002, 3.655898e+001
5.089524e+002, 3.648394e+001
5.094345e+002, 3.641578e+001
5.099166e+002, 3.634591e+001
5.103987e+002, 3.630968e+001
5.108808e+002, 3.637527e+001
5.113629e+002, 3.655403e+001
5.118451e+002, 3.668937e+001
5.123271e+002, 3.661407e+001
5.128093e+002, 3.640688e+001
5.132914e+002, 3.629573e+001
5.137735e+002, 3.631143e+001
5.142556e+002, 3.637364e+001
5.147377e+002, 3.646530e+001
5.152198e+002, 3.655585e+001
5.157020e+002, 3.654864e+001
5.161841e+002, 3.635806e+001
5.166662e+002, 3.618971e+001
5.171483e+002, 3.616454e+001
5.176304e+002, 3.621183e+001
5.181125e+002, 3.619982e+001
5.185947e+002, 3.609805e+001
5.190768e+002, 3.600669e+001
5.195589e+002, 3.604701e+001
5.200410e+002, 3.624333e+001
5.205231e+002, 3.633582e+001
5.210052e+002, 3.626031e+001
5.214874e+002, 3.617068e+001
5.219695e+002, 3.610529e+001
5.224516e+002, 3.605901e+001
5.229337e+002, 3.602717e+001
5.234158e+002, 3.600645e+001
5.238979e+002, 3.598038e+001
5.243801e+002, 3.591638e+001
5.248622e+002, 3.580225e+001
5.253443e+002, 3.571659e+001
5.258264e+002, 3.567361e+001
5.263085e+002, 3.564822e+001
5.267906e+002, 3.562396e+001
5.272728e+002, 3.560946e+001
5.277549e+002, 3.562350e+001
5.282370e+002, 3.567883e+001
5.287191e+002, 3.575418e+001
5.292012e+002, 3.583297e+001
5.296833e+002, 3.591320e+001
5.301655e+002, 3.596021e+001
5.306476e+002, 3.594772e+001
5.311297e+002, 3.592824e+001
5.316118e+002, 3.598093e+001
5.320939e+002, 3.609263e+001
5.325760e+002, 3.615420e+001
5.330582e+002, 3.613817e+001
5.335403e+002, 3.606958e+001
5.340224e+002, 3.590921e+001
5.345045e+002, 3.570652e+001
5.349866e+002, 3.561715e+001
5.354688e+002, 3.571643e+001
5.359509e+002, 3.592059e+001
5.364330e+002, 3.608667e+001
5.369151e+002, 3.626275e+001
5.373972e+002, 3.626556e+001
5.378793e+002, 3.588908e+001
5.383615e+002, 3.554580e+001
5.388436e+002, 3.554755e+001
5.393257e+002, 3.576549e+001
5.398078e+002, 3.584412e+001
5.402899e+002, 3.556698e+001
5.407720e+002, 3.513210e+001
5.412542e+002, 3.502804e+001
5.417363e+002, 3.537773e+001
5.422184e+002, 3.564426e+001
5.427005e+002, 3.567810e+001
5.431826e+002, 3.566246e+001
5.436647e+002, 3.569850e+001
5.441469e+002, 3.577840e+001
5.446290e+002, 3.584923e+001
5.451111e+002, 3.590086e+001
5.455932e+002, 3.591616e+001
5.460753e+002, 3.584438e+001
5.465574e+002, 3.568970e+001
5.470396e+002, 3.556144e+001
5.475217e+002, 3.548661e+001
5.480038e+002, 3.547631e+001
5.484859e+002, 3.561153e+001
5.489680e+002, 3.592711e+001
5.494501e+002, 3.605206e+001
5.499323e+002, 3.570321e+001
5.504144e+002, 3.531441e+001
5.508965e+002, 3.529126e+001
5.513786e+002, 3.554689e+001
5.518607e+002, 3.570149e+001
5.523428e+002, 3.554063e+001
5.528250e+002, 3.521029e+001
5.533071e+002, 3.507804e+001
5.537892e+002, 3.529118e+001
5.542713e+002, 3.543982e+001
5.547534e+002, 3.552860e+001
5.552355e+002, 3.555813e+001
5.557177e+002, 3.547866e+001
5.561998e+002, 3.533898e+001
5.566819e+002, 3.525718e+001
5.571640e+002, 3.531115e+001
5.576461e+002, 3.544888e+001
5.581282e+002, 3.558019e+001
5.586104e+002, 3.571880e+001
5.590925e+002, 3.576033e+001
5.595746e+002, 3.562310e+001
5.600567e+002, 3.543254e+001
5.605388e+002, 3.529317e+001
5.610209e+002, 3.520224e+001
5.615031e+002, 3.513266e+001
5.619852e+002, 3.505980e+001
5.624673e+002, 3.501529e+001
5.629494e+002, 3.504047e+001
5.634315e+002, 3.512658e+001
5.639136e+002, 3.524885e+001
5.643958e+002, 3.541605e+001
5.648779e+002, 3.555254e+001
5.653600e+002, 3.550963e+001
5.658421e+002, 3.516956e+001
5.663242e+002, 3.499354e+001
5.668063e+002, 3.508638e+001
5.672885e+002, 3.523996e+001
5.677706e+002, 3.537184e+001
5.682527e+002, 3.546902e+001
5.687348e+002, 3.552613e+001
5.692169e+002, 3.554038e+001
5.696990e+002, 3.552455e+001
5.701812e+002, 3.550985e+001
5.706633e+002, 3.551072e+001
5.711454e+002, 3.545171e+001
5.716275e+002, 3.525446e+001
5.721096e+002, 3.507042e+001
5.725917e+002, 3.497630e+001
5.730739e+002, 3.495341e+001
5.735560e+002, 3.495646e+001
5.740381e+002, 3.497815e+001
5.745202e+002, 3.500109e+001
5.750023e+002, 3.502119e+001
5.754844e+002, 3.503067e+001
5.759666e+002, 3.496250e+001
5.764487e+002, 3.476851e+001
5.769308e+002, 3.459801e+001
5.774129e+002, 3.463995e+001
5.778950e+002, 3.489993e+001
5.783771e+002, 3.504879e+001
5.788593e+002, 3.495642e+001
5.793414e+002, 3.488462e+001
5.798235e+002, 3.499342e+001
5.803056e+002, 3.518762e+001
5.807877e+002, 3.531209e+001
5.812698e+002, 3.531961e+001
5.817520e+002, 3.526183e+001
5.822341e+002, 3.518926e+001
5.827162e+002, 3.509011e+001
5.831984e+002, 3.508950e+001
5.836805e+002, 3.532089e+001
5.841626e+002, 3.548413e+001
5.846447e+002, 3.546848e+001
5.851268e+002, 3.535463e+001
5.856089e+002, 3.522829e+001
5.860911e+002, 3.511189e+001
5.865732e+002, 3.501970e+001
5.870553e+002, 3.496907e+001
5.875374e+002, 3.495398e+001
5.880195e+002, 3.496492e+001
5.885016e+002, 3.501259e+001
5.889838e+002, 3.502366e+001
5.894659e+002, 3.491685e+001
5.899480e+002, 3.474947e+001
5.904301e+002, 3.470219e+001
5.909122e+002, 3.487812e+001
5.913943e+002, 3.496728e+001
5.918765e+002, 3.479906e+001
5.923586e+002, 3.454328e+001
5.928407e+002, 3.433358e+001
5.933228e+002, 3.421215e+001
5.938049e+002, 3.426102e+001
5.942870e+002, 3.457329e+001
5.947692e+002, 3.505493e+001
5.952513e+002, 3.525437e+001
5.957334e+002, 3.494871e+001
5.962155e+002, 3.475166e+001
5.966976e+002, 3.477680e+001
5.971797e+002, 3.487650e+001
5.976619e+002, 3.498268e+001
5.981440e+002, 3.507548e+001
5.986261e+002, 3.513129e+001
5.991082e+002, 3.512481e+001
5.995903e+002, 3.508276e+001
6.000724e+002, 3.505489e+001
6.005546e+002, 3.504112e+001
6.010367e+002, 3.501129e+001
6.015188e+002, 3.494097e+001
6.020009e+002, 3.487248e+001
6.024830e+002, 3.486380e+001
6.029651e+002, 3.491191e+001
6.034473e+002, 3.497212e+001
6.039294e+002, 3.504825e+001
6.044115e+002, 3.512482e+001
6.048936e+002, 3.523225e+001
6.053757e+002, 3.532612e+001
6.058578e+002, 3.529215e+001
6.063400e+002, 3.509259e+001
6.068221e+002, 3.485307e+001
6.073042e+002, 3.474188e+001
6.077863e+002, 3.476054e+001
6.082684e+002, 3.490443e+001
6.087505e+002, 3.545961e+001
6.092327e+002, 3.579543e+001
6.097148e+002, 3.556326e+001
6.101969e+002, 3.508799e+001
6.106790e+002, 3.476663e+001
6.111611e+002, 3.470766e+001
6.116432e+002, 3.477147e+001
6.121254e+002, 3.489227e+001
6.126075e+002, 3.503633e+001
6.130896e+002, 3.508510e+001
6.135717e+002, 3.502041e+001
6.140538e+002, 3.493380e+001
6.145359e+002, 3.487206e+001
6.150181e+002, 3.483113e+001
6.155002e+002, 3.480148e+001
6.159823e+002, 3.479074e+001
6.164644e+002, 3.477183e+001
6.169465e+002, 3.475024e+001
6.174286e+002, 3.470993e+001
6.179108e+002, 3.459493e+001
6.183929e+002, 3.444142e+001
6.188750e+002, 3.437992e+001
6.193571e+002, 3.450117e+001
6.198392e+002, 3.472390e+001
6.203214e+002, 3.483220e+001
6.208035e+002, 3.479706e+001
6.212856e+002, 3.473589e+001
6.217677e+002, 3.460439e+001
6.222498e+002, 3.450481e+001
6.227319e+002, 3.450636e+001
6.232141e+002, 3.458205e+001
6.236962e+002, 3.466677e+001
6.241783e+002, 3.476484e+001
6.246604e+002, 3.481347e+001
6.251425e+002, 3.468286e+001
6.256246e+002, 3.444592e+001
6.261068e+002, 3.437505e+001
6.265889e+002, 3.454391e+001
6.270710e+002, 3.475326e+001
6.275531e+002, 3.481810e+001
6.280352e+002, 3.474502e+001
6.285173e+002, 3.468847e+001
6.289995e+002, 3.459364e+001
6.294816e+002, 3.458239e+001
6.299637e+002, 3.482296e+001
6.304458e+002, 3.506838e+001
6.309279e+002, 3.499103e+001
6.314100e+002, 3.461714e+001
6.318922e+002, 3.433300e+001
6.323743e+002, 3.450236e+001
6.328564e+002, 3.497293e+001
6.333385e+002, 3.514213e+001
6.338206e+002, 3.491367e+001
6.343027e+002, 3.478420e+001
6.347849e+002, 3.500333e+001
6.352670e+002, 3.527161e+001
6.357491e+002, 3.525938e+001
6.362312e+002, 3.499853e+001
6.367133e+002, 3.482552e+001
6.371954e+002, 3.492765e+001
6.376776e+002, 3.508123e+001
6.381597e+002, 3.514050e+001
6.386418e+002, 3.510698e+001
6.391239e+002, 3.494203e+001
6.396060e+002, 3.463449e+001
6.400881e+002, 3.437705e+001
6.405703e+002, 3.444196e+001
6.410524e+002, 3.487244e+001
6.415345e+002, 3.511850e+001
6.420166e+002, 3.503561e+001
6.424987e+002, 3.492988e+001
6.429808e+002, 3.483143e+001
6.434630e+002, 3.475652e+001
6.439451e+002, 3.471445e+001
6.444272e+002, 3.470872e+001
6.449093e+002, 3.474458e+001
6.453914e+002, 3.485514e+001
6.458735e+002, 3.500421e+001
6.463557e+002, 3.510629e+001
6.468378e+002, 3.516084e+001
6.473199e+002, 3.517585e+001
6.478020e+002, 3.515076e+001
6.482841e+002, 3.509293e+001
6.487662e+002, 3.500067e+001
6.492484e+002, 3.485840e+001
6.497305e+002, 3.476837e+001
6.502126e+002, 3.478754e+001
6.506947e+002, 3.481192e+001
6.511768e+002, 3.478684e+001
6.516589e+002, 3.472578e+001
6.521411e+002, 3.463632e+001
6.526232e+002, 3.452737e+001
6.531053e+002, 3.446389e+001
6.535874e+002, 3.456282e+001
6.540695e+002, 3.482672e+001
6.545516e+002, 3.496767e+001
6.550338e+002, 3.492195e+001
6.555159e+002, 3.487870e+001
6.559980e+002, 3.497710e+001
6.564801e+002, 3.509165e+001
6.569622e+002, 3.505020e+001
6.574443e+002, 3.481680e+001
6.579265e+002, 3.465150e+001
6.584086e+002, 3.473125e+001
6.588907e+002, 3.489543e+001
6.593728e+002, 3.497855e+001
6.598549e+002, 3.498334e+001
6.603370e+002, 3.497133e+001
6.608192e+002, 3.497156e+001
6.613013e+002, 3.495964e+001
6.617834e+002, 3.487494e+001
6.622655e+002, 3.464990e+001
6.627476e+002, 3.460558e+001
6.632297e+002, 3.498469e+001
6.637119e+002, 3.527867e+001
6.641940e+002, 3.526742e+001
6.646761e+002, 3.510817e+001
6.651582e+002, 3.502058e+001
6.656403e+002, 3.506275e+001
6.661224e+002, 3.510773e+001
6.666046e+002, 3.495070e+001
6.670867e+002, 3.473952e+001
6.675688e+002, 3.495586e+001
6.680509e+002, 3.562831e+001
6.685330e+002, 3.600796e+001
6.690151e+002, 3.562096e+001
6.694973e+002, 3.487678e+001
6.699794e+002, 3.461224e+001
6.704615e+002, 3.509456e+001
6.709436e+002, 3.533811e+001
6.714257e+002, 3.508692e+001
6.719078e+002, 3.483934e+001
6.723900e+002, 3.489921e+001
6.728721e+002, 3.512752e+001
6.733542e+002, 3.525832e+001
6.738363e+002, 3.519822e+001
6.743184e+002, 3.507483e+001
6.748005e+002, 3.504166e+001
6.752827e+002, 3.508786e+001
6.757648e+002, 3.510607e+001
6.762469e+002, 3.509023e+001
6.767290e+002, 3.505347e+001
6.772111e+002, 3.495342e+001
6.776932e+002, 3.486828e+001
6.781754e+002, 3.496395e+001
6.786575e+002, 3.529613e+001
6.791396e+002, 3.550250e+001
6.796217e+002, 3.540359e+001
6.801038e+002, 3.523536e+001
6.805859e+002, 3.517134e+001
6.810681e+002, 3.518303e+001
6.815502e+002, 3.516564e+001
6.820323e+002, 3.507993e+001
6.825144e+002, 3.500283e+001
6.829965e+002, 3.507738e+001
6.834786e+002, 3.532235e+001
6.839608e+002, 3.538094e+001
6.844429e+002, 3.510089e+001
6.849250e+002, 3.490885e+001
6.854071e+002, 3.514956e+001
6.858892e+002, 3.547299e+001
6.863713e+002, 3.544688e+001
6.868535e+002, 3.501114e+001
6.873356e+002, 3.466280e+001
6.878177e+002, 3.468838e+001
6.882998e+002, 3.485154e+001
6.887819e+002, 3.492548e+001
6.892640e+002, 3.492495e+001
6.897462e+002, 3.494633e+001
6.902283e+002, 3.502840e+001
6.907104e+002, 3.510880e+001
6.911925e+002, 3.508614e+001
6.916746e+002, 3.493911e+001
6.921567e+002, 3.488480e+001
6.926389e+002, 3.500458e+001
6.931210e+002, 3.510769e+001
6.936031e+002, 3.514998e+001
6.940852e+002, 3.515041e+001
6.945673e+002, 3.511442e+001
6.950494e+002, 3.504757e+001
6.955316e+002, 3.499573e+001
6.960137e+002, 3.501690e+001
6.964958e+002, 3.504855e+001
6.969779e+002, 3.494654e+001
6.974600e+002, 3.476304e+001
6.979421e+002, 3.478350e+001
6.984243e+002, 3.512891e+001
6.989064e+002, 3.552848e+001
6.993885e+002, 3.564137e+001
6.998706e+002, 3.544662e+001
7.003527e+002, 3.524047e+001
7.008348e+002, 3.472388e+001
7.013170e+002, 3.457479e+001
7.017991e+002, 3.525441e+001
7.022812e+002, 3.612681e+001
7.027633e+002, 3.665361e+001
7.032454e+002, 3.676664e+001
7.037275e+002, 3.664094e+001
7.042097e+002, 3.630536e+001
7.046918e+002, 3.586588e+001
7.051739e+002, 3.540887e+001
7.056560e+002, 3.496451e+001
7.061381e+002, 3.479094e+001
7.066202e+002, 3.499267e+001
7.071024e+002, 3.529347e+001
7.075845e+002, 3.540938e+001
7.080666e+002, 3.534521e+001
7.085487e+002, 3.535163e+001
7.090308e+002, 3.555521e+001
7.095129e+002, 3.565721e+001
7.099951e+002, 3.553594e+001
7.104772e+002, 3.535495e+001
7.109593e+002, 3.524220e+001
7.114414e+002, 3.520275e+001
7.119235e+002, 3.518111e+001
7.124056e+002, 3.514698e+001
7.128878e+002, 3.510924e+001
7.133699e+002, 3.505265e+001
7.138520e+002, 3.499236e+001
7.143341e+002, 3.506429e+001
7.148162e+002, 3.532035e+001
7.152983e+002, 3.557811e+001
7.157805e+002, 3.569857e+001
7.162626e+002, 3.569539e+001
7.167447e+002, 3.564536e+001
7.172268e+002, 3.542785e+001
7.177089e+002, 3.533895e+001
7.181910e+002, 3.558039e+001
7.186732e+002, 3.580493e+001
7.191553e+002, 3.570800e+001
7.196374e+002, 3.538805e+001
7.201195e+002, 3.513525e+001
7.206016e+002, 3.509180e+001
7.210837e+002, 3.514513e+001
7.215659e+002, 3.514935e+001
7.220480e+002, 3.511791e+001
7.225301e+002, 3.514122e+001
7.230122e+002, 3.524207e+001
7.234943e+002, 3.530359e+001
7.239764e+002, 3.523188e+001
7.244586e+002, 3.509257e+001
7.249407e+002, 3.505601e+001
7.254228e+002, 3.516213e+001
7.259049e+002, 3.526966e+001
7.263870e+002, 3.535260e+001
7.268691e+002, 3.545382e+001
7.273513e+002, 3.566935e+001
7.278334e+002, 3.589640e+001
7.283155e+002, 3.593521e+001
7.287976e+002, 3.572756e+001
7.292797e+002, 3.547200e+001
7.297618e+002, 3.536240e+001
7.302440e+002, 3.537633e+001
7.307261e+002, 3.544796e+001
7.312082e+002, 3.558017e+001
7.316903e+002, 3.571524e+001
7.321724e+002, 3.584546e+001
7.326545e+002, 3.593817e+001
7.331367e+002, 3.593242e+001
7.336188e+002, 3.580207e+001
7.341009e+002, 3.571840e+001
7.345830e+002, 3.566698e+001
7.350651e+002, 3.567768e+001
7.355472e+002, 3.584283e+001
7.360294e+002, 3.602876e+001
7.365115e+002, 3.605849e+001
7.369936e+002, 3.592650e+001
7.374757e+002, 3.579351e+001
7.379578e+002, 3.577879e+001
7.384399e+002, 3.584092e+001
7.389221e+002, 3.592598e+001
7.394042e+002, 3.602733e+001
7.398863e+002, 3.602832e+001
7.403684e+002, 3.587638e+001
7.408505e+002, 3.570934e+001
7.413326e+002, 3.565326e+001
7.418148e+002, 3.570044e+001
7.422969e+002, 3.576382e+001
7.427790e+002, 3.584931e+001
7.432611e+002, 3.594157e+001
7.437432e+002, 3.610751e+001
7.442253e+002, 3.622182e+001
7.447075e+002, 3.613530e+001
7.451896e+002, 3.591805e+001
7.456717e+002, 3.577732e+001
7.461538e+002, 3.582293e+001
7.466359e+002, 3.592652e+001
7.471180e+002, 3.592069e+001
7.476002e+002, 3.584278e+001
7.480823e+002, 3.584637e+001
7.485644e+002, 3.595302e+001
7.490465e+002, 3.602439e+001
7.495286e+002, 3.596104e+001
7.500107e+002, 3.583715e+001
7.504929e+002, 3.583372e+001
7.509750e+002, 3.602721e+001
7.514571e+002, 3.615285e+001
7.519392e+002, 3.619282e+001
7.524213e+002, 3.619064e+001
7.529034e+002, 3.615820e+001
7.533856e+002, 3.609640e+001
7.538677e+002, 3.598215e+001
7.543498e+002, 3.581607e+001
7.548319e+002, 3.569155e+001
7.553140e+002, 3.570464e+001
7.557961e+002, 3.578936e+001
7.562783e+002, 3.581867e+001
7.567604e+002, 3.581026e+001
7.572425e+002, 3.590197e+001
7.577246e+002, 3.614974e+001
7.582067e+002, 3.639933e+001
7.586888e+002, 3.645705e+001
7.591710e+002, 3.632486e+001
7.596531e+002, 3.626722e+001
7.601352e+002, 3.632181e+001
7.606173e+002, 3.639550e+001
7.610994e+002, 3.653255e+001
7.615815e+002, 3.663440e+001
7.620637e+002, 3.659213e+001
7.625458e+002, 3.644578e+001
7.630279e+002, 3.634991e+001
7.635100e+002, 3.638604e+001
7.639921e+002, 3.645147e+001
7.644742e+002, 3.646916e+001
7.649564e+002, 3.645491e+001
7.654385e+002, 3.641578e+001
7.659206e+002, 3.636424e+001
7.664027e+002, 3.637622e+001
7.668848e+002, 3.650800e+001
7.673669e+002, 3.669676e+001
7.678491e+002, 3.679118e+001
7.683312e+002, 3.676915e+001
7.688133e+002, 3.673514e+001
7.692954e+002, 3.668844e+001
7.697775e+002, 3.663353e+001
7.702596e+002, 3.654778e+001
7.707418e+002, 3.646646e+001
7.712239e+002, 3.645003e+001
7.717060e+002, 3.651283e+001
7.721881e+002, 3.654838e+001
7.726702e+002, 3.646833e+001
7.731523e+002, 3.638874e+001
7.736345e+002, 3.645037e+001
7.741166e+002, 3.657388e+001
7.745987e+002, 3.656182e+001
7.750808e+002, 3.637521e+001
7.755629e+002, 3.620139e+001
7.760450e+002, 3.624148e+001
7.765272e+002, 3.644420e+001
7.770093e+002, 3.656718e+001
7.774914e+002, 3.660151e+001
7.779735e+002, 3.660841e+001
7.784556e+002, 3.661884e+001
7.789377e+002, 3.657816e+001
7.794199e+002, 3.637384e+001
7.799020e+002, 3.606226e+001
7.803841e+002, 3.591780e+001
7.808662e+002, 3.598077e+001
7.813483e+002, 3.616673e+001
7.818304e+002, 3.664818e+001
7.823126e+002, 3.708701e+001
7.827947e+002, 3.714262e+001
7.832768e+002, 3.691895e+001
7.837589e+002, 3.672550e+001
7.842410e+002, 3.669969e+001
7.847231e+002, 3.675422e+001
7.852053e+002, 3.676371e+001
7.856874e+002, 3.676206e+001
7.861695e+002, 3.693724e+001
7.866516e+002, 3.731005e+001
7.871337e+002, 3.756169e+001
7.876158e+002, 3.753031e+001
7.880980e+002, 3.735736e+001
7.885801e+002, 3.724863e+001
7.890622e+002, 3.721481e+001
7.895443e+002, 3.718208e+001
7.900264e+002, 3.711523e+001
7.905085e+002, 3.709499e+001
7.909907e+002, 3.716150e+001
7.914728e+002, 3.726617e+001
7.919549e+002, 3.740469e+001
7.924370e+002, 3.754678e+001
7.929191e+002, 3.758493e+001
7.934012e+002, 3.739880e+001
7.938834e+002, 3.719139e+001
7.943655e+002, 3.719257e+001
7.948476e+002, 3.731244e+001
7.953297e+002, 3.734613e+001
7.958118e+002, 3.727407e+001
7.962939e+002, 3.723584e+001
7.967761e+002, 3.733299e+001
7.972582e+002, 3.747691e+001
7.977403e+002, 3.741008e+001
7.982224e+002, 3.701502e+001
7.987045e+002, 3.693264e+001
7.991866e+002, 3.743945e+001
7.996688e+002, 3.784684e+001
8.001509e+002, 3.768659e+001
8.006330e+002, 3.733376e+001
8.011151e+002, 3.726847e+001
8.015972e+002, 3.754459e+001
8.020793e+002, 3.773924e+001
8.025615e+002, 3.765751e+001
8.030436e+002, 3.754225e+001
8.035257e+002, 3.756217e+001
8.040078e+002, 3.763768e+001
8.044899e+002, 3.764352e+001
8.049720e+002, 3.755954e+001
8.054542e+002, 3.743694e+001
8.059363e+002, 3.729492e+001
8.064184e+002, 3.717831e+001
8.069005e+002, 3.721508e+001
8.073826e+002, 3.739704e+001
8.078647e+002, 3.756149e+001
8.083469e+002, 3.770480e+001
8.088290e+002, 3.770077e+001
8.093111e+002, 3.737548e+001
8.097932e+002, 3.689412e+001
8.102753e+002, 3.677967e+001
8.107574e+002, 3.732659e+001
8.112396e+002, 3.764135e+001
8.117217e+002, 3.758133e+001
8.122038e+002, 3.745658e+001
8.126859e+002, 3.734463e+001
8.131680e+002, 3.727453e+001
8.136501e+002, 3.726900e+001
8.141323e+002, 3.733331e+001
8.146144e+002, 3.746859e+001
8.150965e+002, 3.780868e+001
8.155786e+002, 3.811614e+001
8.160607e+002, 3.803193e+001
8.165428e+002, 3.769754e+001
8.170250e+002, 3.749665e+001
8.175071e+002, 3.751229e+001
8.179892e+002, 3.755574e+001
8.184713e+002, 3.745193e+001
8.189534e+002, 3.728256e+001
8.194355e+002, 3.737983e+001
8.199177e+002, 3.783060e+001
8.203998e+002, 3.814035e+001
8.208819e+002, 3.820487e+001
8.213640e+002, 3.820835e+001
8.218461e+002, 3.822869e+001
8.223282e+002, 3.827386e+001
8.228104e+002, 3.838754e+001
8.232925e+002, 3.863210e+001
8.237746e+002, 3.870712e+001
8.242567e+002, 3.840683e+001
8.247388e+002, 3.807877e+001
8.252209e+002, 3.792657e+001
8.257031e+002, 3.787194e+001
8.261852e+002, 3.777696e+001
8.266673e+002, 3.762289e+001
8.271494e+002, 3.751353e+001
8.276315e+002, 3.754500e+001
8.281136e+002, 3.765033e+001
8.285958e+002, 3.772021e+001
8.290779e+002, 3.776213e+001
8.295600e+002, 3.781831e+001
8.300421e+002, 3.789741e+001
8.305242e+002, 3.797007e+001
8.310063e+002, 3.802034e+001
8.314885e+002, 3.803859e+001
8.319706e+002, 3.798313e+001
8.324527e+002, 3.778617e+001
8.329348e+002, 3.769613e+001
8.334169e+002, 3.779212e+001
8.338990e+002, 3.789811e+001
8.343812e+002, 3.791957e+001
8.348633e+002, 3.792536e+001
8.353454e+002, 3.803242e+001
8.358275e+002, 3.825504e+001
8.363096e+002, 3.838164e+001
8.367917e+002, 3.822982e+001
8.372739e+002, 3.808243e+001
8.377560e+002, 3.816151e+001
8.382381e+002, 3.833224e+001
8.387202e+002, 3.840720e+001
8.392023e+002, 3.836026e+001
8.396844e+002, 3.825391e+001
8.401666e+002, 3.811644e+001
8.406487e+002, 3.799030e+001
8.411308e+002, 3.797888e+001
8.416129e+002, 3.805902e+001
8.420950e+002, 3.804290e+001
8.425771e+002, 3.789878e+001
8.430593e+002, 3.782652e+001
8.435414e+002, 3.795951e+001
8.440235e+002, 3.817302e+001
8.445056e+002, 3.822201e+001
8.449877e+002, 3.804496e+001
8.454698e+002, 3.801711e+001
8.459520e+002, 3.835040e+001
8.464341e+002, 3.855202e+001
8.469162e+002, 3.844513e+001
8.473983e+002, 3.821476e+001
8.478804e+002, 3.796697e+001
8.483625e+002, 3.773484e+001
8.488447e+002, 3.761290e+001
8.493268e+002, 3.768554e+001
8.498089e+002, 3.778920e+001
8.502910e+002, 3.783480e+001
8.507731e+002, 3.786053e+001
8.512552e+002, 3.791161e+001
8.517374e+002, 3.798547e+001
8.522195e+002, 3.806382e+001
8.527016e+002, 3.813811e+001
8.531837e+002, 3.818964e+001
8.536658e+002, 3.821186e+001
8.541479e+002, 3.819240e+001
8.546301e+002, 3.802714e+001
8.551122e+002, 3.771062e+001
8.555943e+002, 3.750236e+001
8.560764e+002, 3.749728e+001
8.565585e+002, 3.761606e+001
8.570406e+002, 3.781431e+001
8.575228e+002, 3.806990e+001
8.580049e+002, 3.810860e+001
8.584870e+002, 3.771743e+001
8.589691e+002, 3.747200e+001
8.594512e+002, 3.751856e+001
8.599333e+002, 3.761790e+001
8.604155e+002, 3.764770e+001
8.608976e+002, 3.764135e+001
8.613797e+002, 3.767139e+001
8.618618e+002, 3.775416e+001
8.623439e+002, 3.785151e+001
8.628260e+002, 3.803312e+001
8.633082e+002, 3.814193e+001
8.637903e+002, 3.796930e+001
8.642724e+002, 3.766676e+001
8.647545e+002, 3.750447e+001
8.652366e+002, 3.753064e+001
8.657188e+002, 3.759113e+001
8.662009e+002, 3.755624e+001
8.666830e+002, 3.749975e+001
8.671651e+002, 3.762008e+001
8.676472e+002, 3.786888e+001
8.681293e+002, 3.792614e+001
8.686115e+002, 3.773928e+001
8.690936e+002, 3.746427e+001
8.695757e+002, 3.716478e+001
8.700578e+002, 3.691051e+001
8.705399e+002, 3.686541e+001
8.710220e+002, 3.709529e+001
8.715042e+002, 3.720265e+001
8.719863e+002, 3.713252e+001
8.724684e+002, 3.702802e+001
8.729505e+002, 3.688264e+001
8.734326e+002, 3.675832e+001
8.739147e+002, 3.673743e+001
8.743969e+002, 3.679979e+001
8.748790e+002, 3.680838e+001
8.753611e+002, 3.669447e+001
8.758432e+002, 3.658484e+001
8.763253e+002, 3.646861e+001
8.768074e+002, 3.642118e+001
8.772896e+002, 3.660331e+001
8.777717e+002, 3.689240e+001
8.782538e+002, 3.699050e+001
8.787359e+002, 3.679071e+001
8.792180e+002, 3.651952e+001
8.797001e+002, 3.634613e+001
8.801823e+002, 3.626159e+001
8.806644e+002, 3.628643e+001
8.811465e+002, 3.639028e+001
8.816286e+002, 3.645262e+001
8.821107e+002, 3.644090e+001
8.825928e+002, 3.636556e+001
8.830750e+002, 3.622068e+001
8.835571e+002, 3.604946e+001
8.840392e+002, 3.600372e+001
8.845213e+002, 3.609610e+001
8.850034e+002, 3.626028e+001
8.854855e+002, 3.656306e+001
8.859677e+002, 3.676611e+001
8.864498e+002, 3.670032e+001
8.869319e+002, 3.649761e+001
8.874140e+002, 3.638814e+001
8.878961e+002, 3.639689e+001
8.883782e+002, 3.633533e+001
8.888604e+002, 3.613599e+001
8.893425e+002, 3.594804e+001
8.898246e+002, 3.580277e+001
8.903067e+002, 3.569303e+001
8.907888e+002, 3.562748e+001
8.912709e+002, 3.559061e+001
8.917531e+002, 3.554234e+001
8.922352e+002, 3.547083e+001
8.927173e+002, 3.537687e+001
8.931994e+002, 3.519040e+001
8.936815e+002, 3.503365e+001
8.941636e+002, 3.511524e+001
8.946458e+002, 3.534426e+001
8.951279e+002, 3.544487e+001
8.956100e+002, 3.533996e+001
8.960921e+002, 3.521823e+001
8.965742e+002, 3.527459e+001
8.970563e+002, 3.543414e+001
8.975385e+002, 3.548890e+001
8.980206e+002, 3.544823e+001
8.985027e+002, 3.544687e+001
8.989848e+002, 3.551429e+001
8.994669e+002, 3.555670e+001
8.999490e+002, 3.551630e+001
9.004312e+002, 3.540300e+001
9.009133e+002, 3.522585e+001
9.013954e+002, 3.494937e+001
9.018775e+002, 3.477188e+001
9.023596e+002, 3.469959e+001
9.028417e+002, 3.471749e+001
9.033239e+002, 3.492313e+001
9.038060e+002, 3.513427e+001
9.042881e+002, 3.516590e+001
9.047702e+002, 3.504207e+001
9.052523e+002, 3.492317e+001
9.057344e+002, 3.484591e+001
9.062166e+002, 3.474923e+001
9.066987e+002, 3.456855e+001
9.071808e+002, 3.441053e+001
9.076629e+002, 3.436171e+001
9.081450e+002, 3.438917e+001
9.086271e+002, 3.444152e+001
9.091093e+002, 3.450121e+001
9.095914e+002, 3.451709e+001
9.100735e+002, 3.440990e+001
9.105556e+002, 3.427804e+001
9.110377e+002, 3.421781e+001
9.115198e+002, 3.421978e+001
9.120020e+002, 3.428344e+001
9.124841e+002, 3.439429e+001
9.129662e+002, 3.449023e+001
9.134483e+002, 3.453171e+001
9.139304e+002, 3.454085e+001
9.144125e+002, 3.456944e+001
9.148947e+002, 3.460659e+001
9.153768e+002, 3.456128e+001
9.158589e+002, 3.442851e+001
9.163410e+002, 3.421925e+001
9.168231e+002, 3.389854e+001
9.173052e+002, 3.367456e+001
9.177874e+002, 3.383238e+001
9.182695e+002, 3.430697e+001
9.187516e+002, 3.443573e+001
9.192337e+002, 3.400158e+001
9.197158e+002, 3.374857e+001
9.201979e+002, 3.386872e+001
9.206801e+002, 3.402442e+001
9.211622e+002, 3.398606e+001
9.216443e+002, 3.388358e+001
9.221264e+002, 3.396606e+001
9.226085e+002, 3.429078e+001
9.230906e+002, 3.442841e+001
9.235728e+002, 3.416097e+001
9.240549e+002, 3.389438e+001
9.245370e+002, 3.377576e+001
9.250191e+002, 3.372945e+001
9.255012e+002, 3.369220e+001
9.259833e+002, 3.365674e+001
9.264655e+002, 3.363074e+001
9.269476e+002, 3.361509e+001
9.274297e+002, 3.361752e+001
9.279118e+002, 3.364162e+001
9.283939e+002, 3.368762e+001
9.288760e+002, 3.380165e+001
9.293582e+002, 3.392748e+001
9.298403e+002, 3.391133e+001
9.303224e+002, 3.373552e+001
9.308045e+002, 3.357694e+001
9.312866e+002, 3.358725e+001
9.317687e+002, 3.368102e+001
9.322509e+002, 3.362458e+001
9.327330e+002, 3.349976e+001
9.332151e+002, 3.380676e+001
9.336972e+002, 3.456794e+001
9.341793e+002, 3.504555e+001
9.346614e+002, 3.485779e+001
9.351436e+002, 3.432716e+001
9.356257e+002, 3.388389e+001
9.361078e+002, 3.353149e+001
9.365899e+002, 3.336393e+001
9.370720e+002, 3.340470e+001
9.375541e+002, 3.355545e+001
9.380363e+002, 3.385534e+001
9.385184e+002, 3.414404e+001
9.390005e+002, 3.434261e+001
9.394826e+002, 3.442462e+001
9.399647e+002, 3.428599e+001
9.404468e+002, 3.373999e+001
9.409290e+002, 3.348648e+001
9.414111e+002, 3.383435e+001
9.418932e+002, 3.407063e+001
9.423753e+002, 3.386676e+001
9.428574e+002, 3.356032e+001
9.433395e+002, 3.348021e+001
9.438217e+002, 3.359597e+001
9.443038e+002, 3.366232e+001
9.447859e+002, 3.355150e+001
9.452680e+002, 3.352838e+001
9.457501e+002, 3.379111e+001
9.462322e+002, 3.407745e+001
9.467144e+002, 3.423880e+001
9.471965e+002, 3.426183e+001
9.476786e+002, 3.409827e+001
9.481607e+002, 3.376986e+001
9.486428e+002, 3.350274e+001
9.491249e+002, 3.348023e+001
9.496071e+002, 3.353192e+001
9.500892e+002, 3.344205e+001
9.505713e+002, 3.332823e+001
9.510534e+002, 3.344837e+001
9.515355e+002, 3.375528e+001
9.520176e+002, 3.396429e+001
9.524998e+002, 3.394844e+001
9.529819e+002, 3.382321e+001
9.534640e+002, 3.368869e+001
9.539461e+002, 3.356427e+001
9.544282e+002, 3.352628e+001
9.549103e+002, 3.356187e+001
9.553925e+002, 3.356915e+001
9.558746e+002, 3.352658e+001
9.563567e+002, 3.347805e+001
9.568388e+002, 3.345540e+001
9.573209e+002, 3.344124e+001
9.578030e+002, 3.338062e+001
9.582852e+002, 3.326043e+001
9.587673e+002, 3.327248e+001
9.592494e+002, 3.347426e+001
9.597315e+002, 3.356507e+001
9.602136e+002, 3.339819e+001
9.606957e+002, 3.320425e+001
9.611779e+002, 3.321303e+001
9.616600e+002, 3.338404e+001
9.621421e+002, 3.350500e+001
9.626242e+002, 3.362699e+001
9.631063e+002, 3.359417e+001
9.635884e+002, 3.319364e+001
9.640706e+002, 3.290582e+001
9.645527e+002, 3.298959e+001
9.650348e+002, 3.321923e+001
9.655169e+002, 3.337080e+001
9.659990e+002, 3.343747e+001
9.664811e+002, 3.344503e+001
9.669633e+002, 3.330052e+001
9.674454e+002, 3.323338e+001
9.679275e+002, 3.336912e+001
9.684096e+002, 3.352448e+001
9.688917e+002, 3.361697e+001
9.693738e+002, 3.362579e+001
9.698560e+002, 3.348576e+001
9.703381e+002, 3.319484e+001
9.708202e+002, 3.300756e+001
9.713023e+002, 3.312891e+001
9.717844e+002, 3.329726e+001
9.722665e+002, 3.336592e+001
9.727487e+002, 3.336698e+001
9.732308e+002, 3.332665e+001
9.737129e+002, 3.325695e+001
9.741950e+002, 3.314795e+001
9.746771e+002, 3.299662e+001
9.751592e+002, 3.292085e+001
9.756414e+002, 3.314284e+001
9.761235e+002, 3.341825e+001
9.766056e+002, 3.334008e+001
9.770877e+002, 3.304988e+001
9.775698e+002, 3.286910e+001
9.780519e+002, 3.285709e+001
9.785341e+002, 3.297461e+001
9.790162e+002, 3.320896e+001
9.794983e+002, 3.343895e+001
9.799804e+002, 3.344069e+001
9.804625e+002, 3.329103e+001
9.809446e+002, 3.332041e+001
9.814268e+002, 3.351052e+001
9.819089e+002, 3.359368e+001
9.823910e+002, 3.349812e+001
9.828731e+002, 3.341476e+001
9.833552e+002, 3.350457e+001
9.838373e+002, 3.368906e+001
9.843195e+002, 3.376713e+001
9.848016e+002, 3.373335e+001
9.852837e+002, 3.372073e+001
9.857658e+002, 3.374417e+001
9.862479e+002, 3.371748e+001
9.867300e+002, 3.359193e+001
9.872122e+002, 3.346291e+001
9.876943e+002, 3.343689e+001
9.881764e+002, 3.348602e+001
9.886585e+002, 3.344613e+001
9.891406e+002, 3.324455e+001
9.896227e+002, 3.317207e+001
9.901049e+002, 3.331901e+001
9.905870e+002, 3.345072e+001
9.910691e+002, 3.345791e+001
9.915512e+002, 3.341634e+001
9.920333e+002, 3.341910e+001
9.925154e+002, 3.346418e+001
9.929976e+002, 3.348289e+001
9.934797e+002, 3.343446e+001
9.939618e+002, 3.342202e+001
9.944439e+002, 3.353127e+001
9.949260e+002, 3.358779e+001
9.954081e+002, 3.343802e+001
9.958903e+002, 3.322538e+001
9.963724e+002, 3.313680e+001
9.968545e+002, 3.318481e+001
9.973366e+002, 3.329482e+001
9.978187e+002, 3.361555e+001
9.983008e+002, 3.377191e+001
9.987830e+002, 3.346438e+001
9.992651e+002, 3.314448e+001
9.997472e+002, 3.318010e+001
1.000229e+003, 3.342009e+001
1.000711e+003, 3.352543e+001
1.001194e+003, 3.343782e+001
1.001676e+003, 3.351904e+001
1.002158e+003, 3.429135e+001
1.002640e+003, 3.483842e+001
1.003122e+003, 3.442773e+001
1.003604e+003, 3.368773e+001
1.004086e+003, 3.316829e+001
1.004568e+003, 3.290926e+001
1.005050e+003, 3.284113e+001
1.005533e+003, 3.293742e+001
1.006015e+003, 3.305067e+001
1.006497e+003, 3.304132e+001
1.006979e+003, 3.303804e+001
1.007461e+003, 3.321406e+001
1.007943e+003, 3.345402e+001
1.008425e+003, 3.360711e+001
1.008907e+003, 3.364503e+001
1.009390e+003, 3.350901e+001
1.009872e+003, 3.317657e+001
1.010354e+003, 3.294243e+001
1.010836e+003, 3.323883e+001
1.011318e+003, 3.371869e+001
1.011800e+003, 3.378034e+001
1.012282e+003, 3.357404e+001
1.012764e+003, 3.345709e+001
1.013246e+003, 3.348556e+001
1.013729e+003, 3.359751e+001
1.014211e+003, 3.376414e+001
1.014693e+003, 3.389192e+001
1.015175e+003, 3.379004e+001
1.015657e+003, 3.357124e+001
1.016139e+003, 3.361708e+001
1.016621e+003, 3.386429e+001
1.017103e+003, 3.399364e+001
1.017586e+003, 3.394395e+001
1.018068e+003, 3.379374e+001
1.018550e+003, 3.358597e+001
1.019032e+003, 3.336257e+001
1.019514e+003, 3.317173e+001
1.019996e+003, 3.302526e+001
1.020478e+003, 3.303186e+001
1.020960e+003, 3.318801e+001
1.021442e+003, 3.338509e+001
1.021925e+003, 3.360437e+001
1.022407e+003, 3.374433e+001
1.022889e+003, 3.372314e+001
1.023371e+003, 3.361825e+001
1.023853e+003, 3.358015e+001
1.024335e+003, 3.360926e+001
1.024817e+003, 3.368512e+001
1.025299e+003, 3.382804e+001
1.025781e+003, 3.383395e+001
1.026264e+003, 3.361196e+001
1.026746e+003, 3.341626e+001
1.027228e+003, 3.343748e+001
1.027710e+003, 3.361287e+001
1.028192e+003, 3.381338e+001
1.028674e+003, 3.405430e+001
1.029156e+003, 3.419206e+001
1.029638e+003, 3.423023e+001
1.030120e+003, 3.413382e+001
1.030603e+003, 3.382844e+001
1.031085e+003, 3.352771e+001
1.031567e+003, 3.338587e+001
1.032049e+003, 3.338246e+001
1.032531e+003, 3.347999e+001
1.033013e+003, 3.372437e+001
1.033495e+003, 3.385594e+001
1.033977e+003, 3.380312e+001
1.034460e+003, 3.379163e+001
1.034942e+003, 3.389820e+001
1.035424e+003, 3.403391e+001
1.035906e+003, 3.414795e+001
1.036388e+003, 3.423132e+001
1.036870e+003, 3.425638e+001
1.037352e+003, 3.421436e+001
1.037834e+003, 3.414308e+001
1.038317e+003, 3.398647e+001
1.038799e+003, 3.388777e+001
1.039281e+003, 3.391005e+001
1.039763e+003, 3.397071e+001
1.040245e+003, 3.405858e+001
1.040727e+003, 3.413027e+001
1.041209e+003, 3.404123e+001
1.041691e+003, 3.369605e+001
1.042173e+003, 3.349512e+001
1.042656e+003, 3.355080e+001
1.043138e+003, 3.360593e+001
1.043620e+003, 3.357006e+001
1.044102e+003, 3.353729e+001
1.044584e+003, 3.358105e+001
1.045066e+003, 3.368304e+001
1.045548e+003, 3.381023e+001
1.046030e+003, 3.399678e+001
1.046512e+003, 3.406146e+001
1.046995e+003, 3.386428e+001
1.047477e+003, 3.370267e+001
1.047959e+003, 3.367819e+001
1.048441e+003, 3.370906e+001
1.048923e+003, 3.375922e+001
1.049405e+003, 3.380666e+001
1.049887e+003, 3.378495e+001
1.050369e+003, 3.364767e+001
1.050852e+003, 3.365005e+001
1.051334e+003, 3.405586e+001
1.051816e+003, 3.432664e+001
1.052298e+003, 3.417014e+001
1.052780e+003, 3.390376e+001
1.053262e+003, 3.377506e+001
1.053744e+003, 3.374498e+001
1.054226e+003, 3.367281e+001
1.054708e+003, 3.352266e+001
1.055191e+003, 3.344231e+001
1.055673e+003, 3.347589e+001
1.056155e+003, 3.357993e+001
1.056637e+003, 3.385994e+001
1.057119e+003, 3.409274e+001
1.057601e+003, 3.402268e+001
1.058083e+003, 3.378531e+001
1.058565e+003, 3.369897e+001
1.059047e+003, 3.383393e+001
1.059530e+003, 3.390712e+001
1.060012e+003, 3.376236e+001
1.060494e+003, 3.361898e+001
1.060976e+003, 3.351439e+001
1.061458e+003, 3.350054e+001
1.061940e+003, 3.373796e+001
1.062422e+003, 3.405435e+001
1.062904e+003, 3.407904e+001
1.063387e+003, 3.374493e+001
1.063869e+003, 3.350230e+001
1.064351e+003, 3.362196e+001
1.064833e+003, 3.373344e+001
1.065315e+003, 3.356412e+001
1.065797e+003, 3.341836e+001
1.066279e+003, 3.367796e+001
1.066761e+003, 3.409607e+001
1.067244e+003, 3.415631e+001
1.067726e+003, 3.379379e+001
1.068208e+003, 3.354052e+001
1.068690e+003, 3.377993e+001
1.069172e+003, 3.394682e+001
1.069654e+003, 3.364094e+001
1.070136e+003, 3.329808e+001
1.070618e+003, 3.331116e+001
1.071100e+003, 3.351628e+001
1.071583e+003, 3.360890e+001
1.072065e+003, 3.354984e+001
1.072547e+003, 3.351388e+001
1.073029e+003, 3.361190e+001
1.073511e+003, 3.367431e+001
1.073993e+003, 3.360410e+001
1.074475e+003, 3.348405e+001
1.074957e+003, 3.328536e+001
1.075439e+003, 3.313043e+001
1.075922e+003, 3.323985e+001
1.076404e+003, 3.358966e+001
1.076886e+003, 3.386959e+001
1.077368e+003, 3.394834e+001
1.077850e+003, 3.397704e+001
1.078332e+003, 3.405025e+001
1.078814e+003, 3.407523e+001
1.079297e+003, 3.394430e+001
1.079779e+003, 3.374921e+001
1.080261e+003, 3.359974e+001
1.080743e+003, 3.350857e+001
1.081225e+003, 3.345582e+001
1.081707e+003, 3.344453e+001
1.082189e+003, 3.343748e+001
1.082671e+003, 3.341924e+001
1.083153e+003, 3.339817e+001
1.083635e+003, 3.336557e+001
1.084118e+003, 3.334346e+001
1.084600e+003, 3.339261e+001
1.085082e+003, 3.347386e+001
1.085564e+003, 3.342830e+001
1.086046e+003, 3.316411e+001
1.086528e+003, 3.303582e+001
1.087010e+003, 3.333912e+001
1.087492e+003, 3.364447e+001
1.087975e+003, 3.370110e+001
1.088457e+003, 3.365176e+001
1.088939e+003, 3.363523e+001
1.089421e+003, 3.364688e+001
1.089903e+003, 3.363269e+001
1.090385e+003, 3.357901e+001
1.090867e+003, 3.351792e+001
1.091349e+003, 3.348551e+001
1.091832e+003, 3.341783e+001
1.092314e+003, 3.320372e+001
1.092796e+003, 3.301707e+001
1.093278e+003, 3.302752e+001
1.093760e+003, 3.316945e+001
1.094242e+003, 3.332044e+001
1.094724e+003, 3.345712e+001
1.095206e+003, 3.354387e+001
1.095688e+003, 3.351110e+001
1.096171e+003, 3.350630e+001
1.096653e+003, 3.367593e+001
1.097135e+003, 3.379244e+001
1.097617e+003, 3.366139e+001
1.098099e+003, 3.339526e+001
1.098581e+003, 3.312474e+001
1.099063e+003, 3.288182e+001
1.099545e+003, 3.277593e+001
1.100027e+003, 3.293727e+001
1.100510e+003, 3.305992e+001
1.100992e+003, 3.302330e+001
1.101474e+003, 3.297794e+001
1.101956e+003, 3.304031e+001
1.102438e+003, 3.311360e+001
1.102920e+003, 3.303650e+001
1.103402e+003, 3.285171e+001
1.103884e+003, 3.281929e+001
1.104367e+003, 3.308801e+001
1.104849e+003, 3.323896e+001
1.105331e+003, 3.302658e+001
1.105813e+003, 3.290317e+001
1.106295e+003, 3.319460e+001
1.106777e+003, 3.351986e+001
1.107259e+003, 3.349310e+001
1.107741e+003, 3.322086e+001
1.108224e+003, 3.305371e+001
1.108706e+003, 3.306298e+001
1.109188e+003, 3.300240e+001
1.109670e+003, 3.273050e+001
1.110152e+003, 3.255461e+001
1.110634e+003, 3.258109e+001
1.111116e+003, 3.268842e+001
1.111598e+003, 3.288338e+001
1.112080e+003, 3.307079e+001
1.112563e+003, 3.302832e+001
1.113045e+003, 3.271014e+001
1.113527e+003, 3.257088e+001
1.114009e+003, 3.277264e+001
1.114491e+003, 3.288808e+001
1.114973e+003, 3.281307e+001
1.115455e+003, 3.273097e+001
1.115937e+003, 3.274550e+001
1.116419e+003, 3.278369e+001
1.116902e+003, 3.273555e+001
1.117384e+003, 3.261409e+001
1.117866e+003, 3.257690e+001
1.118348e+003, 3.266958e+001
1.118830e+003, 3.273829e+001
1.119312e+003, 3.275228e+001
1.119794e+003, 3.279919e+001
1.120276e+003, 3.294744e+001
1.120759e+003, 3.307578e+001
1.121241e+003, 3.304461e+001
1.121723e+003, 3.291605e+001
1.122205e+003, 3.292641e+001
1.122687e+003, 3.313479e+001
1.123169e+003, 3.319187e+001
1.123651e+003, 3.303410e+001
1.124133e+003, 3.294116e+001
1.124615e+003, 3.299961e+001
1.125098e+003, 3.308727e+001
1.125580e+003, 3.313375e+001
1.126062e+003, 3.312616e+001
1.126544e+003, 3.301993e+001
1.127026e+003, 3.281978e+001
1.127508e+003, 3.274841e+001
1.127990e+003, 3.282565e+001
1.128472e+003, 3.285626e+001
1.128954e+003, 3.280266e+001
1.129437e+003, 3.276616e+001
1.129919e+003, 3.280019e+001
1.130401e+003, 3.285067e+001
1.130883e+003, 3.284399e+001
1.131365e+003, 3.280579e+001
1.131847e+003, 3.286912e+001
1.132329e+003, 3.302291e+001
1.132811e+003, 3.301941e+001
1.133294e+003, 3.284562e+001
1.133776e+003, 3.273331e+001
1.134258e+003, 3.275977e+001
1.134740e+003, 3.281059e+001
1.135222e+003, 3.278287e+001
1.135704e+003, 3.275009e+001
1.136186e+003, 3.290708e+001
1.136668e+003, 3.317967e+001
1.137151e+003, 3.325599e+001
1.137633e+003, 3.316167e+001
1.138115e+003, 3.303083e+001
1.138597e+003, 3.290796e+001
1.139079e+003, 3.287059e+001
1.139561e+003, 3.296328e+001
1.140043e+003, 3.311324e+001
1.140525e+003, 3.330928e+001
1.141007e+003, 3.344847e+001
1.141490e+003, 3.321643e+001
1.141972e+003, 3.281606e+001
1.142454e+003, 3.273821e+001
1.142936e+003, 3.294934e+001
1.143418e+003, 3.312483e+001
1.143900e+003, 3.315091e+001
1.144382e+003, 3.310732e+001
1.144864e+003, 3.301170e+001
1.145346e+003, 3.295695e+001
1.145829e+003, 3.309765e+001
1.146311e+003, 3.329414e+001
1.146793e+003, 3.338152e+001
1.147275e+003, 3.337842e+001
1.147757e+003, 3.333425e+001
1.148239e+003, 3.326723e+001
1.148721e+003, 3.318920e+001
1.149203e+003, 3.309614e+001
1.149686e+003, 3.303807e+001
1.150168e+003, 3.308837e+001
1.150650e+003, 3.314006e+001
1.151132e+003, 3.304629e+001
1.151614e+003, 3.296367e+001
1.152096e+003, 3.313121e+001
1.152578e+003, 3.344936e+001
1.153060e+003, 3.364129e+001
1.153542e+003, 3.364220e+001
1.154025e+003, 3.360179e+001
1.154507e+003, 3.360036e+001
1.154989e+003, 3.352449e+001
1.155471e+003, 3.319005e+001
1.155953e+003, 3.292299e+001
1.156435e+003, 3.301271e+001
1.156917e+003, 3.325086e+001
1.157399e+003, 3.331804e+001
1.157881e+003, 3.322253e+001
1.158364e+003, 3.324849e+001
1.158846e+003, 3.358018e+001
1.159328e+003, 3.373396e+001
1.159810e+003, 3.358866e+001
1.160292e+003, 3.337990e+001
1.160774e+003, 3.304565e+001
1.161256e+003, 3.281887e+001
1.161738e+003, 3.298030e+001
1.162221e+003, 3.333428e+001
1.162703e+003, 3.337437e+001
1.163185e+003, 3.302987e+001
1.163667e+003, 3.298856e+001
1.164149e+003, 3.343713e+001
1.164631e+003, 3.361843e+001
1.165113e+003, 3.331931e+001
1.165595e+003, 3.303954e+001
1.166078e+003, 3.303335e+001
1.166560e+003, 3.315501e+001
1.167042e+003, 3.323632e+001
1.167524e+003, 3.327686e+001
1.168006e+003, 3.325783e+001
1.168488e+003, 3.317471e+001
1.168970e+003, 3.315824e+001
1.169452e+003, 3.321579e+001
1.169934e+003, 3.333101e+001
1.170417e+003, 3.350192e+001
1.170899e+003, 3.363397e+001
1.171381e+003, 3.365584e+001
1.171863e+003, 3.361191e+001
1.172345e+003, 3.356220e+001
1.172827e+003, 3.351215e+001
1.173309e+003, 3.350079e+001
1.173791e+003, 3.350645e+001
1.174273e+003, 3.338797e+001
1.174756e+003, 3.318018e+001
1.175238e+003, 3.318830e+001
1.175720e+003, 3.351467e+001
1.176202e+003, 3.381449e+001
1.176684e+003, 3.376049e+001
1.177166e+003, 3.359058e+001
1.177648e+003, 3.364588e+001
1.178130e+003, 3.374710e+001
1.178613e+003, 3.356368e+001
1.179095e+003, 3.324118e+001
1.179577e+003, 3.308939e+001
1.180059e+003, 3.315003e+001
1.180541e+003, 3.332872e+001
1.181023e+003, 3.361935e+001
1.181505e+003, 3.380212e+001
1.181987e+003, 3.364352e+001
1.182469e+003, 3.345227e+001
1.182952e+003, 3.344796e+001
1.183434e+003, 3.349855e+001
1.183916e+003, 3.342135e+001
1.184398e+003, 3.331264e+001
1.184880e+003, 3.342681e+001
1.185362e+003, 3.378825e+001
1.185844e+003, 3.401619e+001
1.186326e+003, 3.393727e+001
1.186808e+003, 3.385020e+001
1.187291e+003, 3.377494e+001
1.187773e+003, 3.373914e+001
1.188255e+003, 3.385036e+001
1.188737e+003, 3.392212e+001
1.189219e+003, 3.369396e+001
1.189701e+003, 3.330420e+001
1.190183e+003, 3.319942e+001
1.190665e+003, 3.346154e+001
1.191148e+003, 3.355979e+001
1.191630e+003, 3.336030e+001
1.192112e+003, 3.340021e+001
1.192594e+003, 3.386736e+001
1.193076e+003, 3.430231e+001
1.193558e+003, 3.448702e+001
1.194040e+003, 3.445819e+001
1.194522e+003, 3.422587e+001
1.195005e+003, 3.385801e+001
1.195487e+003, 3.361884e+001
1.195969e+003, 3.350955e+001
1.196451e+003, 3.357328e+001
1.196933e+003, 3.380408e+001
1.197415e+003, 3.405907e+001
1.197897e+003, 3.429372e+001
1.198379e+003, 3.438144e+001
1.198861e+003, 3.423515e+001
1.199344e+003, 3.399113e+001
1.199826e+003, 3.376034e+001
1.200308e+003, 3.361113e+001
1.200790e+003, 3.377020e+001
1.201272e+003, 3.408425e+001
1.201754e+003, 3.420458e+001
1.202236e+003, 3.415492e+001
1.202718e+003, 3.414252e+001
1.203200e+003, 3.421832e+001
1.203683e+003, 3.425901e+001
1.204165e+003, 3.416905e+001
1.204647e+003, 3.408430e+001
1.205129e+003, 3.415410e+001
1.205611e+003, 3.422274e+001
1.206093e+003, 3.412718e+001
1.206575e+003, 3.397481e+001
1.207057e+003, 3.385875e+001
1.207540e+003, 3.381711e+001
1.208022e+003, 3.394118e+001
1.208504e+003, 3.427161e+001
1.208986e+003, 3.446407e+001
1.209468e+003, 3.438613e+001
1.209950e+003, 3.423962e+001
1.210432e+003, 3.395771e+001
1.210914e+003, 3.374805e+001
1.211396e+003, 3.380326e+001
1.211879e+003, 3.390499e+001
1.212361e+003, 3.378311e+001
1.212843e+003, 3.352431e+001
1.213325e+003, 3.348926e+001
1.213807e+003, 3.373218e+001
1.214289e+003, 3.394741e+001
1.214771e+003, 3.414558e+001
1.215253e+003, 3.427477e+001
1.215735e+003, 3.432537e+001
1.216218e+003, 3.428281e+001
1.216700e+003, 3.412033e+001
1.217182e+003, 3.395533e+001
1.217664e+003, 3.393394e+001
1.218146e+003, 3.402419e+001
1.218628e+003, 3.418966e+001
1.219110e+003, 3.437871e+001
1.219592e+003, 3.424357e+001
1.220075e+003, 3.385495e+001
1.220557e+003, 3.368397e+001
1.221039e+003, 3.381114e+001
1.221521e+003, 3.395507e+001
1.222003e+003, 3.396115e+001
1.222485e+003, 3.392199e+001
1.222967e+003, 3.389722e+001
1.223449e+003, 3.391100e+001
1.223932e+003, 3.403125e+001
1.224414e+003, 3.417631e+001
1.224896e+003, 3.425453e+001
1.225378e+003, 3.426483e+001
1.225860e+003, 3.420422e+001
1.226342e+003, 3.409009e+001
1.226824e+003, 3.400331e+001
1.227306e+003, 3.394814e+001
1.227788e+003, 3.398946e+001
1.228271e+003, 3.431401e+001
1.228753e+003, 3.452363e+001
1.229235e+003, 3.428703e+001
1.229717e+003, 3.402576e+001
1.230199e+003, 3.404216e+001
1.230681e+003, 3.428481e+001
1.231163e+003, 3.473958e+001
1.231645e+003, 3.539151e+001
1.232127e+003, 3.553977e+001
1.232610e+003, 3.493245e+001
1.233092e+003, 3.461723e+001
1.233574e+003, 3.474667e+001
1.234056e+003, 3.478345e+001
1.234538e+003, 3.454772e+001
1.235020e+003, 3.424918e+001
1.235502e+003, 3.402178e+001
1.235984e+003, 3.391882e+001
1.236467e+003, 3.409880e+001
1.236949e+003, 3.445415e+001
1.237431e+003, 3.449486e+001
1.237913e+003, 3.429084e+001
1.238395e+003, 3.410436e+001
1.238877e+003, 3.398733e+001
1.239359e+003, 3.407411e+001
1.239841e+003, 3.435734e+001
1.240323e+003, 3.446913e+001
1.240806e+003, 3.412505e+001
1.241288e+003, 3.378315e+001
1.241770e+003, 3.394657e+001
1.242252e+003, 3.425519e+001
1.242734e+003, 3.438354e+001
1.243216e+003, 3.442381e+001
1.243698e+003, 3.450348e+001
1.244180e+003, 3.460142e+001
1.244662e+003, 3.462962e+001
1.245145e+003, 3.458081e+001
1.245627e+003, 3.457055e+001
1.246109e+003, 3.467718e+001
1.246591e+003, 3.473521e+001
1.247073e+003, 3.460099e+001
1.247555e+003, 3.457619e+001
1.248037e+003, 3.494963e+001
1.248519e+003, 3.523062e+001
1.249002e+003, 3.499993e+001
1.249484e+003, 3.452249e+001
1.249966e+003, 3.426884e+001
1.250448e+003, 3.423118e+001
1.250930e+003, 3.429086e+001
1.251412e+003, 3.446635e+001
1.251894e+003, 3.451536e+001
1.252376e+003, 3.441370e+001
1.252859e+003, 3.435823e+001
1.253341e+003, 3.440829e+001
1.253823e+003, 3.451052e+001
1.254305e+003, 3.463456e+001
1.254787e+003, 3.472874e+001
1.255269e+003, 3.468849e+001
1.255751e+003, 3.459481e+001
1.256233e+003, 3.459375e+001
1.256715e+003, 3.465395e+001
1.257198e+003, 3.478477e+001
1.257680e+003, 3.490423e+001
1.258162e+003, 3.475588e+001
1.258644e+003, 3.436709e+001
1.259126e+003, 3.420256e+001
1.259608e+003, 3.453906e+001
1.260090e+003, 3.480491e+001
1.260572e+003, 3.461473e+001
1.261054e+003, 3.444976e+001
1.261537e+003, 3.464408e+001
1.262019e+003, 3.484457e+001
1.262501e+003, 3.469444e+001
1.262983e+003, 3.442204e+001
1.263465e+003, 3.445660e+001
1.263947e+003, 3.473764e+001
1.264429e+003, 3.474086e+001
1.264911e+003, 3.429290e+001
1.265394e+003, 3.419101e+001
1.265876e+003, 3.452691e+001
1.266358e+003, 3.483094e+001
1.266840e+003, 3.501468e+001
1.267322e+003, 3.500341e+001
1.267804e+003, 3.473490e+001
1.268286e+003, 3.443599e+001
1.268768e+003, 3.436803e+001
1.269250e+003, 3.449298e+001
1.269733e+003, 3.484602e+001
1.270215e+003, 3.527089e+001
1.270697e+003, 3.532582e+001
1.271179e+003, 3.512433e+001
1.271661e+003, 3.499959e+001
1.272143e+003, 3.500076e+001
1.272625e+003, 3.502605e+001
1.273107e+003, 3.503742e+001
1.273589e+003, 3.509849e+001
1.274072e+003, 3.534188e+001
1.274554e+003, 3.551201e+001
1.275036e+003, 3.540132e+001
1.275518e+003, 3.526617e+001
1.276000e+003, 3.531633e+001
1.276482e+003, 3.540097e+001
1.276964e+003, 3.532926e+001
1.277446e+003, 3.514855e+001
1.277929e+003, 3.500799e+001
1.278411e+003, 3.490133e+001
1.278893e+003, 3.490512e+001
1.279375e+003, 3.503601e+001
1.279857e+003, 3.525375e+001
1.280339e+003, 3.560729e+001
1.280821e+003, 3.571852e+001
1.281303e+003, 3.542662e+001
1.281786e+003, 3.512516e+001
1.282268e+003, 3.510101e+001
##END=



