##NAMES=Crandallite
##RRUFFID=R140429
##IDEAL CHEMISTRY=CaAl_3_(PO_4_)(PO_3_OH)(OH)_6_
##LOCALITY=Savannah Pit, Tyrone mine, Grant County, New Mexico, USA
##OWNER=RRUFF
##SOURCE=Ron Gibbs
##DESCRIPTION=Colorless, hexagonal platy crystals
##STATUS=The identification of this mineral has been confirmed by single-crystal X-ray diffraction.
##URL=rruff.info/R140429
8.813672e+001, 7.926180e+002
8.861884e+001, 7.999722e+002
8.910095e+001, 8.096480e+002
8.958307e+001, 8.235555e+002
9.006519e+001, 8.397794e+002
9.054730e+001, 8.566619e+002
9.102942e+001, 8.750220e+002
9.151154e+001, 8.917377e+002
9.199365e+001, 9.040250e+002
9.247577e+001, 9.127377e+002
9.295789e+001, 9.198694e+002
9.344000e+001, 9.254056e+002
9.392212e+001, 9.296150e+002
9.440424e+001, 9.348690e+002
9.488635e+001, 9.424111e+002
9.536847e+001, 9.505734e+002
9.585059e+001, 9.562758e+002
9.633270e+001, 9.596004e+002
9.681482e+001, 9.629944e+002
9.729694e+001, 9.673889e+002
9.777905e+001, 9.727912e+002
9.826117e+001, 9.798024e+002
9.874329e+001, 9.888627e+002
9.922540e+001, 9.989330e+002
9.970752e+001, 1.007579e+003
1.001896e+002, 1.014401e+003
1.006718e+002, 1.020863e+003
1.011539e+002, 1.027853e+003
1.016360e+002, 1.035519e+003
1.021181e+002, 1.043158e+003
1.026002e+002, 1.050485e+003
1.030823e+002, 1.057644e+003
1.035645e+002, 1.065636e+003
1.040466e+002, 1.074670e+003
1.045287e+002, 1.084398e+003
1.050108e+002, 1.094601e+003
1.054929e+002, 1.104632e+003
1.059750e+002, 1.116334e+003
1.064572e+002, 1.130935e+003
1.069393e+002, 1.149149e+003
1.074214e+002, 1.164366e+003
1.079035e+002, 1.176419e+003
1.083856e+002, 1.185917e+003
1.088677e+002, 1.193325e+003
1.093499e+002, 1.195259e+003
1.098320e+002, 1.198667e+003
1.103141e+002, 1.205330e+003
1.107962e+002, 1.216566e+003
1.112783e+002, 1.227406e+003
1.117604e+002, 1.236729e+003
1.122426e+002, 1.245742e+003
1.127247e+002, 1.256110e+003
1.132068e+002, 1.269174e+003
1.136889e+002, 1.282821e+003
1.141710e+002, 1.296232e+003
1.146531e+002, 1.309683e+003
1.151353e+002, 1.322105e+003
1.156174e+002, 1.332503e+003
1.160995e+002, 1.341660e+003
1.165816e+002, 1.351701e+003
1.170637e+002, 1.365351e+003
1.175458e+002, 1.378957e+003
1.180280e+002, 1.390048e+003
1.185101e+002, 1.396421e+003
1.189922e+002, 1.402046e+003
1.194743e+002, 1.408469e+003
1.199564e+002, 1.415713e+003
1.204385e+002, 1.423792e+003
1.209207e+002, 1.432241e+003
1.214028e+002, 1.441682e+003
1.218849e+002, 1.452839e+003
1.223670e+002, 1.467526e+003
1.228491e+002, 1.483021e+003
1.233312e+002, 1.497188e+003
1.238134e+002, 1.510028e+003
1.242955e+002, 1.521173e+003
1.247776e+002, 1.528958e+003
1.252597e+002, 1.534735e+003
1.257418e+002, 1.541266e+003
1.262239e+002, 1.550170e+003
1.267061e+002, 1.560424e+003
1.271882e+002, 1.569817e+003
1.276703e+002, 1.578282e+003
1.281524e+002, 1.587266e+003
1.286345e+002, 1.599180e+003
1.291166e+002, 1.613335e+003
1.295988e+002, 1.626656e+003
1.300809e+002, 1.636986e+003
1.305630e+002, 1.645217e+003
1.310451e+002, 1.654606e+003
1.315272e+002, 1.665503e+003
1.320093e+002, 1.676660e+003
1.324915e+002, 1.686150e+003
1.329736e+002, 1.693961e+003
1.334557e+002, 1.701725e+003
1.339378e+002, 1.710313e+003
1.344199e+002, 1.719656e+003
1.349020e+002, 1.728513e+003
1.353842e+002, 1.736561e+003
1.358663e+002, 1.744200e+003
1.363484e+002, 1.752815e+003
1.368305e+002, 1.762510e+003
1.373126e+002, 1.772322e+003
1.377947e+002, 1.781337e+003
1.382769e+002, 1.789337e+003
1.387590e+002, 1.798266e+003
1.392411e+002, 1.809189e+003
1.397232e+002, 1.820910e+003
1.402053e+002, 1.827919e+003
1.406874e+002, 1.829096e+003
1.411696e+002, 1.828131e+003
1.416517e+002, 1.827495e+003
1.421338e+002, 1.827428e+003
1.426159e+002, 1.827362e+003
1.430980e+002, 1.827420e+003
1.435801e+002, 1.827631e+003
1.440623e+002, 1.827433e+003
1.445444e+002, 1.826311e+003
1.450265e+002, 1.825538e+003
1.455086e+002, 1.826312e+003
1.459907e+002, 1.830343e+003
1.464728e+002, 1.833312e+003
1.469550e+002, 1.834314e+003
1.474371e+002, 1.833203e+003
1.479192e+002, 1.832612e+003
1.484013e+002, 1.833030e+003
1.488834e+002, 1.833662e+003
1.493655e+002, 1.833755e+003
1.498477e+002, 1.832272e+003
1.503298e+002, 1.831293e+003
1.508119e+002, 1.831338e+003
1.512940e+002, 1.832615e+003
1.517761e+002, 1.833561e+003
1.522583e+002, 1.833886e+003
1.527404e+002, 1.833920e+003
1.532225e+002, 1.834019e+003
1.537046e+002, 1.834030e+003
1.541867e+002, 1.834312e+003
1.546688e+002, 1.835363e+003
1.551510e+002, 1.837802e+003
1.556331e+002, 1.838777e+003
1.561152e+002, 1.836437e+003
1.565973e+002, 1.832753e+003
1.570794e+002, 1.830377e+003
1.575615e+002, 1.831115e+003
1.580437e+002, 1.832272e+003
1.585258e+002, 1.832715e+003
1.590079e+002, 1.832014e+003
1.594900e+002, 1.831578e+003
1.599721e+002, 1.831706e+003
1.604542e+002, 1.832367e+003
1.609364e+002, 1.833501e+003
1.614185e+002, 1.835082e+003
1.619006e+002, 1.837085e+003
1.623827e+002, 1.839638e+003
1.628648e+002, 1.843140e+003
1.633469e+002, 1.846196e+003
1.638291e+002, 1.847774e+003
1.643112e+002, 1.848375e+003
1.647933e+002, 1.849227e+003
1.652754e+002, 1.851505e+003
1.657575e+002, 1.853905e+003
1.662396e+002, 1.855290e+003
1.667218e+002, 1.854806e+003
1.672039e+002, 1.854521e+003
1.676860e+002, 1.855949e+003
1.681681e+002, 1.858705e+003
1.686502e+002, 1.861587e+003
1.691323e+002, 1.863071e+003
1.696145e+002, 1.864705e+003
1.700966e+002, 1.868318e+003
1.705787e+002, 1.875641e+003
1.710608e+002, 1.883066e+003
1.715429e+002, 1.887144e+003
1.720250e+002, 1.888481e+003
1.725072e+002, 1.889793e+003
1.729893e+002, 1.892914e+003
1.734714e+002, 1.897032e+003
1.739535e+002, 1.901042e+003
1.744356e+002, 1.904571e+003
1.749177e+002, 1.907921e+003
1.753999e+002, 1.911614e+003
1.758820e+002, 1.915600e+003
1.763641e+002, 1.919237e+003
1.768462e+002, 1.921796e+003
1.773283e+002, 1.923786e+003
1.778104e+002, 1.926140e+003
1.782926e+002, 1.928957e+003
1.787747e+002, 1.932425e+003
1.792568e+002, 1.937383e+003
1.797389e+002, 1.943718e+003
1.802210e+002, 1.949715e+003
1.807031e+002, 1.953058e+003
1.811853e+002, 1.954766e+003
1.816674e+002, 1.957467e+003
1.821495e+002, 1.962337e+003
1.826316e+002, 1.968439e+003
1.831137e+002, 1.974229e+003
1.835958e+002, 1.979757e+003
1.840780e+002, 1.984410e+003
1.845601e+002, 1.987163e+003
1.850422e+002, 1.988377e+003
1.855243e+002, 1.989935e+003
1.860064e+002, 1.992991e+003
1.864885e+002, 1.996581e+003
1.869707e+002, 1.998008e+003
1.874528e+002, 1.997181e+003
1.879349e+002, 1.995256e+003
1.884170e+002, 1.993010e+003
1.888991e+002, 1.990544e+003
1.893812e+002, 1.988630e+003
1.898634e+002, 1.988109e+003
1.903455e+002, 1.988329e+003
1.908276e+002, 1.986465e+003
1.913097e+002, 1.982241e+003
1.917918e+002, 1.977365e+003
1.922739e+002, 1.973439e+003
1.927561e+002, 1.970406e+003
1.932382e+002, 1.968404e+003
1.937203e+002, 1.967951e+003
1.942024e+002, 1.968615e+003
1.946845e+002, 1.967846e+003
1.951666e+002, 1.965335e+003
1.956488e+002, 1.962251e+003
1.961309e+002, 1.960101e+003
1.966130e+002, 1.958902e+003
1.970951e+002, 1.957381e+003
1.975772e+002, 1.954865e+003
1.980593e+002, 1.951499e+003
1.985415e+002, 1.949012e+003
1.990236e+002, 1.947657e+003
1.995057e+002, 1.946659e+003
1.999878e+002, 1.945027e+003
2.004699e+002, 1.942739e+003
2.009520e+002, 1.940503e+003
2.014342e+002, 1.938604e+003
2.019163e+002, 1.937082e+003
2.023984e+002, 1.935835e+003
2.028805e+002, 1.934881e+003
2.033626e+002, 1.934319e+003
2.038447e+002, 1.934363e+003
2.043269e+002, 1.935127e+003
2.048090e+002, 1.935998e+003
2.052911e+002, 1.936729e+003
2.057732e+002, 1.937293e+003
2.062553e+002, 1.937992e+003
2.067374e+002, 1.938695e+003
2.072196e+002, 1.939603e+003
2.077017e+002, 1.941025e+003
2.081838e+002, 1.942985e+003
2.086659e+002, 1.945173e+003
2.091480e+002, 1.947588e+003
2.096301e+002, 1.950277e+003
2.101123e+002, 1.952179e+003
2.105944e+002, 1.952959e+003
2.110765e+002, 1.953351e+003
2.115586e+002, 1.954516e+003
2.120407e+002, 1.956839e+003
2.125228e+002, 1.958770e+003
2.130050e+002, 1.959526e+003
2.134871e+002, 1.958863e+003
2.139692e+002, 1.959503e+003
2.144513e+002, 1.962172e+003
2.149334e+002, 1.965341e+003
2.154155e+002, 1.966816e+003
2.158977e+002, 1.966078e+003
2.163798e+002, 1.964915e+003
2.168619e+002, 1.963693e+003
2.173440e+002, 1.962326e+003
2.178261e+002, 1.961807e+003
2.183082e+002, 1.962500e+003
2.187904e+002, 1.963729e+003
2.192725e+002, 1.964558e+003
2.197546e+002, 1.964865e+003
2.202367e+002, 1.965129e+003
2.207188e+002, 1.965609e+003
2.212009e+002, 1.966463e+003
2.216831e+002, 1.966598e+003
2.221652e+002, 1.965595e+003
2.226473e+002, 1.964316e+003
2.231294e+002, 1.963996e+003
2.236115e+002, 1.965053e+003
2.240936e+002, 1.966246e+003
2.245758e+002, 1.967201e+003
2.250579e+002, 1.967822e+003
2.255400e+002, 1.968889e+003
2.260221e+002, 1.970482e+003
2.265042e+002, 1.972436e+003
2.269863e+002, 1.974578e+003
2.274685e+002, 1.977237e+003
2.279506e+002, 1.979435e+003
2.284327e+002, 1.980754e+003
2.289148e+002, 1.981015e+003
2.293969e+002, 1.981544e+003
2.298790e+002, 1.982085e+003
2.303612e+002, 1.983039e+003
2.308433e+002, 1.985061e+003
2.313254e+002, 1.989083e+003
2.318075e+002, 1.992414e+003
2.322896e+002, 1.994080e+003
2.327717e+002, 1.993777e+003
2.332539e+002, 1.994658e+003
2.337360e+002, 1.997644e+003
2.342181e+002, 2.000981e+003
2.347002e+002, 2.002516e+003
2.351823e+002, 2.000815e+003
2.356644e+002, 2.000001e+003
2.361466e+002, 2.001465e+003
2.366287e+002, 2.005552e+003
2.371108e+002, 2.007968e+003
2.375929e+002, 2.007593e+003
2.380750e+002, 2.006636e+003
2.385571e+002, 2.007497e+003
2.390393e+002, 2.011252e+003
2.395214e+002, 2.014929e+003
2.400035e+002, 2.017901e+003
2.404856e+002, 2.020152e+003
2.409677e+002, 2.022525e+003
2.414498e+002, 2.024483e+003
2.419320e+002, 2.027041e+003
2.424141e+002, 2.031424e+003
2.428962e+002, 2.039051e+003
2.433783e+002, 2.045652e+003
2.438604e+002, 2.049999e+003
2.443425e+002, 2.052049e+003
2.448247e+002, 2.055179e+003
2.453068e+002, 2.059847e+003
2.457889e+002, 2.064994e+003
2.462710e+002, 2.069796e+003
2.467531e+002, 2.074171e+003
2.472352e+002, 2.078284e+003
2.477174e+002, 2.082124e+003
2.481995e+002, 2.085680e+003
2.486816e+002, 2.089221e+003
2.491637e+002, 2.092737e+003
2.496458e+002, 2.096381e+003
2.501279e+002, 2.100245e+003
2.506101e+002, 2.104390e+003
2.510922e+002, 2.108942e+003
2.515743e+002, 2.114154e+003
2.520564e+002, 2.119948e+003
2.525385e+002, 2.125151e+003
2.530206e+002, 2.129477e+003
2.535028e+002, 2.133686e+003
2.539849e+002, 2.138097e+003
2.544670e+002, 2.142475e+003
2.549491e+002, 2.147699e+003
2.554312e+002, 2.154234e+003
2.559133e+002, 2.161636e+003
2.563955e+002, 2.167997e+003
2.568776e+002, 2.172790e+003
2.573597e+002, 2.177167e+003
2.578418e+002, 2.181796e+003
2.583239e+002, 2.186761e+003
2.588061e+002, 2.191659e+003
2.592882e+002, 2.196534e+003
2.597703e+002, 2.201323e+003
2.602524e+002, 2.205854e+003
2.607345e+002, 2.210573e+003
2.612166e+002, 2.214374e+003
2.616988e+002, 2.216498e+003
2.621809e+002, 2.216323e+003
2.626630e+002, 2.216698e+003
2.631451e+002, 2.218130e+003
2.636272e+002, 2.220123e+003
2.641093e+002, 2.221158e+003
2.645915e+002, 2.220990e+003
2.650736e+002, 2.220615e+003
2.655557e+002, 2.220858e+003
2.660378e+002, 2.222402e+003
2.665199e+002, 2.221784e+003
2.670020e+002, 2.218355e+003
2.674842e+002, 2.213244e+003
2.679663e+002, 2.208589e+003
2.684484e+002, 2.204117e+003
2.689305e+002, 2.200851e+003
2.694126e+002, 2.199776e+003
2.698947e+002, 2.201505e+003
2.703769e+002, 2.201292e+003
2.708590e+002, 2.198476e+003
2.713411e+002, 2.194454e+003
2.718232e+002, 2.191743e+003
2.723053e+002, 2.190691e+003
2.727874e+002, 2.189363e+003
2.732696e+002, 2.186780e+003
2.737517e+002, 2.182802e+003
2.742338e+002, 2.179537e+003
2.747159e+002, 2.177098e+003
2.751980e+002, 2.175050e+003
2.756801e+002, 2.173048e+003
2.761623e+002, 2.171219e+003
2.766444e+002, 2.168730e+003
2.771265e+002, 2.165040e+003
2.776086e+002, 2.160258e+003
2.780907e+002, 2.156696e+003
2.785728e+002, 2.154691e+003
2.790550e+002, 2.153035e+003
2.795371e+002, 2.150367e+003
2.800192e+002, 2.146653e+003
2.805013e+002, 2.142755e+003
2.809834e+002, 2.138615e+003
2.814655e+002, 2.134497e+003
2.819477e+002, 2.131852e+003
2.824298e+002, 2.130884e+003
2.829119e+002, 2.130539e+003
2.833940e+002, 2.129954e+003
2.838761e+002, 2.129116e+003
2.843582e+002, 2.128102e+003
2.848404e+002, 2.126773e+003
2.853225e+002, 2.125317e+003
2.858046e+002, 2.124389e+003
2.862867e+002, 2.124009e+003
2.867688e+002, 2.123807e+003
2.872509e+002, 2.123477e+003
2.877331e+002, 2.123035e+003
2.882152e+002, 2.122730e+003
2.886973e+002, 2.122644e+003
2.891794e+002, 2.122635e+003
2.896615e+002, 2.122542e+003
2.901436e+002, 2.122360e+003
2.906258e+002, 2.121742e+003
2.911079e+002, 2.120155e+003
2.915900e+002, 2.117861e+003
2.920721e+002, 2.115854e+003
2.925542e+002, 2.114128e+003
2.930363e+002, 2.113105e+003
2.935185e+002, 2.113995e+003
2.940006e+002, 2.116594e+003
2.944827e+002, 2.118862e+003
2.949648e+002, 2.119164e+003
2.954469e+002, 2.118302e+003
2.959290e+002, 2.118670e+003
2.964112e+002, 2.120668e+003
2.968933e+002, 2.122753e+003
2.973754e+002, 2.122433e+003
2.978575e+002, 2.120385e+003
2.983396e+002, 2.119131e+003
2.988217e+002, 2.120587e+003
2.993039e+002, 2.123440e+003
2.997860e+002, 2.125429e+003
3.002681e+002, 2.126479e+003
3.007502e+002, 2.127002e+003
3.012323e+002, 2.127136e+003
3.017144e+002, 2.127040e+003
3.021966e+002, 2.127087e+003
3.026787e+002, 2.127560e+003
3.031608e+002, 2.128191e+003
3.036429e+002, 2.128479e+003
3.041250e+002, 2.128462e+003
3.046071e+002, 2.128834e+003
3.050893e+002, 2.130635e+003
3.055714e+002, 2.133097e+003
3.060535e+002, 2.134915e+003
3.065356e+002, 2.135419e+003
3.070177e+002, 2.135421e+003
3.074998e+002, 2.135484e+003
3.079820e+002, 2.135620e+003
3.084641e+002, 2.135919e+003
3.089462e+002, 2.136389e+003
3.094283e+002, 2.137069e+003
3.099104e+002, 2.138151e+003
3.103925e+002, 2.140227e+003
3.108747e+002, 2.141711e+003
3.113568e+002, 2.140649e+003
3.118389e+002, 2.137983e+003
3.123210e+002, 2.136350e+003
3.128031e+002, 2.137655e+003
3.132852e+002, 2.140144e+003
3.137674e+002, 2.142674e+003
3.142495e+002, 2.145251e+003
3.147316e+002, 2.147210e+003
3.152137e+002, 2.147937e+003
3.156958e+002, 2.147839e+003
3.161779e+002, 2.147611e+003
3.166601e+002, 2.147393e+003
3.171422e+002, 2.147209e+003
3.176243e+002, 2.147019e+003
3.181064e+002, 2.146785e+003
3.185885e+002, 2.146810e+003
3.190706e+002, 2.147125e+003
3.195528e+002, 2.147788e+003
3.200349e+002, 2.148860e+003
3.205170e+002, 2.151054e+003
3.209991e+002, 2.153001e+003
3.214812e+002, 2.153960e+003
3.219633e+002, 2.153906e+003
3.224455e+002, 2.154452e+003
3.229276e+002, 2.156148e+003
3.234097e+002, 2.158434e+003
3.238918e+002, 2.160890e+003
3.243739e+002, 2.164521e+003
3.248560e+002, 2.167120e+003
3.253382e+002, 2.167556e+003
3.258203e+002, 2.166258e+003
3.263024e+002, 2.166159e+003
3.267845e+002, 2.168351e+003
3.272666e+002, 2.171107e+003
3.277487e+002, 2.173631e+003
3.282309e+002, 2.176577e+003
3.287130e+002, 2.178313e+003
3.291951e+002, 2.178320e+003
3.296772e+002, 2.177132e+003
3.301593e+002, 2.176036e+003
3.306414e+002, 2.174535e+003
3.311236e+002, 2.173732e+003
3.316057e+002, 2.174046e+003
3.320878e+002, 2.175727e+003
3.325699e+002, 2.177946e+003
3.330520e+002, 2.181501e+003
3.335341e+002, 2.185098e+003
3.340163e+002, 2.186460e+003
3.344984e+002, 2.183588e+003
3.349805e+002, 2.182474e+003
3.354626e+002, 2.185157e+003
3.359447e+002, 2.191865e+003
3.364268e+002, 2.197749e+003
3.369090e+002, 2.203185e+003
3.373911e+002, 2.207338e+003
3.378732e+002, 2.208890e+003
3.383553e+002, 2.207041e+003
3.388374e+002, 2.205825e+003
3.393195e+002, 2.206024e+003
3.398017e+002, 2.207345e+003
3.402838e+002, 2.208522e+003
3.407659e+002, 2.209440e+003
3.412480e+002, 2.210450e+003
3.417301e+002, 2.211897e+003
3.422122e+002, 2.213768e+003
3.426944e+002, 2.215369e+003
3.431765e+002, 2.216574e+003
3.436586e+002, 2.217508e+003
3.441407e+002, 2.218329e+003
3.446228e+002, 2.219035e+003
3.451049e+002, 2.219902e+003
3.455871e+002, 2.220701e+003
3.460692e+002, 2.221711e+003
3.465513e+002, 2.225137e+003
3.470334e+002, 2.231785e+003
3.475155e+002, 2.237803e+003
3.479977e+002, 2.236910e+003
3.484798e+002, 2.230380e+003
3.489619e+002, 2.224780e+003
3.494440e+002, 2.223280e+003
3.499261e+002, 2.224327e+003
3.504082e+002, 2.224735e+003
3.508904e+002, 2.224485e+003
3.513725e+002, 2.224734e+003
3.518546e+002, 2.226777e+003
3.523367e+002, 2.229989e+003
3.528188e+002, 2.233171e+003
3.533009e+002, 2.236200e+003
3.537831e+002, 2.238698e+003
3.542652e+002, 2.240202e+003
3.547473e+002, 2.240774e+003
3.552294e+002, 2.240750e+003
3.557115e+002, 2.239824e+003
3.561936e+002, 2.238671e+003
3.566758e+002, 2.238190e+003
3.571579e+002, 2.238895e+003
3.576400e+002, 2.239420e+003
3.581221e+002, 2.238468e+003
3.586042e+002, 2.236729e+003
3.590863e+002, 2.235510e+003
3.595685e+002, 2.235229e+003
3.600506e+002, 2.235836e+003
3.605327e+002, 2.237703e+003
3.610148e+002, 2.241038e+003
3.614969e+002, 2.243885e+003
3.619790e+002, 2.244938e+003
3.624612e+002, 2.245234e+003
3.629433e+002, 2.245888e+003
3.634254e+002, 2.247377e+003
3.639075e+002, 2.249000e+003
3.643896e+002, 2.250610e+003
3.648717e+002, 2.252141e+003
3.653539e+002, 2.253347e+003
3.658360e+002, 2.253997e+003
3.663181e+002, 2.254312e+003
3.668002e+002, 2.254425e+003
3.672823e+002, 2.254160e+003
3.677644e+002, 2.253858e+003
3.682466e+002, 2.253387e+003
3.687287e+002, 2.252872e+003
3.692108e+002, 2.252678e+003
3.696929e+002, 2.253382e+003
3.701750e+002, 2.253823e+003
3.706571e+002, 2.253457e+003
3.711393e+002, 2.251761e+003
3.716214e+002, 2.251182e+003
3.721035e+002, 2.252578e+003
3.725856e+002, 2.254536e+003
3.730677e+002, 2.255186e+003
3.735498e+002, 2.254103e+003
3.740320e+002, 2.252745e+003
3.745141e+002, 2.251272e+003
3.749962e+002, 2.249767e+003
3.754783e+002, 2.249291e+003
3.759604e+002, 2.250356e+003
3.764425e+002, 2.251423e+003
3.769247e+002, 2.250991e+003
3.774068e+002, 2.248792e+003
3.778889e+002, 2.247338e+003
3.783710e+002, 2.247090e+003
3.788531e+002, 2.247644e+003
3.793352e+002, 2.248030e+003
3.798174e+002, 2.248209e+003
3.802995e+002, 2.248475e+003
3.807816e+002, 2.248740e+003
3.812637e+002, 2.249087e+003
3.817458e+002, 2.250370e+003
3.822279e+002, 2.252742e+003
3.827101e+002, 2.255427e+003
3.831922e+002, 2.257777e+003
3.836743e+002, 2.259705e+003
3.841564e+002, 2.260762e+003
3.846385e+002, 2.259910e+003
3.851206e+002, 2.258485e+003
3.856028e+002, 2.259219e+003
3.860849e+002, 2.262016e+003
3.865670e+002, 2.264955e+003
3.870491e+002, 2.266775e+003
3.875312e+002, 2.267734e+003
3.880133e+002, 2.268221e+003
3.884955e+002, 2.268237e+003
3.889776e+002, 2.268061e+003
3.894597e+002, 2.267875e+003
3.899418e+002, 2.267718e+003
3.904239e+002, 2.267649e+003
3.909060e+002, 2.267674e+003
3.913882e+002, 2.267841e+003
3.918703e+002, 2.268159e+003
3.923524e+002, 2.268611e+003
3.928345e+002, 2.269315e+003
3.933166e+002, 2.270219e+003
3.937987e+002, 2.271432e+003
3.942809e+002, 2.273073e+003
3.947630e+002, 2.275871e+003
3.952451e+002, 2.278396e+003
3.957272e+002, 2.280177e+003
3.962093e+002, 2.281200e+003
3.966914e+002, 2.281855e+003
3.971736e+002, 2.281364e+003
3.976557e+002, 2.281064e+003
3.981378e+002, 2.281777e+003
3.986199e+002, 2.284671e+003
3.991020e+002, 2.287177e+003
3.995841e+002, 2.289275e+003
4.000663e+002, 2.290929e+003
4.005484e+002, 2.292027e+003
4.010305e+002, 2.292138e+003
4.015126e+002, 2.292224e+003
4.019947e+002, 2.292588e+003
4.024768e+002, 2.293260e+003
4.029590e+002, 2.294031e+003
4.034411e+002, 2.294973e+003
4.039232e+002, 2.295947e+003
4.044053e+002, 2.296905e+003
4.048874e+002, 2.298041e+003
4.053695e+002, 2.298472e+003
4.058517e+002, 2.297651e+003
4.063338e+002, 2.296095e+003
4.068159e+002, 2.296383e+003
4.072980e+002, 2.298969e+003
4.077801e+002, 2.301301e+003
4.082622e+002, 2.300851e+003
4.087444e+002, 2.297933e+003
4.092265e+002, 2.297314e+003
4.097086e+002, 2.299895e+003
4.101907e+002, 2.303646e+003
4.106728e+002, 2.305427e+003
4.111549e+002, 2.305478e+003
4.116371e+002, 2.305414e+003
4.121192e+002, 2.305933e+003
4.126013e+002, 2.306793e+003
4.130834e+002, 2.307552e+003
4.135655e+002, 2.308178e+003
4.140476e+002, 2.308760e+003
4.145298e+002, 2.309967e+003
4.150119e+002, 2.311050e+003
4.154940e+002, 2.310563e+003
4.159761e+002, 2.306910e+003
4.164582e+002, 2.303433e+003
4.169403e+002, 2.303667e+003
4.174225e+002, 2.306528e+003
4.179046e+002, 2.308890e+003
4.183867e+002, 2.308971e+003
4.188688e+002, 2.308121e+003
4.193509e+002, 2.307159e+003
4.198330e+002, 2.306163e+003
4.203152e+002, 2.305318e+003
4.207973e+002, 2.305149e+003
4.212794e+002, 2.305037e+003
4.217615e+002, 2.304263e+003
4.222436e+002, 2.301076e+003
4.227257e+002, 2.298888e+003
4.232079e+002, 2.299068e+003
4.236900e+002, 2.301411e+003
4.241721e+002, 2.303074e+003
4.246542e+002, 2.302604e+003
4.251363e+002, 2.302320e+003
4.256184e+002, 2.303401e+003
4.261006e+002, 2.306858e+003
4.265827e+002, 2.309733e+003
4.270648e+002, 2.311939e+003
4.275469e+002, 2.313564e+003
4.280290e+002, 2.314670e+003
4.285111e+002, 2.314997e+003
4.289933e+002, 2.315338e+003
4.294754e+002, 2.315908e+003
4.299575e+002, 2.316699e+003
4.304396e+002, 2.317565e+003
4.309217e+002, 2.318514e+003
4.314038e+002, 2.319522e+003
4.318860e+002, 2.320686e+003
4.323681e+002, 2.322022e+003
4.328502e+002, 2.322948e+003
4.333323e+002, 2.323324e+003
4.338144e+002, 2.323366e+003
4.342965e+002, 2.323261e+003
4.347787e+002, 2.323051e+003
4.352608e+002, 2.323321e+003
4.357429e+002, 2.324615e+003
4.362250e+002, 2.326571e+003
4.367071e+002, 2.328486e+003
4.371892e+002, 2.330347e+003
4.376714e+002, 2.331969e+003
4.381535e+002, 2.332878e+003
4.386356e+002, 2.333485e+003
4.391177e+002, 2.334542e+003
4.395998e+002, 2.336792e+003
4.400819e+002, 2.339031e+003
4.405641e+002, 2.340083e+003
4.410462e+002, 2.340256e+003
4.415283e+002, 2.340626e+003
4.420104e+002, 2.341514e+003
4.424925e+002, 2.342959e+003
4.429746e+002, 2.345088e+003
4.434568e+002, 2.348092e+003
4.439389e+002, 2.351089e+003
4.444210e+002, 2.353417e+003
4.449031e+002, 2.355663e+003
4.453852e+002, 2.358537e+003
4.458673e+002, 2.363016e+003
4.463495e+002, 2.367065e+003
4.468316e+002, 2.370125e+003
4.473137e+002, 2.372209e+003
4.477958e+002, 2.374187e+003
4.482779e+002, 2.375958e+003
4.487600e+002, 2.377664e+003
4.492422e+002, 2.379371e+003
4.497243e+002, 2.381111e+003
4.502064e+002, 2.382898e+003
4.506885e+002, 2.384847e+003
4.511706e+002, 2.386883e+003
4.516527e+002, 2.388762e+003
4.521349e+002, 2.390424e+003
4.526170e+002, 2.392613e+003
4.530991e+002, 2.395897e+003
4.535812e+002, 2.400030e+003
4.540633e+002, 2.402677e+003
4.545454e+002, 2.403667e+003
4.550276e+002, 2.405151e+003
4.555097e+002, 2.409091e+003
4.559918e+002, 2.415114e+003
4.564739e+002, 2.421235e+003
4.569560e+002, 2.427209e+003
4.574381e+002, 2.433168e+003
4.579203e+002, 2.439305e+003
4.584024e+002, 2.445530e+003
4.588845e+002, 2.451797e+003
4.593666e+002, 2.457753e+003
4.598488e+002, 2.463782e+003
4.603309e+002, 2.470554e+003
4.608130e+002, 2.477931e+003
4.612951e+002, 2.484727e+003
4.617772e+002, 2.489386e+003
4.622593e+002, 2.493327e+003
4.627415e+002, 2.497938e+003
4.632236e+002, 2.504261e+003
4.637057e+002, 2.510042e+003
4.641878e+002, 2.514320e+003
4.646699e+002, 2.517435e+003
4.651520e+002, 2.520096e+003
4.656342e+002, 2.522281e+003
4.661163e+002, 2.524227e+003
4.665984e+002, 2.526035e+003
4.670805e+002, 2.527709e+003
4.675626e+002, 2.529219e+003
4.680447e+002, 2.530595e+003
4.685269e+002, 2.531758e+003
4.690090e+002, 2.532601e+003
4.694911e+002, 2.532750e+003
4.699732e+002, 2.533332e+003
4.704553e+002, 2.534728e+003
4.709374e+002, 2.536364e+003
4.714196e+002, 2.537165e+003
4.719017e+002, 2.537299e+003
4.723838e+002, 2.535891e+003
4.728659e+002, 2.532359e+003
4.733480e+002, 2.526839e+003
4.738301e+002, 2.520867e+003
4.743123e+002, 2.514406e+003
4.747944e+002, 2.507683e+003
4.752765e+002, 2.501099e+003
4.757586e+002, 2.494517e+003
4.762407e+002, 2.487008e+003
4.767228e+002, 2.477916e+003
4.772050e+002, 2.468927e+003
4.776871e+002, 2.462921e+003
4.781692e+002, 2.459088e+003
4.786513e+002, 2.454970e+003
4.791334e+002, 2.448716e+003
4.796155e+002, 2.441881e+003
4.800977e+002, 2.435643e+003
4.805798e+002, 2.430061e+003
4.810619e+002, 2.425622e+003
4.815440e+002, 2.423250e+003
4.820261e+002, 2.421864e+003
4.825082e+002, 2.420497e+003
4.829904e+002, 2.418943e+003
4.834725e+002, 2.417384e+003
4.839546e+002, 2.416242e+003
4.844367e+002, 2.415127e+003
4.849188e+002, 2.413228e+003
4.854009e+002, 2.408348e+003
4.858831e+002, 2.404836e+003
4.863652e+002, 2.404817e+003
4.868473e+002, 2.408751e+003
4.873294e+002, 2.409278e+003
4.878115e+002, 2.403848e+003
4.882936e+002, 2.398014e+003
4.887758e+002, 2.396148e+003
4.892579e+002, 2.399883e+003
4.897400e+002, 2.401572e+003
4.902221e+002, 2.399985e+003
4.907042e+002, 2.396876e+003
4.911863e+002, 2.395748e+003
4.916685e+002, 2.396681e+003
4.921506e+002, 2.397870e+003
4.926327e+002, 2.398532e+003
4.931148e+002, 2.398888e+003
4.935969e+002, 2.399640e+003
4.940790e+002, 2.400785e+003
4.945612e+002, 2.402184e+003
4.950433e+002, 2.404014e+003
4.955254e+002, 2.405958e+003
4.960075e+002, 2.407369e+003
4.964896e+002, 2.407945e+003
4.969717e+002, 2.408492e+003
4.974539e+002, 2.409359e+003
4.979360e+002, 2.410712e+003
4.984181e+002, 2.412830e+003
4.989002e+002, 2.417249e+003
4.993823e+002, 2.421225e+003
4.998644e+002, 2.423298e+003
5.003466e+002, 2.423541e+003
5.008287e+002, 2.422881e+003
5.013108e+002, 2.420203e+003
5.017929e+002, 2.417747e+003
5.022750e+002, 2.416919e+003
5.027571e+002, 2.418996e+003
5.032393e+002, 2.420495e+003
5.037214e+002, 2.421067e+003
5.042035e+002, 2.421175e+003
5.046856e+002, 2.421363e+003
5.051677e+002, 2.421453e+003
5.056498e+002, 2.422017e+003
5.061320e+002, 2.423136e+003
5.066141e+002, 2.424821e+003
5.070962e+002, 2.427424e+003
5.075783e+002, 2.431326e+003
5.080604e+002, 2.434463e+003
5.085425e+002, 2.434872e+003
5.090247e+002, 2.432922e+003
5.095068e+002, 2.432708e+003
5.099889e+002, 2.434584e+003
5.104710e+002, 2.437020e+003
5.109531e+002, 2.438186e+003
5.114352e+002, 2.438491e+003
5.119174e+002, 2.439240e+003
5.123995e+002, 2.441470e+003
5.128816e+002, 2.443498e+003
5.133637e+002, 2.443087e+003
5.138458e+002, 2.440904e+003
5.143279e+002, 2.439052e+003
5.148101e+002, 2.438002e+003
5.152922e+002, 2.438214e+003
5.157743e+002, 2.440524e+003
5.162564e+002, 2.445225e+003
5.167385e+002, 2.449548e+003
5.172206e+002, 2.452849e+003
5.177028e+002, 2.455173e+003
5.181849e+002, 2.456532e+003
5.186670e+002, 2.454541e+003
5.191491e+002, 2.454543e+003
5.196312e+002, 2.458004e+003
5.201133e+002, 2.463373e+003
5.205955e+002, 2.467390e+003
5.210776e+002, 2.469292e+003
5.215597e+002, 2.471099e+003
5.220418e+002, 2.473390e+003
5.225239e+002, 2.476117e+003
5.230060e+002, 2.478651e+003
5.234882e+002, 2.480986e+003
5.239703e+002, 2.483028e+003
5.244524e+002, 2.484761e+003
5.249345e+002, 2.486138e+003
5.254166e+002, 2.486947e+003
5.258987e+002, 2.487152e+003
5.263809e+002, 2.486810e+003
5.268630e+002, 2.485819e+003
5.273451e+002, 2.484318e+003
5.278272e+002, 2.482760e+003
5.283093e+002, 2.481288e+003
5.287914e+002, 2.479898e+003
5.292736e+002, 2.478717e+003
5.297557e+002, 2.477691e+003
5.302378e+002, 2.476524e+003
5.307199e+002, 2.474832e+003
5.312020e+002, 2.473177e+003
5.316841e+002, 2.472044e+003
5.321663e+002, 2.471615e+003
5.326484e+002, 2.471190e+003
5.331305e+002, 2.469748e+003
5.336126e+002, 2.468635e+003
5.340947e+002, 2.469128e+003
5.345768e+002, 2.473091e+003
5.350590e+002, 2.476272e+003
5.355411e+002, 2.478050e+003
5.360232e+002, 2.478854e+003
5.365053e+002, 2.479857e+003
5.369874e+002, 2.481110e+003
5.374695e+002, 2.482243e+003
5.379517e+002, 2.483109e+003
5.384338e+002, 2.483685e+003
5.389159e+002, 2.483589e+003
5.393980e+002, 2.482585e+003
5.398801e+002, 2.482209e+003
5.403622e+002, 2.484703e+003
5.408444e+002, 2.489139e+003
5.413265e+002, 2.491583e+003
5.418086e+002, 2.491222e+003
5.422907e+002, 2.490105e+003
5.427728e+002, 2.490734e+003
5.432549e+002, 2.492408e+003
5.437371e+002, 2.493574e+003
5.442192e+002, 2.492684e+003
5.447013e+002, 2.491895e+003
5.451834e+002, 2.493098e+003
5.456655e+002, 2.495842e+003
5.461476e+002, 2.498183e+003
5.466298e+002, 2.498958e+003
5.471119e+002, 2.499469e+003
5.475940e+002, 2.500400e+003
5.480761e+002, 2.501915e+003
5.485582e+002, 2.503443e+003
5.490403e+002, 2.504915e+003
5.495225e+002, 2.506378e+003
5.500046e+002, 2.507775e+003
5.504867e+002, 2.508690e+003
5.509688e+002, 2.510423e+003
5.514509e+002, 2.513392e+003
5.519330e+002, 2.516946e+003
5.524152e+002, 2.519665e+003
5.528973e+002, 2.521483e+003
5.533794e+002, 2.522871e+003
5.538615e+002, 2.523958e+003
5.543436e+002, 2.524740e+003
5.548257e+002, 2.525006e+003
5.553079e+002, 2.524776e+003
5.557900e+002, 2.524853e+003
5.562721e+002, 2.526195e+003
5.567542e+002, 2.528151e+003
5.572363e+002, 2.529807e+003
5.577184e+002, 2.531134e+003
5.582006e+002, 2.531696e+003
5.586827e+002, 2.529906e+003
5.591648e+002, 2.527613e+003
5.596469e+002, 2.527129e+003
5.601290e+002, 2.531352e+003
5.606111e+002, 2.535196e+003
5.610933e+002, 2.536696e+003
5.615754e+002, 2.536555e+003
5.620575e+002, 2.536676e+003
5.625396e+002, 2.537614e+003
5.630217e+002, 2.538513e+003
5.635038e+002, 2.539264e+003
5.639860e+002, 2.539876e+003
5.644681e+002, 2.539676e+003
5.649502e+002, 2.538087e+003
5.654323e+002, 2.536751e+003
5.659144e+002, 2.536989e+003
5.663965e+002, 2.538902e+003
5.668787e+002, 2.540771e+003
5.673608e+002, 2.542484e+003
5.678429e+002, 2.544130e+003
5.683250e+002, 2.545906e+003
5.688071e+002, 2.547735e+003
5.692892e+002, 2.549208e+003
5.697714e+002, 2.550220e+003
5.702535e+002, 2.550775e+003
5.707356e+002, 2.550288e+003
5.712177e+002, 2.549193e+003
5.716998e+002, 2.548964e+003
5.721819e+002, 2.550906e+003
5.726641e+002, 2.553520e+003
5.731462e+002, 2.555950e+003
5.736283e+002, 2.558146e+003
5.741104e+002, 2.559897e+003
5.745925e+002, 2.561177e+003
5.750746e+002, 2.561982e+003
5.755568e+002, 2.562212e+003
5.760389e+002, 2.560717e+003
5.765210e+002, 2.560890e+003
5.770031e+002, 2.564140e+003
5.774852e+002, 2.568080e+003
5.779673e+002, 2.569298e+003
5.784495e+002, 2.566970e+003
5.789316e+002, 2.564917e+003
5.794137e+002, 2.563585e+003
5.798958e+002, 2.563338e+003
5.803779e+002, 2.565921e+003
5.808600e+002, 2.571303e+003
5.813422e+002, 2.575886e+003
5.818243e+002, 2.576844e+003
5.823064e+002, 2.575838e+003
5.827885e+002, 2.576086e+003
5.832706e+002, 2.577612e+003
5.837527e+002, 2.580287e+003
5.842349e+002, 2.585594e+003
5.847170e+002, 2.591165e+003
5.851991e+002, 2.594257e+003
5.856812e+002, 2.593734e+003
5.861633e+002, 2.592768e+003
5.866454e+002, 2.591654e+003
5.871276e+002, 2.591207e+003
5.876097e+002, 2.592437e+003
5.880918e+002, 2.597394e+003
5.885739e+002, 2.601824e+003
5.890560e+002, 2.605239e+003
5.895381e+002, 2.607820e+003
5.900203e+002, 2.609929e+003
5.905024e+002, 2.611312e+003
5.909845e+002, 2.612997e+003
5.914666e+002, 2.615470e+003
5.919487e+002, 2.618662e+003
5.924308e+002, 2.621573e+003
5.929130e+002, 2.624171e+003
5.933951e+002, 2.626943e+003
5.938772e+002, 2.630000e+003
5.943593e+002, 2.633500e+003
5.948414e+002, 2.638024e+003
5.953235e+002, 2.643643e+003
5.958057e+002, 2.649676e+003
5.962878e+002, 2.655784e+003
5.967699e+002, 2.661781e+003
5.972520e+002, 2.667234e+003
5.977341e+002, 2.671266e+003
5.982162e+002, 2.675847e+003
5.986984e+002, 2.682584e+003
5.991805e+002, 2.690448e+003
5.996626e+002, 2.697542e+003
6.001447e+002, 2.703244e+003
6.006268e+002, 2.708403e+003
6.011089e+002, 2.713448e+003
6.015911e+002, 2.718316e+003
6.020732e+002, 2.721691e+003
6.025553e+002, 2.722797e+003
6.030374e+002, 2.723855e+003
6.035195e+002, 2.726067e+003
6.040016e+002, 2.729485e+003
6.044838e+002, 2.733001e+003
6.049659e+002, 2.736710e+003
6.054480e+002, 2.739981e+003
6.059301e+002, 2.742219e+003
6.064122e+002, 2.743460e+003
6.068943e+002, 2.743666e+003
6.073765e+002, 2.742514e+003
6.078586e+002, 2.741288e+003
6.083407e+002, 2.741661e+003
6.088228e+002, 2.742844e+003
6.093049e+002, 2.743398e+003
6.097870e+002, 2.742507e+003
6.102692e+002, 2.741071e+003
6.107513e+002, 2.739428e+003
6.112334e+002, 2.737550e+003
6.117155e+002, 2.735364e+003
6.121976e+002, 2.732911e+003
6.126797e+002, 2.729983e+003
6.131619e+002, 2.726277e+003
6.136440e+002, 2.721673e+003
6.141261e+002, 2.718006e+003
6.146082e+002, 2.715735e+003
6.150903e+002, 2.713438e+003
6.155724e+002, 2.709956e+003
6.160546e+002, 2.705277e+003
6.165367e+002, 2.701039e+003
6.170188e+002, 2.697435e+003
6.175009e+002, 2.693867e+003
6.179830e+002, 2.689364e+003
6.184651e+002, 2.684334e+003
6.189473e+002, 2.680059e+003
6.194294e+002, 2.677284e+003
6.199115e+002, 2.674582e+003
6.203936e+002, 2.670077e+003
6.208757e+002, 2.664731e+003
6.213578e+002, 2.660429e+003
6.218400e+002, 2.658954e+003
6.223221e+002, 2.657693e+003
6.228042e+002, 2.655610e+003
6.232863e+002, 2.652775e+003
6.237684e+002, 2.649848e+003
6.242505e+002, 2.645306e+003
6.247327e+002, 2.642442e+003
6.252148e+002, 2.643284e+003
6.256969e+002, 2.648403e+003
6.261790e+002, 2.649746e+003
6.266611e+002, 2.646183e+003
6.271432e+002, 2.641668e+003
6.276254e+002, 2.639575e+003
6.281075e+002, 2.639642e+003
6.285896e+002, 2.638639e+003
6.290717e+002, 2.636084e+003
6.295538e+002, 2.633703e+003
6.300359e+002, 2.634485e+003
6.305181e+002, 2.636847e+003
6.310002e+002, 2.637262e+003
6.314823e+002, 2.633544e+003
6.319644e+002, 2.629660e+003
6.324465e+002, 2.627905e+003
6.329286e+002, 2.628056e+003
6.334108e+002, 2.629650e+003
6.338929e+002, 2.635040e+003
6.343750e+002, 2.639226e+003
6.348571e+002, 2.639772e+003
6.353392e+002, 2.637235e+003
6.358214e+002, 2.636219e+003
6.363035e+002, 2.637452e+003
6.367856e+002, 2.638781e+003
6.372677e+002, 2.639151e+003
6.377498e+002, 2.638499e+003
6.382319e+002, 2.638699e+003
6.387141e+002, 2.639953e+003
6.391962e+002, 2.640748e+003
6.396783e+002, 2.639152e+003
6.401604e+002, 2.636059e+003
6.406425e+002, 2.634711e+003
6.411246e+002, 2.635661e+003
6.416068e+002, 2.637228e+003
6.420889e+002, 2.638719e+003
6.425710e+002, 2.639687e+003
6.430531e+002, 2.639322e+003
6.435352e+002, 2.636361e+003
6.440173e+002, 2.633928e+003
6.444995e+002, 2.633562e+003
6.449816e+002, 2.634526e+003
6.454637e+002, 2.635504e+003
6.459458e+002, 2.636289e+003
6.464279e+002, 2.636969e+003
6.469100e+002, 2.637424e+003
6.473922e+002, 2.637676e+003
6.478743e+002, 2.637937e+003
6.483564e+002, 2.638117e+003
6.488385e+002, 2.638260e+003
6.493206e+002, 2.638146e+003
6.498027e+002, 2.637951e+003
6.502849e+002, 2.638892e+003
6.507670e+002, 2.640947e+003
6.512491e+002, 2.643016e+003
6.517312e+002, 2.644785e+003
6.522133e+002, 2.645894e+003
6.526954e+002, 2.645632e+003
6.531776e+002, 2.643884e+003
6.536597e+002, 2.641868e+003
6.541418e+002, 2.639327e+003
6.546239e+002, 2.637406e+003
6.551060e+002, 2.637282e+003
6.555881e+002, 2.640670e+003
6.560703e+002, 2.643093e+003
6.565524e+002, 2.642662e+003
6.570345e+002, 2.641551e+003
6.575166e+002, 2.642535e+003
6.579987e+002, 2.646871e+003
6.584808e+002, 2.649554e+003
6.589630e+002, 2.649479e+003
6.594451e+002, 2.647673e+003
6.599272e+002, 2.646208e+003
6.604093e+002, 2.645092e+003
6.608914e+002, 2.644578e+003
6.613735e+002, 2.645412e+003
6.618557e+002, 2.646471e+003
6.623378e+002, 2.645617e+003
6.628199e+002, 2.643302e+003
6.633020e+002, 2.641283e+003
6.637841e+002, 2.640831e+003
6.642662e+002, 2.640942e+003
6.647484e+002, 2.640759e+003
6.652305e+002, 2.640276e+003
6.657126e+002, 2.640714e+003
6.661947e+002, 2.642632e+003
6.666768e+002, 2.645354e+003
6.671589e+002, 2.648685e+003
6.676411e+002, 2.653014e+003
6.681232e+002, 2.655854e+003
6.686053e+002, 2.656541e+003
6.690874e+002, 2.656540e+003
6.695695e+002, 2.656959e+003
6.700516e+002, 2.657717e+003
6.705338e+002, 2.659387e+003
6.710159e+002, 2.662304e+003
6.714980e+002, 2.664775e+003
6.719801e+002, 2.664162e+003
6.724622e+002, 2.661503e+003
6.729443e+002, 2.659192e+003
6.734265e+002, 2.658151e+003
6.739086e+002, 2.657464e+003
6.743907e+002, 2.657260e+003
6.748728e+002, 2.657006e+003
6.753549e+002, 2.655636e+003
6.758370e+002, 2.651687e+003
6.763192e+002, 2.648151e+003
6.768013e+002, 2.645958e+003
6.772834e+002, 2.644960e+003
6.777655e+002, 2.644656e+003
6.782476e+002, 2.645301e+003
6.787297e+002, 2.646211e+003
6.792119e+002, 2.647331e+003
6.796940e+002, 2.648490e+003
6.801761e+002, 2.648067e+003
6.806582e+002, 2.645926e+003
6.811403e+002, 2.644983e+003
6.816224e+002, 2.648021e+003
6.821046e+002, 2.653196e+003
6.825867e+002, 2.657897e+003
6.830688e+002, 2.661914e+003
6.835509e+002, 2.664010e+003
6.840330e+002, 2.660937e+003
6.845151e+002, 2.657092e+003
6.849973e+002, 2.656332e+003
6.854794e+002, 2.660223e+003
6.859615e+002, 2.664206e+003
6.864436e+002, 2.668964e+003
6.869257e+002, 2.672679e+003
6.874078e+002, 2.673663e+003
6.878900e+002, 2.670886e+003
6.883721e+002, 2.668439e+003
6.888542e+002, 2.666479e+003
6.893363e+002, 2.665340e+003
6.898184e+002, 2.666344e+003
6.903005e+002, 2.669131e+003
6.907827e+002, 2.670208e+003
6.912648e+002, 2.667991e+003
6.917469e+002, 2.664921e+003
6.922290e+002, 2.664263e+003
6.927111e+002, 2.665156e+003
6.931932e+002, 2.665725e+003
6.936754e+002, 2.663876e+003
6.941575e+002, 2.662693e+003
6.946396e+002, 2.664570e+003
6.951217e+002, 2.668498e+003
6.956038e+002, 2.670796e+003
6.960859e+002, 2.669943e+003
6.965681e+002, 2.668410e+003
6.970502e+002, 2.666398e+003
6.975323e+002, 2.664094e+003
6.980144e+002, 2.663563e+003
6.984965e+002, 2.665297e+003
6.989786e+002, 2.666803e+003
6.994608e+002, 2.666210e+003
6.999429e+002, 2.664226e+003
7.004250e+002, 2.663845e+003
7.009071e+002, 2.665045e+003
7.013892e+002, 2.666271e+003
7.018713e+002, 2.666377e+003
7.023535e+002, 2.665887e+003
7.028356e+002, 2.665047e+003
7.033177e+002, 2.663718e+003
7.037998e+002, 2.663439e+003
7.042819e+002, 2.665387e+003
7.047640e+002, 2.668188e+003
7.052462e+002, 2.670793e+003
7.057283e+002, 2.672977e+003
7.062104e+002, 2.675094e+003
7.066925e+002, 2.677135e+003
7.071746e+002, 2.678961e+003
7.076567e+002, 2.680452e+003
7.081389e+002, 2.681555e+003
7.086210e+002, 2.682099e+003
7.091031e+002, 2.681910e+003
7.095852e+002, 2.681521e+003
7.100673e+002, 2.681300e+003
7.105494e+002, 2.681474e+003
7.110316e+002, 2.682735e+003
7.115137e+002, 2.686204e+003
7.119958e+002, 2.689484e+003
7.124779e+002, 2.691636e+003
7.129600e+002, 2.692503e+003
7.134421e+002, 2.691743e+003
7.139243e+002, 2.686696e+003
7.144064e+002, 2.683220e+003
7.148885e+002, 2.683658e+003
7.153706e+002, 2.686493e+003
7.158527e+002, 2.686540e+003
7.163348e+002, 2.682669e+003
7.168170e+002, 2.679994e+003
7.172991e+002, 2.680570e+003
7.177812e+002, 2.683451e+003
7.182633e+002, 2.685999e+003
7.187454e+002, 2.688171e+003
7.192275e+002, 2.689518e+003
7.197097e+002, 2.688855e+003
7.201918e+002, 2.687798e+003
7.206739e+002, 2.688526e+003
7.211560e+002, 2.690797e+003
7.216381e+002, 2.692348e+003
7.221202e+002, 2.691492e+003
7.226024e+002, 2.690184e+003
7.230845e+002, 2.689317e+003
7.235666e+002, 2.688937e+003
7.240487e+002, 2.689591e+003
7.245308e+002, 2.692158e+003
7.250129e+002, 2.694516e+003
7.254951e+002, 2.695362e+003
7.259772e+002, 2.694683e+003
7.264593e+002, 2.693571e+003
7.269414e+002, 2.691982e+003
7.274235e+002, 2.690460e+003
7.279056e+002, 2.688998e+003
7.283878e+002, 2.688087e+003
7.288699e+002, 2.688879e+003
7.293520e+002, 2.691719e+003
7.298341e+002, 2.694979e+003
7.303162e+002, 2.698381e+003
7.307983e+002, 2.701245e+003
7.312805e+002, 2.702849e+003
7.317626e+002, 2.701741e+003
7.322447e+002, 2.701735e+003
7.327268e+002, 2.703747e+003
7.332089e+002, 2.706374e+003
7.336910e+002, 2.707817e+003
7.341732e+002, 2.707552e+003
7.346553e+002, 2.708849e+003
7.351374e+002, 2.712450e+003
7.356195e+002, 2.716776e+003
7.361016e+002, 2.719462e+003
7.365837e+002, 2.720821e+003
7.370659e+002, 2.722079e+003
7.375480e+002, 2.723886e+003
7.380301e+002, 2.725083e+003
7.385122e+002, 2.723676e+003
7.389943e+002, 2.721144e+003
7.394764e+002, 2.720049e+003
7.399586e+002, 2.723645e+003
7.404407e+002, 2.725999e+003
7.409228e+002, 2.724860e+003
7.414049e+002, 2.721699e+003
7.418870e+002, 2.719591e+003
7.423691e+002, 2.718862e+003
7.428513e+002, 2.718604e+003
7.433334e+002, 2.718851e+003
7.438155e+002, 2.719294e+003
7.442976e+002, 2.718750e+003
7.447797e+002, 2.717406e+003
7.452618e+002, 2.716695e+003
7.457440e+002, 2.717997e+003
7.462261e+002, 2.719807e+003
7.467082e+002, 2.720426e+003
7.471903e+002, 2.720094e+003
7.476724e+002, 2.719762e+003
7.481545e+002, 2.719044e+003
7.486367e+002, 2.719090e+003
7.491188e+002, 2.720965e+003
7.496009e+002, 2.724440e+003
7.500830e+002, 2.726457e+003
7.505651e+002, 2.726592e+003
7.510472e+002, 2.726108e+003
7.515294e+002, 2.724955e+003
7.520115e+002, 2.723526e+003
7.524936e+002, 2.725436e+003
7.529757e+002, 2.730674e+003
7.534578e+002, 2.735090e+003
7.539399e+002, 2.734712e+003
7.544221e+002, 2.732285e+003
7.549042e+002, 2.731279e+003
7.553863e+002, 2.731828e+003
7.558684e+002, 2.733058e+003
7.563505e+002, 2.735193e+003
7.568326e+002, 2.737328e+003
7.573148e+002, 2.739014e+003
7.577969e+002, 2.740237e+003
7.582790e+002, 2.740359e+003
7.587611e+002, 2.738318e+003
7.592432e+002, 2.736756e+003
7.597253e+002, 2.737882e+003
7.602075e+002, 2.741697e+003
7.606896e+002, 2.743524e+003
7.611717e+002, 2.743212e+003
7.616538e+002, 2.742191e+003
7.621359e+002, 2.741131e+003
7.626180e+002, 2.740452e+003
7.631002e+002, 2.740972e+003
7.635823e+002, 2.742902e+003
7.640644e+002, 2.745242e+003
7.645465e+002, 2.748310e+003
7.650286e+002, 2.751129e+003
7.655107e+002, 2.752900e+003
7.659929e+002, 2.753487e+003
7.664750e+002, 2.753190e+003
7.669571e+002, 2.751821e+003
7.674392e+002, 2.749827e+003
7.679213e+002, 2.746994e+003
7.684034e+002, 2.743263e+003
7.688856e+002, 2.742167e+003
7.693677e+002, 2.744242e+003
7.698498e+002, 2.747336e+003
7.703319e+002, 2.749827e+003
7.708140e+002, 2.751563e+003
7.712961e+002, 2.752125e+003
7.717783e+002, 2.751063e+003
7.722604e+002, 2.750046e+003
7.727425e+002, 2.749919e+003
7.732246e+002, 2.750302e+003
7.737067e+002, 2.750810e+003
7.741888e+002, 2.751499e+003
7.746710e+002, 2.752210e+003
7.751531e+002, 2.753043e+003
7.756352e+002, 2.753838e+003
7.761173e+002, 2.754287e+003
7.765994e+002, 2.754410e+003
7.770815e+002, 2.755076e+003
7.775637e+002, 2.756584e+003
7.780458e+002, 2.758126e+003
7.785279e+002, 2.758575e+003
7.790100e+002, 2.758398e+003
7.794921e+002, 2.758302e+003
7.799742e+002, 2.757975e+003
7.804564e+002, 2.758785e+003
7.809385e+002, 2.762963e+003
7.814206e+002, 2.767984e+003
7.819027e+002, 2.770236e+003
7.823848e+002, 2.767207e+003
7.828669e+002, 2.765674e+003
7.833491e+002, 2.766546e+003
7.838312e+002, 2.768530e+003
7.843133e+002, 2.769453e+003
7.847954e+002, 2.769369e+003
7.852775e+002, 2.769929e+003
7.857596e+002, 2.771771e+003
7.862418e+002, 2.773634e+003
7.867239e+002, 2.773598e+003
7.872060e+002, 2.772555e+003
7.876881e+002, 2.772135e+003
7.881702e+002, 2.773316e+003
7.886523e+002, 2.774727e+003
7.891345e+002, 2.776306e+003
7.896166e+002, 2.777757e+003
7.900987e+002, 2.778526e+003
7.905808e+002, 2.778043e+003
7.910629e+002, 2.778405e+003
7.915450e+002, 2.780430e+003
7.920272e+002, 2.782818e+003
7.925093e+002, 2.782453e+003
7.929914e+002, 2.779789e+003
7.934735e+002, 2.778343e+003
7.939556e+002, 2.779275e+003
7.944377e+002, 2.781422e+003
7.949199e+002, 2.784084e+003
7.954020e+002, 2.786889e+003
7.958841e+002, 2.789109e+003
7.963662e+002, 2.789688e+003
7.968483e+002, 2.790462e+003
7.973304e+002, 2.791798e+003
7.978126e+002, 2.793516e+003
7.982947e+002, 2.795517e+003
7.987768e+002, 2.798234e+003
7.992589e+002, 2.799620e+003
7.997410e+002, 2.799086e+003
8.002231e+002, 2.797405e+003
8.007053e+002, 2.795579e+003
8.011874e+002, 2.793827e+003
8.016695e+002, 2.793076e+003
8.021516e+002, 2.794713e+003
8.026337e+002, 2.795948e+003
8.031158e+002, 2.793309e+003
8.035980e+002, 2.788958e+003
8.040801e+002, 2.786502e+003
8.045622e+002, 2.788642e+003
8.050443e+002, 2.790891e+003
8.055264e+002, 2.792958e+003
8.060085e+002, 2.794520e+003
8.064907e+002, 2.794616e+003
8.069728e+002, 2.792831e+003
8.074549e+002, 2.791931e+003
8.079370e+002, 2.792556e+003
8.084191e+002, 2.794050e+003
8.089012e+002, 2.795609e+003
8.093834e+002, 2.797127e+003
8.098655e+002, 2.798390e+003
8.103476e+002, 2.798867e+003
8.108297e+002, 2.799625e+003
8.113118e+002, 2.801512e+003
8.117939e+002, 2.804014e+003
8.122761e+002, 2.806292e+003
8.127582e+002, 2.808603e+003
8.132403e+002, 2.810145e+003
8.137224e+002, 2.810674e+003
8.142045e+002, 2.810616e+003
8.146866e+002, 2.810391e+003
8.151688e+002, 2.810059e+003
8.156509e+002, 2.811186e+003
8.161330e+002, 2.814815e+003
8.166151e+002, 2.818513e+003
8.170972e+002, 2.817710e+003
8.175793e+002, 2.814994e+003
8.180615e+002, 2.815305e+003
8.185436e+002, 2.824411e+003
8.190257e+002, 2.831233e+003
8.195078e+002, 2.830188e+003
8.199899e+002, 2.825174e+003
8.204720e+002, 2.822371e+003
8.209542e+002, 2.823032e+003
8.214363e+002, 2.822327e+003
8.219184e+002, 2.819012e+003
8.224005e+002, 2.815194e+003
8.228826e+002, 2.814630e+003
8.233647e+002, 2.816613e+003
8.238469e+002, 2.818086e+003
8.243290e+002, 2.818293e+003
8.248111e+002, 2.817928e+003
8.252932e+002, 2.817413e+003
8.257753e+002, 2.816827e+003
8.262574e+002, 2.816272e+003
8.267396e+002, 2.815129e+003
8.272217e+002, 2.815120e+003
8.277038e+002, 2.816848e+003
8.281859e+002, 2.819430e+003
8.286681e+002, 2.821811e+003
8.291502e+002, 2.823895e+003
8.296323e+002, 2.826584e+003
8.301144e+002, 2.830163e+003
8.305966e+002, 2.833515e+003
8.310787e+002, 2.835154e+003
8.315608e+002, 2.835566e+003
8.320429e+002, 2.835506e+003
8.325250e+002, 2.834526e+003
8.330071e+002, 2.834765e+003
8.334893e+002, 2.838592e+003
8.339714e+002, 2.843412e+003
8.344535e+002, 2.846548e+003
8.349356e+002, 2.847552e+003
8.354177e+002, 2.847687e+003
8.358998e+002, 2.846877e+003
8.363820e+002, 2.845523e+003
8.368641e+002, 2.843647e+003
8.373462e+002, 2.841534e+003
8.378283e+002, 2.840796e+003
8.383104e+002, 2.841763e+003
8.387925e+002, 2.843399e+003
8.392747e+002, 2.845285e+003
8.397568e+002, 2.847129e+003
8.402389e+002, 2.848559e+003
8.407210e+002, 2.849389e+003
8.412031e+002, 2.850072e+003
8.416852e+002, 2.850354e+003
8.421674e+002, 2.850633e+003
8.426495e+002, 2.851153e+003
8.431316e+002, 2.851900e+003
8.436137e+002, 2.852376e+003
8.440958e+002, 2.852535e+003
8.445779e+002, 2.852387e+003
8.450601e+002, 2.852061e+003
8.455422e+002, 2.851442e+003
8.460243e+002, 2.850059e+003
8.465064e+002, 2.847917e+003
8.469885e+002, 2.846331e+003
8.474706e+002, 2.847257e+003
8.479528e+002, 2.848121e+003
8.484349e+002, 2.846958e+003
8.489170e+002, 2.843420e+003
8.493991e+002, 2.841045e+003
8.498812e+002, 2.839843e+003
8.503633e+002, 2.839871e+003
8.508455e+002, 2.841693e+003
8.513276e+002, 2.844860e+003
8.518097e+002, 2.846684e+003
8.522918e+002, 2.847243e+003
8.527739e+002, 2.848031e+003
8.532560e+002, 2.850723e+003
8.537382e+002, 2.853410e+003
8.542203e+002, 2.854233e+003
8.547024e+002, 2.853238e+003
8.551845e+002, 2.852580e+003
8.556666e+002, 2.853690e+003
8.561487e+002, 2.853811e+003
8.566309e+002, 2.851382e+003
8.571130e+002, 2.847230e+003
8.575951e+002, 2.846266e+003
8.580772e+002, 2.848633e+003
8.585593e+002, 2.850470e+003
8.590414e+002, 2.849208e+003
8.595236e+002, 2.846940e+003
8.600057e+002, 2.846700e+003
8.604878e+002, 2.848058e+003
8.609699e+002, 2.849539e+003
8.614520e+002, 2.851375e+003
8.619341e+002, 2.852383e+003
8.624163e+002, 2.851130e+003
8.628984e+002, 2.848812e+003
8.633805e+002, 2.848848e+003
8.638626e+002, 2.852110e+003
8.643447e+002, 2.853961e+003
8.648268e+002, 2.852576e+003
8.653090e+002, 2.850083e+003
8.657911e+002, 2.851042e+003
8.662732e+002, 2.854260e+003
8.667553e+002, 2.856213e+003
8.672374e+002, 2.854422e+003
8.677195e+002, 2.852780e+003
8.682017e+002, 2.854095e+003
8.686838e+002, 2.856812e+003
8.691659e+002, 2.858412e+003
8.696480e+002, 2.858481e+003
8.701301e+002, 2.858047e+003
8.706122e+002, 2.857229e+003
8.710944e+002, 2.855954e+003
8.715765e+002, 2.853988e+003
8.720586e+002, 2.851449e+003
8.725407e+002, 2.848637e+003
8.730228e+002, 2.845367e+003
8.735049e+002, 2.843156e+003
8.739871e+002, 2.843923e+003
8.744692e+002, 2.846192e+003
8.749513e+002, 2.848429e+003
8.754334e+002, 2.850728e+003
8.759155e+002, 2.851985e+003
8.763976e+002, 2.851835e+003
8.768798e+002, 2.851055e+003
8.773619e+002, 2.849745e+003
8.778440e+002, 2.847829e+003
8.783261e+002, 2.848562e+003
8.788082e+002, 2.852274e+003
8.792903e+002, 2.855769e+003
8.797725e+002, 2.855260e+003
8.802546e+002, 2.853520e+003
8.807367e+002, 2.854510e+003
8.812188e+002, 2.858641e+003
8.817009e+002, 2.861690e+003
8.821830e+002, 2.860038e+003
8.826652e+002, 2.859132e+003
8.831473e+002, 2.862173e+003
8.836294e+002, 2.868957e+003
8.841115e+002, 2.872735e+003
8.845936e+002, 2.873207e+003
8.850757e+002, 2.872732e+003
8.855579e+002, 2.871559e+003
8.860400e+002, 2.870824e+003
8.865221e+002, 2.873543e+003
8.870042e+002, 2.878827e+003
8.874863e+002, 2.883126e+003
8.879684e+002, 2.883856e+003
8.884506e+002, 2.884101e+003
8.889327e+002, 2.885150e+003
8.894148e+002, 2.886768e+003
8.898969e+002, 2.888243e+003
8.903790e+002, 2.889769e+003
8.908611e+002, 2.890281e+003
8.913433e+002, 2.889053e+003
8.918254e+002, 2.887397e+003
8.923075e+002, 2.888091e+003
8.927896e+002, 2.890478e+003
8.932717e+002, 2.892543e+003
8.937538e+002, 2.893588e+003
8.942360e+002, 2.894219e+003
8.947181e+002, 2.894742e+003
8.952002e+002, 2.895094e+003
8.956823e+002, 2.895083e+003
8.961644e+002, 2.894144e+003
8.966465e+002, 2.894144e+003
8.971287e+002, 2.895157e+003
8.976108e+002, 2.897271e+003
8.980929e+002, 2.901544e+003
8.985750e+002, 2.907100e+003
8.990571e+002, 2.910342e+003
8.995392e+002, 2.910545e+003
9.000214e+002, 2.910141e+003
9.005035e+002, 2.910098e+003
9.009856e+002, 2.910764e+003
9.014677e+002, 2.912592e+003
9.019498e+002, 2.915992e+003
9.024319e+002, 2.919071e+003
9.029141e+002, 2.921894e+003
9.033962e+002, 2.924174e+003
9.038783e+002, 2.925781e+003
9.043604e+002, 2.926688e+003
9.048425e+002, 2.926502e+003
9.053246e+002, 2.925297e+003
9.058068e+002, 2.924480e+003
9.062889e+002, 2.925250e+003
9.067710e+002, 2.926603e+003
9.072531e+002, 2.928113e+003
9.077352e+002, 2.929657e+003
9.082173e+002, 2.930442e+003
9.086995e+002, 2.930482e+003
9.091816e+002, 2.929651e+003
9.096637e+002, 2.927519e+003
9.101458e+002, 2.924780e+003
9.106279e+002, 2.923642e+003
9.111100e+002, 2.923989e+003
9.115922e+002, 2.924734e+003
9.120743e+002, 2.925707e+003
9.125564e+002, 2.926542e+003
9.130385e+002, 2.927292e+003
9.135206e+002, 2.927566e+003
9.140027e+002, 2.926706e+003
9.144849e+002, 2.922494e+003
9.149670e+002, 2.920019e+003
9.154491e+002, 2.920035e+003
9.159312e+002, 2.921417e+003
9.164133e+002, 2.923080e+003
9.168954e+002, 2.924959e+003
9.173776e+002, 2.926106e+003
9.178597e+002, 2.926395e+003
9.183418e+002, 2.925918e+003
9.188239e+002, 2.923809e+003
9.193060e+002, 2.921490e+003
9.197881e+002, 2.920618e+003
9.202703e+002, 2.921688e+003
9.207524e+002, 2.922993e+003
9.212345e+002, 2.925358e+003
9.217166e+002, 2.926464e+003
9.221987e+002, 2.924452e+003
9.226808e+002, 2.919594e+003
9.231630e+002, 2.916899e+003
9.236451e+002, 2.916387e+003
9.241272e+002, 2.916141e+003
9.246093e+002, 2.914659e+003
9.250914e+002, 2.913061e+003
9.255735e+002, 2.912729e+003
9.260557e+002, 2.913408e+003
9.265378e+002, 2.913681e+003
9.270199e+002, 2.912954e+003
9.275020e+002, 2.911990e+003
9.279841e+002, 2.910550e+003
9.284662e+002, 2.909173e+003
9.289484e+002, 2.909624e+003
9.294305e+002, 2.911734e+003
9.299126e+002, 2.913113e+003
9.303947e+002, 2.912624e+003
9.308768e+002, 2.911874e+003
9.313589e+002, 2.913191e+003
9.318411e+002, 2.915112e+003
9.323232e+002, 2.915472e+003
9.328053e+002, 2.912359e+003
9.332874e+002, 2.909912e+003
9.337695e+002, 2.908315e+003
9.342516e+002, 2.907727e+003
9.347338e+002, 2.908816e+003
9.352159e+002, 2.911533e+003
9.356980e+002, 2.913117e+003
9.361801e+002, 2.913423e+003
9.366622e+002, 2.912827e+003
9.371443e+002, 2.910832e+003
9.376265e+002, 2.908635e+003
9.381086e+002, 2.907398e+003
9.385907e+002, 2.907206e+003
9.390728e+002, 2.907459e+003
9.395549e+002, 2.908064e+003
9.400370e+002, 2.908927e+003
9.405192e+002, 2.910008e+003
9.410013e+002, 2.911256e+003
9.414834e+002, 2.912818e+003
9.419655e+002, 2.914604e+003
9.424476e+002, 2.915609e+003
9.429297e+002, 2.914939e+003
9.434119e+002, 2.913781e+003
9.438940e+002, 2.913040e+003
9.443761e+002, 2.912656e+003
9.448582e+002, 2.912484e+003
9.453403e+002, 2.913266e+003
9.458224e+002, 2.913079e+003
9.463046e+002, 2.911020e+003
9.467867e+002, 2.909002e+003
9.472688e+002, 2.910682e+003
9.477509e+002, 2.915201e+003
9.482330e+002, 2.916923e+003
9.487151e+002, 2.914594e+003
9.491973e+002, 2.912234e+003
9.496794e+002, 2.913437e+003
9.501615e+002, 2.915848e+003
9.506436e+002, 2.917325e+003
9.511257e+002, 2.917294e+003
9.516078e+002, 2.917527e+003
9.520900e+002, 2.918228e+003
9.525721e+002, 2.918780e+003
9.530542e+002, 2.918608e+003
9.535363e+002, 2.918051e+003
9.540184e+002, 2.919031e+003
9.545005e+002, 2.921214e+003
9.549827e+002, 2.922405e+003
9.554648e+002, 2.920274e+003
9.559469e+002, 2.917906e+003
9.564290e+002, 2.916784e+003
9.569111e+002, 2.916966e+003
9.573932e+002, 2.918489e+003
9.578754e+002, 2.922211e+003
9.583575e+002, 2.924769e+003
9.588396e+002, 2.925127e+003
9.593217e+002, 2.924874e+003
9.598038e+002, 2.926531e+003
9.602859e+002, 2.929559e+003
9.607681e+002, 2.932688e+003
9.612502e+002, 2.935730e+003
9.617323e+002, 2.938309e+003
9.622144e+002, 2.939609e+003
9.626965e+002, 2.940770e+003
9.631786e+002, 2.942977e+003
9.636608e+002, 2.946634e+003
9.641429e+002, 2.948754e+003
9.646250e+002, 2.948964e+003
9.651071e+002, 2.949423e+003
9.655892e+002, 2.951956e+003
9.660714e+002, 2.955673e+003
9.665535e+002, 2.959313e+003
9.670356e+002, 2.962713e+003
9.675177e+002, 2.965341e+003
9.679998e+002, 2.965602e+003
9.684819e+002, 2.966523e+003
9.689641e+002, 2.969083e+003
9.694462e+002, 2.973136e+003
9.699283e+002, 2.979275e+003
9.704104e+002, 2.987937e+003
9.708925e+002, 2.993406e+003
9.713746e+002, 2.993679e+003
9.718568e+002, 2.992515e+003
9.723389e+002, 2.993677e+003
9.728210e+002, 2.996868e+003
9.733031e+002, 3.001851e+003
9.737852e+002, 3.009270e+003
9.742673e+002, 3.016486e+003
9.747495e+002, 3.023092e+003
9.752316e+002, 3.029326e+003
9.757137e+002, 3.035136e+003
9.761958e+002, 3.040549e+003
9.766779e+002, 3.047109e+003
9.771600e+002, 3.054799e+003
9.776422e+002, 3.061208e+003
9.781243e+002, 3.063498e+003
9.786064e+002, 3.064853e+003
9.790885e+002, 3.067979e+003
9.795706e+002, 3.072708e+003
9.800527e+002, 3.078020e+003
9.805349e+002, 3.084894e+003
9.810170e+002, 3.090374e+003
9.814991e+002, 3.093735e+003
9.819812e+002, 3.095728e+003
9.824633e+002, 3.097033e+003
9.829454e+002, 3.098148e+003
9.834276e+002, 3.101518e+003
9.839097e+002, 3.108737e+003
9.843918e+002, 3.115122e+003
9.848739e+002, 3.116536e+003
9.853560e+002, 3.116234e+003
9.858381e+002, 3.117382e+003
9.863203e+002, 3.120430e+003
9.868024e+002, 3.123868e+003
9.872845e+002, 3.128040e+003
9.877666e+002, 3.131423e+003
9.882487e+002, 3.132461e+003
9.887308e+002, 3.132086e+003
9.892130e+002, 3.132447e+003
9.896951e+002, 3.133406e+003
9.901772e+002, 3.134142e+003
9.906593e+002, 3.133965e+003
9.911414e+002, 3.133821e+003
9.916235e+002, 3.134423e+003
9.921057e+002, 3.135158e+003
9.925878e+002, 3.134524e+003
9.930699e+002, 3.132337e+003
9.935520e+002, 3.130695e+003
9.940341e+002, 3.130205e+003
9.945162e+002, 3.129538e+003
9.949984e+002, 3.127582e+003
9.954805e+002, 3.124244e+003
9.959626e+002, 3.118761e+003
9.964447e+002, 3.109698e+003
9.969268e+002, 3.103938e+003
9.974089e+002, 3.105094e+003
9.978911e+002, 3.106151e+003
9.983732e+002, 3.103082e+003
9.988553e+002, 3.096450e+003
9.993374e+002, 3.089674e+003
9.998195e+002, 3.082887e+003
1.000302e+003, 3.076963e+003
1.000784e+003, 3.072871e+003
1.001266e+003, 3.069354e+003
1.001748e+003, 3.065475e+003
1.002230e+003, 3.061484e+003
1.002712e+003, 3.058079e+003
1.003194e+003, 3.055306e+003
1.003676e+003, 3.053090e+003
1.004159e+003, 3.051479e+003
1.004641e+003, 3.050185e+003
1.005123e+003, 3.048927e+003
1.005605e+003, 3.047603e+003
1.006087e+003, 3.045827e+003
1.006569e+003, 3.043397e+003
1.007051e+003, 3.041478e+003
1.007533e+003, 3.040170e+003
1.008016e+003, 3.039965e+003
1.008498e+003, 3.041585e+003
1.008980e+003, 3.044806e+003
1.009462e+003, 3.045964e+003
1.009944e+003, 3.044974e+003
1.010426e+003, 3.043328e+003
1.010908e+003, 3.041358e+003
1.011390e+003, 3.039633e+003
1.011872e+003, 3.038869e+003
1.012355e+003, 3.038888e+003
1.012837e+003, 3.039281e+003
1.013319e+003, 3.040208e+003
1.013801e+003, 3.041200e+003
1.014283e+003, 3.042132e+003
1.014765e+003, 3.043296e+003
1.015247e+003, 3.045033e+003
1.015729e+003, 3.047323e+003
1.016211e+003, 3.049995e+003
1.016694e+003, 3.053038e+003
1.017176e+003, 3.056181e+003
1.017658e+003, 3.058522e+003
1.018140e+003, 3.061519e+003
1.018622e+003, 3.067032e+003
1.019104e+003, 3.074568e+003
1.019586e+003, 3.079330e+003
1.020068e+003, 3.080374e+003
1.020551e+003, 3.082563e+003
1.021033e+003, 3.087682e+003
1.021515e+003, 3.094258e+003
1.021997e+003, 3.099656e+003
1.022479e+003, 3.104706e+003
1.022961e+003, 3.111181e+003
1.023443e+003, 3.120934e+003
1.023925e+003, 3.129098e+003
1.024407e+003, 3.133161e+003
1.024890e+003, 3.136542e+003
1.025372e+003, 3.141923e+003
1.025854e+003, 3.149250e+003
1.026336e+003, 3.155364e+003
1.026818e+003, 3.160270e+003
1.027300e+003, 3.163893e+003
1.027782e+003, 3.165734e+003
1.028264e+003, 3.166750e+003
1.028746e+003, 3.168015e+003
1.029229e+003, 3.169144e+003
1.029711e+003, 3.168536e+003
1.030193e+003, 3.165492e+003
1.030675e+003, 3.162274e+003
1.031157e+003, 3.158854e+003
1.031639e+003, 3.156320e+003
1.032121e+003, 3.157217e+003
1.032603e+003, 3.159972e+003
1.033086e+003, 3.161191e+003
1.033568e+003, 3.160347e+003
1.034050e+003, 3.157599e+003
1.034532e+003, 3.150813e+003
1.035014e+003, 3.144262e+003
1.035496e+003, 3.140464e+003
1.035978e+003, 3.139135e+003
1.036460e+003, 3.136922e+003
1.036943e+003, 3.133871e+003
1.037425e+003, 3.131084e+003
1.037907e+003, 3.129243e+003
1.038389e+003, 3.127781e+003
1.038871e+003, 3.126555e+003
1.039353e+003, 3.125259e+003
1.039835e+003, 3.123323e+003
1.040317e+003, 3.120100e+003
1.040799e+003, 3.117459e+003
1.041281e+003, 3.115801e+003
1.041764e+003, 3.113853e+003
1.042246e+003, 3.109769e+003
1.042728e+003, 3.104490e+003
1.043210e+003, 3.100634e+003
1.043692e+003, 3.098230e+003
1.044174e+003, 3.096296e+003
1.044656e+003, 3.095542e+003
1.045138e+003, 3.093696e+003
1.045621e+003, 3.089128e+003
1.046103e+003, 3.083048e+003
1.046585e+003, 3.078662e+003
1.047067e+003, 3.076033e+003
1.047549e+003, 3.074123e+003
1.048031e+003, 3.072936e+003
1.048513e+003, 3.071715e+003
1.048995e+003, 3.069146e+003
1.049478e+003, 3.066495e+003
1.049960e+003, 3.065495e+003
1.050442e+003, 3.067320e+003
1.050924e+003, 3.067080e+003
1.051406e+003, 3.063830e+003
1.051888e+003, 3.060597e+003
1.052370e+003, 3.058816e+003
1.052852e+003, 3.058303e+003
1.053334e+003, 3.059276e+003
1.053817e+003, 3.061174e+003
1.054299e+003, 3.062228e+003
1.054781e+003, 3.060203e+003
1.055263e+003, 3.058883e+003
1.055745e+003, 3.060405e+003
1.056227e+003, 3.062316e+003
1.056709e+003, 3.061671e+003
1.057191e+003, 3.058416e+003
1.057673e+003, 3.055155e+003
1.058156e+003, 3.052042e+003
1.058638e+003, 3.049776e+003
1.059120e+003, 3.050144e+003
1.059602e+003, 3.050635e+003
1.060084e+003, 3.048732e+003
1.060566e+003, 3.044677e+003
1.061048e+003, 3.041984e+003
1.061530e+003, 3.041290e+003
1.062013e+003, 3.040634e+003
1.062495e+003, 3.039631e+003
1.062977e+003, 3.038304e+003
1.063459e+003, 3.036202e+003
1.063941e+003, 3.033909e+003
1.064423e+003, 3.032699e+003
1.064905e+003, 3.033324e+003
1.065387e+003, 3.033221e+003
1.065870e+003, 3.030241e+003
1.066352e+003, 3.027692e+003
1.066834e+003, 3.027323e+003
1.067316e+003, 3.028857e+003
1.067798e+003, 3.030767e+003
1.068280e+003, 3.032909e+003
1.068762e+003, 3.034211e+003
1.069244e+003, 3.033225e+003
1.069726e+003, 3.032142e+003
1.070208e+003, 3.032776e+003
1.070691e+003, 3.034069e+003
1.071173e+003, 3.034161e+003
1.071655e+003, 3.032313e+003
1.072137e+003, 3.032160e+003
1.072619e+003, 3.034152e+003
1.073101e+003, 3.036483e+003
1.073583e+003, 3.037649e+003
1.074065e+003, 3.038087e+003
1.074548e+003, 3.038287e+003
1.075030e+003, 3.038294e+003
1.075512e+003, 3.038147e+003
1.075994e+003, 3.037610e+003
1.076476e+003, 3.037374e+003
1.076958e+003, 3.037872e+003
1.077440e+003, 3.038351e+003
1.077922e+003, 3.036060e+003
1.078405e+003, 3.032550e+003
1.078887e+003, 3.033938e+003
1.079369e+003, 3.042589e+003
1.079851e+003, 3.048899e+003
1.080333e+003, 3.045935e+003
1.080815e+003, 3.040472e+003
1.081297e+003, 3.036305e+003
1.081779e+003, 3.033490e+003
1.082261e+003, 3.033078e+003
1.082744e+003, 3.035037e+003
1.083226e+003, 3.037579e+003
1.083708e+003, 3.040435e+003
1.084190e+003, 3.042688e+003
1.084672e+003, 3.043093e+003
1.085154e+003, 3.042463e+003
1.085636e+003, 3.041946e+003
1.086118e+003, 3.041289e+003
1.086601e+003, 3.042000e+003
1.087083e+003, 3.044687e+003
1.087565e+003, 3.046617e+003
1.088047e+003, 3.044523e+003
1.088529e+003, 3.040817e+003
1.089011e+003, 3.040157e+003
1.089493e+003, 3.041890e+003
1.089975e+003, 3.042801e+003
1.090458e+003, 3.041077e+003
1.090940e+003, 3.039308e+003
1.091422e+003, 3.037720e+003
1.091904e+003, 3.036702e+003
1.092386e+003, 3.037119e+003
1.092868e+003, 3.038655e+003
1.093350e+003, 3.039921e+003
1.093832e+003, 3.040720e+003
1.094314e+003, 3.041521e+003
1.094797e+003, 3.042113e+003
1.095279e+003, 3.043234e+003
1.095761e+003, 3.045421e+003
1.096243e+003, 3.048431e+003
1.096725e+003, 3.051446e+003
1.097207e+003, 3.054423e+003
1.097689e+003, 3.058899e+003
1.098171e+003, 3.066446e+003
1.098653e+003, 3.072414e+003
1.099136e+003, 3.070259e+003
1.099618e+003, 3.065084e+003
1.100100e+003, 3.062797e+003
1.100582e+003, 3.064897e+003
1.101064e+003, 3.066114e+003
1.101546e+003, 3.066195e+003
1.102028e+003, 3.066155e+003
1.102510e+003, 3.066313e+003
1.102993e+003, 3.066865e+003
1.103475e+003, 3.069093e+003
1.103957e+003, 3.071903e+003
1.104439e+003, 3.072806e+003
1.104921e+003, 3.068909e+003
1.105403e+003, 3.066135e+003
1.105885e+003, 3.065651e+003
1.106367e+003, 3.065485e+003
1.106849e+003, 3.063509e+003
1.107332e+003, 3.060322e+003
1.107814e+003, 3.058310e+003
1.108296e+003, 3.057457e+003
1.108778e+003, 3.056850e+003
1.109260e+003, 3.056633e+003
1.109742e+003, 3.055902e+003
1.110224e+003, 3.053698e+003
1.110706e+003, 3.051193e+003
1.111188e+003, 3.051003e+003
1.111671e+003, 3.052999e+003
1.112153e+003, 3.051299e+003
1.112635e+003, 3.044665e+003
1.113117e+003, 3.039748e+003
1.113599e+003, 3.044305e+003
1.114081e+003, 3.050901e+003
1.114563e+003, 3.052975e+003
1.115045e+003, 3.051040e+003
1.115528e+003, 3.051650e+003
1.116010e+003, 3.055145e+003
1.116492e+003, 3.058840e+003
1.116974e+003, 3.061804e+003
1.117456e+003, 3.064768e+003
1.117938e+003, 3.070047e+003
1.118420e+003, 3.075073e+003
1.118902e+003, 3.075719e+003
1.119385e+003, 3.069216e+003
1.119867e+003, 3.067234e+003
1.120349e+003, 3.072035e+003
1.120831e+003, 3.075989e+003
1.121313e+003, 3.074361e+003
1.121795e+003, 3.069969e+003
1.122277e+003, 3.069409e+003
1.122759e+003, 3.070982e+003
1.123241e+003, 3.070547e+003
1.123724e+003, 3.064617e+003
1.124206e+003, 3.060359e+003
1.124688e+003, 3.059609e+003
1.125170e+003, 3.059882e+003
1.125652e+003, 3.059860e+003
1.126134e+003, 3.059332e+003
1.126616e+003, 3.055874e+003
1.127098e+003, 3.050127e+003
1.127580e+003, 3.045728e+003
1.128063e+003, 3.045468e+003
1.128545e+003, 3.046003e+003
1.129027e+003, 3.045870e+003
1.129509e+003, 3.045824e+003
1.129991e+003, 3.046885e+003
1.130473e+003, 3.048991e+003
1.130955e+003, 3.051757e+003
1.131437e+003, 3.055118e+003
1.131920e+003, 3.058112e+003
1.132402e+003, 3.059521e+003
1.132884e+003, 3.060708e+003
1.133366e+003, 3.062651e+003
1.133848e+003, 3.065136e+003
1.134330e+003, 3.067690e+003
1.134812e+003, 3.070487e+003
1.135294e+003, 3.071495e+003
1.135776e+003, 3.069931e+003
1.136259e+003, 3.068228e+003
1.136741e+003, 3.069289e+003
1.137223e+003, 3.071252e+003
1.137705e+003, 3.071921e+003
1.138187e+003, 3.070981e+003
1.138669e+003, 3.071940e+003
1.139151e+003, 3.075681e+003
1.139633e+003, 3.078232e+003
1.140115e+003, 3.077963e+003
1.140598e+003, 3.076378e+003
1.141080e+003, 3.075214e+003
1.141562e+003, 3.074445e+003
1.142044e+003, 3.074083e+003
1.142526e+003, 3.074352e+003
1.143008e+003, 3.074271e+003
1.143490e+003, 3.073470e+003
1.143972e+003, 3.073100e+003
1.144455e+003, 3.074114e+003
1.144937e+003, 3.075766e+003
1.145419e+003, 3.074931e+003
1.145901e+003, 3.073332e+003
1.146383e+003, 3.075579e+003
1.146865e+003, 3.088743e+003
1.147347e+003, 3.096631e+003
1.147829e+003, 3.094910e+003
1.148312e+003, 3.090714e+003
1.148794e+003, 3.089978e+003
1.149276e+003, 3.091670e+003
1.149758e+003, 3.090311e+003
1.150240e+003, 3.086450e+003
1.150722e+003, 3.083198e+003
1.151204e+003, 3.082328e+003
1.151686e+003, 3.082072e+003
1.152168e+003, 3.081538e+003
1.152651e+003, 3.081584e+003
1.153133e+003, 3.084308e+003
1.153615e+003, 3.089138e+003
1.154097e+003, 3.089182e+003
1.154579e+003, 3.084193e+003
1.155061e+003, 3.079627e+003
1.155543e+003, 3.078769e+003
1.156025e+003, 3.079520e+003
1.156507e+003, 3.081605e+003
1.156990e+003, 3.084172e+003
1.157472e+003, 3.085620e+003
1.157954e+003, 3.085932e+003
1.158436e+003, 3.086320e+003
1.158918e+003, 3.086927e+003
1.159400e+003, 3.087864e+003
1.159882e+003, 3.089496e+003
1.160364e+003, 3.091256e+003
1.160847e+003, 3.093411e+003
1.161329e+003, 3.095418e+003
1.161811e+003, 3.093976e+003
1.162293e+003, 3.088618e+003
1.162775e+003, 3.085614e+003
1.163257e+003, 3.087018e+003
1.163739e+003, 3.089102e+003
1.164221e+003, 3.087899e+003
1.164703e+003, 3.085628e+003
1.165186e+003, 3.084677e+003
1.165668e+003, 3.085356e+003
1.166150e+003, 3.084975e+003
1.166632e+003, 3.083186e+003
1.167114e+003, 3.082701e+003
1.167596e+003, 3.084868e+003
1.168078e+003, 3.088117e+003
1.168560e+003, 3.090967e+003
1.169042e+003, 3.093390e+003
1.169525e+003, 3.095290e+003
1.170007e+003, 3.096613e+003
1.170489e+003, 3.097272e+003
1.170971e+003, 3.096831e+003
1.171453e+003, 3.097339e+003
1.171935e+003, 3.100515e+003
1.172417e+003, 3.104395e+003
1.172899e+003, 3.105156e+003
1.173382e+003, 3.104515e+003
1.173864e+003, 3.105756e+003
1.174346e+003, 3.111857e+003
1.174828e+003, 3.114852e+003
1.175310e+003, 3.113463e+003
1.175792e+003, 3.112063e+003
1.176274e+003, 3.114957e+003
1.176756e+003, 3.119276e+003
1.177239e+003, 3.118869e+003
1.177721e+003, 3.115361e+003
1.178203e+003, 3.112991e+003
1.178685e+003, 3.115104e+003
1.179167e+003, 3.115532e+003
1.179649e+003, 3.113708e+003
1.180131e+003, 3.110905e+003
1.180613e+003, 3.107917e+003
1.181095e+003, 3.105044e+003
1.181578e+003, 3.102418e+003
1.182060e+003, 3.100383e+003
1.182542e+003, 3.100283e+003
1.183024e+003, 3.104797e+003
1.183506e+003, 3.108206e+003
1.183988e+003, 3.109451e+003
1.184470e+003, 3.109822e+003
1.184952e+003, 3.110407e+003
1.185434e+003, 3.111369e+003
1.185917e+003, 3.113769e+003
1.186399e+003, 3.117318e+003
1.186881e+003, 3.119394e+003
1.187363e+003, 3.116317e+003
1.187845e+003, 3.115069e+003
1.188327e+003, 3.117588e+003
1.188809e+003, 3.121800e+003
1.189291e+003, 3.124929e+003
1.189774e+003, 3.127124e+003
1.190256e+003, 3.129159e+003
1.190738e+003, 3.131085e+003
1.191220e+003, 3.131699e+003
1.191702e+003, 3.128661e+003
1.192184e+003, 3.126555e+003
1.192666e+003, 3.126997e+003
1.193148e+003, 3.128971e+003
1.193630e+003, 3.130850e+003
1.194113e+003, 3.132557e+003
1.194595e+003, 3.133802e+003
1.195077e+003, 3.134594e+003
1.195559e+003, 3.134710e+003
1.196041e+003, 3.133516e+003
1.196523e+003, 3.132292e+003
1.197005e+003, 3.131503e+003
1.197487e+003, 3.131032e+003
1.197969e+003, 3.130265e+003
1.198452e+003, 3.129489e+003
1.198934e+003, 3.130218e+003
1.199416e+003, 3.133293e+003
1.199898e+003, 3.134925e+003
1.200380e+003, 3.131200e+003
1.200862e+003, 3.127870e+003
1.201344e+003, 3.127919e+003
1.201826e+003, 3.130268e+003
1.202309e+003, 3.131170e+003
1.202791e+003, 3.130953e+003
1.203273e+003, 3.131000e+003
1.203755e+003, 3.132095e+003
1.204237e+003, 3.132467e+003
1.204719e+003, 3.130440e+003
1.205201e+003, 3.128507e+003
1.205683e+003, 3.128481e+003
1.206166e+003, 3.129680e+003
1.206648e+003, 3.127736e+003
1.207130e+003, 3.123770e+003
1.207612e+003, 3.122684e+003
1.208094e+003, 3.128150e+003
1.208576e+003, 3.132638e+003
1.209058e+003, 3.131175e+003
1.209540e+003, 3.129330e+003
1.210022e+003, 3.130877e+003
1.210505e+003, 3.135083e+003
1.210987e+003, 3.136884e+003
1.211469e+003, 3.136958e+003
1.211951e+003, 3.138565e+003
1.212433e+003, 3.144809e+003
1.212915e+003, 3.150080e+003
1.213397e+003, 3.152063e+003
1.213879e+003, 3.152325e+003
1.214361e+003, 3.151168e+003
1.214844e+003, 3.148991e+003
1.215326e+003, 3.149031e+003
1.215808e+003, 3.150968e+003
1.216290e+003, 3.153205e+003
1.216772e+003, 3.156598e+003
1.217254e+003, 3.157878e+003
1.217736e+003, 3.154051e+003
1.218218e+003, 3.149860e+003
1.218701e+003, 3.149701e+003
1.219183e+003, 3.152880e+003
1.219665e+003, 3.155220e+003
1.220147e+003, 3.156577e+003
1.220629e+003, 3.156608e+003
1.221111e+003, 3.153197e+003
1.221593e+003, 3.151180e+003
1.222075e+003, 3.152996e+003
1.222557e+003, 3.155485e+003
1.223040e+003, 3.155526e+003
1.223522e+003, 3.153511e+003
1.224004e+003, 3.150668e+003
1.224486e+003, 3.147347e+003
1.224968e+003, 3.145206e+003
1.225450e+003, 3.146399e+003
1.225932e+003, 3.147012e+003
1.226414e+003, 3.145502e+003
1.226896e+003, 3.143851e+003
1.227379e+003, 3.144812e+003
1.227861e+003, 3.147492e+003
1.228343e+003, 3.148499e+003
1.228825e+003, 3.147934e+003
1.229307e+003, 3.147779e+003
1.229789e+003, 3.149646e+003
1.230271e+003, 3.151013e+003
1.230753e+003, 3.151386e+003
1.231236e+003, 3.151001e+003
1.231718e+003, 3.149944e+003
1.232200e+003, 3.148445e+003
1.232682e+003, 3.146759e+003
1.233164e+003, 3.145094e+003
1.233646e+003, 3.144703e+003
1.234128e+003, 3.147172e+003
1.234610e+003, 3.149758e+003
1.235093e+003, 3.152342e+003
1.235575e+003, 3.154127e+003
1.236057e+003, 3.152928e+003
1.236539e+003, 3.150428e+003
1.237021e+003, 3.150454e+003
1.237503e+003, 3.153149e+003
1.237985e+003, 3.156673e+003
1.238467e+003, 3.161860e+003
1.238949e+003, 3.165521e+003
1.239432e+003, 3.167033e+003
1.239914e+003, 3.166991e+003
1.240396e+003, 3.165046e+003
1.240878e+003, 3.162592e+003
1.241360e+003, 3.162362e+003
1.241842e+003, 3.164469e+003
1.242324e+003, 3.167059e+003
1.242806e+003, 3.169931e+003
1.243288e+003, 3.172978e+003
1.243771e+003, 3.176474e+003
1.244253e+003, 3.179390e+003
1.244735e+003, 3.179724e+003
1.245217e+003, 3.178984e+003
1.245699e+003, 3.179636e+003
1.246181e+003, 3.181796e+003
1.246663e+003, 3.183174e+003
1.247145e+003, 3.183416e+003
1.247628e+003, 3.183291e+003
1.248110e+003, 3.182808e+003
1.248592e+003, 3.182612e+003
1.249074e+003, 3.184160e+003
1.249556e+003, 3.186066e+003
1.250038e+003, 3.186742e+003
1.250520e+003, 3.186034e+003
1.251002e+003, 3.184662e+003
1.251484e+003, 3.182440e+003
1.251967e+003, 3.180615e+003
1.252449e+003, 3.179398e+003
1.252931e+003, 3.179042e+003
1.253413e+003, 3.180682e+003
1.253895e+003, 3.182668e+003
1.254377e+003, 3.182871e+003
1.254859e+003, 3.181433e+003
1.255341e+003, 3.181742e+003
1.255823e+003, 3.183995e+003
1.256306e+003, 3.186274e+003
1.256788e+003, 3.188302e+003
1.257270e+003, 3.189154e+003
1.257752e+003, 3.186124e+003
1.258234e+003, 3.183001e+003
1.258716e+003, 3.183766e+003
1.259198e+003, 3.187538e+003
1.259680e+003, 3.190114e+003
1.260163e+003, 3.191499e+003
1.260645e+003, 3.190905e+003
1.261127e+003, 3.187791e+003
1.261609e+003, 3.185130e+003
1.262091e+003, 3.186364e+003
1.262573e+003, 3.187753e+003
1.263055e+003, 3.186412e+003
1.263537e+003, 3.183289e+003
1.264020e+003, 3.181783e+003
1.264502e+003, 3.181732e+003
1.264984e+003, 3.181911e+003
1.265466e+003, 3.182057e+003
1.265948e+003, 3.182385e+003
1.266430e+003, 3.183516e+003
1.266912e+003, 3.184243e+003
1.267394e+003, 3.183697e+003
1.267876e+003, 3.182511e+003
1.268359e+003, 3.182722e+003
1.268841e+003, 3.183831e+003
1.269323e+003, 3.183708e+003
1.269805e+003, 3.181615e+003
1.270287e+003, 3.180674e+003
1.270769e+003, 3.183455e+003
1.271251e+003, 3.186194e+003
1.271733e+003, 3.188015e+003
1.272215e+003, 3.188649e+003
1.272698e+003, 3.186669e+003
1.273180e+003, 3.183252e+003
1.273662e+003, 3.181005e+003
1.274144e+003, 3.180449e+003
1.274626e+003, 3.180864e+003
1.275108e+003, 3.182588e+003
1.275590e+003, 3.184282e+003
1.276072e+003, 3.185589e+003
1.276555e+003, 3.186520e+003
1.277037e+003, 3.187140e+003
1.277519e+003, 3.187318e+003
1.278001e+003, 3.186249e+003
1.278483e+003, 3.183599e+003
1.278965e+003, 3.183913e+003
1.279447e+003, 3.188030e+003
1.279929e+003, 3.192407e+003
1.280411e+003, 3.196176e+003
1.280894e+003, 3.198848e+003
1.281376e+003, 3.198497e+003
1.281858e+003, 3.197593e+003
1.282340e+003, 3.199780e+003
1.282822e+003, 3.205057e+003
1.283304e+003, 3.206836e+003
1.283786e+003, 3.204914e+003
1.284268e+003, 3.201453e+003
1.284750e+003, 3.196510e+003
1.285233e+003, 3.192527e+003
1.285715e+003, 3.192850e+003
1.286197e+003, 3.194275e+003
1.286679e+003, 3.194116e+003
1.287161e+003, 3.192792e+003
1.287643e+003, 3.192250e+003
1.288125e+003, 3.192474e+003
1.288607e+003, 3.192934e+003
1.289090e+003, 3.193597e+003
1.289572e+003, 3.194029e+003
1.290054e+003, 3.193611e+003
1.290536e+003, 3.193338e+003
1.291018e+003, 3.193781e+003
1.291500e+003, 3.194667e+003
1.291982e+003, 3.194857e+003
1.292464e+003, 3.194837e+003
1.292947e+003, 3.196875e+003
1.293429e+003, 3.201677e+003
1.293911e+003, 3.205305e+003
1.294393e+003, 3.204389e+003
1.294875e+003, 3.204212e+003
1.295357e+003, 3.206376e+003
1.295839e+003, 3.209663e+003
1.296321e+003, 3.212370e+003
1.296803e+003, 3.214905e+003
1.297286e+003, 3.218329e+003
1.297768e+003, 3.222852e+003
1.298250e+003, 3.224616e+003
1.298732e+003, 3.222475e+003
1.299214e+003, 3.219595e+003
1.299696e+003, 3.216577e+003
1.300178e+003, 3.214320e+003
1.300660e+003, 3.214723e+003
##END=



