##NAMES=Edwindavisite
##RRUFFID=R230005
##IDEAL CHEMISTRY=Cu^2+^((C_2_)^6+^O_4_)(N^3-^H_3_)
##LOCALITY=125' Level, Rowley mine, Maricopa County, Arizona, USA
##OWNER=RRUFF
##SOURCE=Joe Marty
##DESCRIPTION=Radiating clusters of bladed or prismatic grass-green crystals, associated with blue ammineite. Type sample
##STATUS=The identification of this mineral is confirmed by single-crystal X-ray diffraction and chemical analysis.
##URL=rruff.info/R230005
8.955957e+001, 2.303719e+002
9.004169e+001, 2.306571e+002
9.052380e+001, 2.300533e+002
9.100592e+001, 2.288638e+002
9.148804e+001, 2.278324e+002
9.197015e+001, 2.266988e+002
9.245227e+001, 2.261975e+002
9.293439e+001, 2.269760e+002
9.341650e+001, 2.244903e+002
9.389862e+001, 2.192582e+002
9.438074e+001, 2.130335e+002
9.486285e+001, 2.056798e+002
9.534497e+001, 1.995779e+002
9.582709e+001, 1.949138e+002
9.630920e+001, 1.905282e+002
9.679132e+001, 1.866705e+002
9.727344e+001, 1.834692e+002
9.775555e+001, 1.807388e+002
9.823766e+001, 1.781817e+002
9.871978e+001, 1.758202e+002
9.920190e+001, 1.733962e+002
9.968401e+001, 1.707252e+002
1.001661e+002, 1.680382e+002
1.006482e+002, 1.655263e+002
1.011304e+002, 1.632479e+002
1.016125e+002, 1.611730e+002
1.020946e+002, 1.592791e+002
1.025767e+002, 1.572811e+002
1.030588e+002, 1.557967e+002
1.035409e+002, 1.552550e+002
1.040231e+002, 1.554306e+002
1.045052e+002, 1.555775e+002
1.049873e+002, 1.554118e+002
1.054694e+002, 1.549557e+002
1.059515e+002, 1.543481e+002
1.064336e+002, 1.536617e+002
1.069158e+002, 1.527207e+002
1.073979e+002, 1.513138e+002
1.078800e+002, 1.493950e+002
1.083621e+002, 1.471694e+002
1.088442e+002, 1.445013e+002
1.093263e+002, 1.416699e+002
1.098085e+002, 1.389318e+002
1.102906e+002, 1.363626e+002
1.107727e+002, 1.340089e+002
1.112548e+002, 1.321092e+002
1.117369e+002, 1.313485e+002
1.122190e+002, 1.302342e+002
1.127012e+002, 1.279449e+002
1.131833e+002, 1.250158e+002
1.136654e+002, 1.224530e+002
1.141475e+002, 1.211012e+002
1.146296e+002, 1.211479e+002
1.151117e+002, 1.208167e+002
1.155939e+002, 1.199648e+002
1.160760e+002, 1.189280e+002
1.165581e+002, 1.176019e+002
1.170402e+002, 1.161120e+002
1.175223e+002, 1.149273e+002
1.180044e+002, 1.147132e+002
1.184866e+002, 1.161966e+002
1.189687e+002, 1.163532e+002
1.194508e+002, 1.139804e+002
1.199329e+002, 1.108764e+002
1.204150e+002, 1.088182e+002
1.208971e+002, 1.083177e+002
1.213793e+002, 1.086195e+002
1.218614e+002, 1.086245e+002
1.223435e+002, 1.083500e+002
1.228256e+002, 1.079553e+002
1.233077e+002, 1.074788e+002
1.237898e+002, 1.069204e+002
1.242720e+002, 1.062644e+002
1.247541e+002, 1.054453e+002
1.252362e+002, 1.045857e+002
1.257183e+002, 1.038479e+002
1.262004e+002, 1.032575e+002
1.266825e+002, 1.026812e+002
1.271647e+002, 1.019539e+002
1.276468e+002, 1.010288e+002
1.281289e+002, 1.002685e+002
1.286110e+002, 1.000068e+002
1.290931e+002, 9.984266e+001
1.295752e+002, 9.949983e+001
1.300574e+002, 9.888612e+001
1.305395e+002, 9.811091e+001
1.310216e+002, 9.740627e+001
1.315037e+002, 9.688759e+001
1.319858e+002, 9.622703e+001
1.324679e+002, 9.514854e+001
1.329501e+002, 9.399451e+001
1.334322e+002, 9.314851e+001
1.339143e+002, 9.282784e+001
1.343964e+002, 9.294649e+001
1.348785e+002, 9.300090e+001
1.353606e+002, 9.281974e+001
1.358427e+002, 9.275226e+001
1.363249e+002, 9.314519e+001
1.368070e+002, 9.370409e+001
1.372891e+002, 9.385914e+001
1.377712e+002, 9.315810e+001
1.382533e+002, 9.159025e+001
1.387354e+002, 9.020306e+001
1.392176e+002, 8.856873e+001
1.396997e+002, 8.743441e+001
1.401818e+002, 8.762372e+001
1.406639e+002, 8.895821e+001
1.411460e+002, 9.009465e+001
1.416281e+002, 8.963487e+001
1.421103e+002, 8.756749e+001
1.425924e+002, 8.632681e+001
1.430745e+002, 8.645329e+001
1.435566e+002, 8.727091e+001
1.440387e+002, 8.826207e+001
1.445208e+002, 8.947952e+001
1.450030e+002, 9.036636e+001
1.454851e+002, 9.008844e+001
1.459672e+002, 8.895839e+001
1.464493e+002, 8.787470e+001
1.469314e+002, 8.713660e+001
1.474135e+002, 8.670718e+001
1.478957e+002, 8.643102e+001
1.483778e+002, 8.610358e+001
1.488599e+002, 8.626310e+001
1.493420e+002, 8.751743e+001
1.498241e+002, 8.962349e+001
1.503062e+002, 9.152187e+001
1.507884e+002, 9.225426e+001
1.512705e+002, 9.175520e+001
1.517526e+002, 9.135127e+001
1.522347e+002, 9.085581e+001
1.527168e+002, 9.071730e+001
1.531989e+002, 9.144620e+001
1.536811e+002, 9.292988e+001
1.541632e+002, 9.443121e+001
1.546453e+002, 9.490871e+001
1.551274e+002, 9.371581e+001
1.556095e+002, 9.318223e+001
1.560916e+002, 9.393617e+001
1.565738e+002, 9.483923e+001
1.570559e+002, 9.513976e+001
1.575380e+002, 9.466368e+001
1.580201e+002, 9.377498e+001
1.585022e+002, 9.307476e+001
1.589843e+002, 9.237553e+001
1.594665e+002, 9.222828e+001
1.599486e+002, 9.292820e+001
1.604307e+002, 9.401704e+001
1.609128e+002, 9.522332e+001
1.613949e+002, 9.646107e+001
1.618770e+002, 9.744749e+001
1.623592e+002, 9.738465e+001
1.628413e+002, 9.534322e+001
1.633234e+002, 9.376747e+001
1.638055e+002, 9.328206e+001
1.642876e+002, 9.351706e+001
1.647697e+002, 9.391644e+001
1.652519e+002, 9.433727e+001
1.657340e+002, 9.461595e+001
1.662161e+002, 9.432906e+001
1.666982e+002, 9.326970e+001
1.671803e+002, 9.213515e+001
1.676624e+002, 9.106014e+001
1.681445e+002, 9.011096e+001
1.686267e+002, 8.970364e+001
1.691088e+002, 9.049818e+001
1.695909e+002, 9.164864e+001
1.700730e+002, 9.169630e+001
1.705551e+002, 9.027858e+001
1.710372e+002, 8.827795e+001
1.715194e+002, 8.624664e+001
1.720015e+002, 8.412424e+001
1.724836e+002, 8.249696e+001
1.729657e+002, 8.201965e+001
1.734478e+002, 8.204346e+001
1.739299e+002, 8.205273e+001
1.744121e+002, 8.194376e+001
1.748942e+002, 8.169962e+001
1.753763e+002, 8.126694e+001
1.758584e+002, 8.058323e+001
1.763405e+002, 7.986422e+001
1.768226e+002, 7.890366e+001
1.773048e+002, 7.804567e+001
1.777869e+002, 7.776469e+001
1.782690e+002, 7.836549e+001
1.787511e+002, 7.945582e+001
1.792332e+002, 7.979671e+001
1.797153e+002, 7.857816e+001
1.801975e+002, 7.777142e+001
1.806796e+002, 7.828014e+001
1.811617e+002, 7.927043e+001
1.816438e+002, 7.971848e+001
1.821259e+002, 7.901549e+001
1.826080e+002, 7.731413e+001
1.830902e+002, 7.553252e+001
1.835723e+002, 7.277113e+001
1.840544e+002, 7.090593e+001
1.845365e+002, 7.074072e+001
1.850186e+002, 7.165759e+001
1.855007e+002, 7.266727e+001
1.859829e+002, 7.314890e+001
1.864650e+002, 7.311631e+001
1.869471e+002, 7.283362e+001
1.874292e+002, 7.233104e+001
1.879113e+002, 7.159969e+001
1.883934e+002, 7.049065e+001
1.888756e+002, 6.912422e+001
1.893577e+002, 6.772950e+001
1.898398e+002, 6.641542e+001
1.903219e+002, 6.521927e+001
1.908040e+002, 6.466432e+001
1.912861e+002, 6.522540e+001
1.917683e+002, 6.589396e+001
1.922504e+002, 6.615196e+001
1.927325e+002, 6.601741e+001
1.932146e+002, 6.577438e+001
1.936967e+002, 6.564227e+001
1.941788e+002, 6.558923e+001
1.946610e+002, 6.535896e+001
1.951431e+002, 6.478986e+001
1.956252e+002, 6.415446e+001
1.961073e+002, 6.363349e+001
1.965894e+002, 6.323532e+001
1.970715e+002, 6.297575e+001
1.975536e+002, 6.293434e+001
1.980358e+002, 6.305212e+001
1.985179e+002, 6.315545e+001
1.990000e+002, 6.321832e+001
1.994821e+002, 6.325202e+001
1.999642e+002, 6.330852e+001
2.004464e+002, 6.342583e+001
2.009285e+002, 6.340621e+001
2.014106e+002, 6.283846e+001
2.018927e+002, 6.206939e+001
2.023748e+002, 6.168005e+001
2.028569e+002, 6.215734e+001
2.033391e+002, 6.304002e+001
2.038212e+002, 6.334190e+001
2.043033e+002, 6.285014e+001
2.047854e+002, 6.222845e+001
2.052675e+002, 6.164268e+001
2.057496e+002, 6.117715e+001
2.062318e+002, 6.101374e+001
2.067139e+002, 6.139223e+001
2.071960e+002, 6.209367e+001
2.076781e+002, 6.231453e+001
2.081602e+002, 6.166805e+001
2.086423e+002, 6.111333e+001
2.091245e+002, 6.097673e+001
2.096066e+002, 6.114459e+001
2.100887e+002, 6.147489e+001
2.105708e+002, 6.194515e+001
2.110529e+002, 6.249191e+001
2.115350e+002, 6.271530e+001
2.120172e+002, 6.249950e+001
2.124993e+002, 6.204424e+001
2.129814e+002, 6.092713e+001
2.134635e+002, 5.966526e+001
2.139456e+002, 5.918536e+001
2.144277e+002, 6.025921e+001
2.149099e+002, 6.266364e+001
2.153920e+002, 6.380758e+001
2.158741e+002, 6.220357e+001
2.163562e+002, 6.074565e+001
2.168383e+002, 5.983474e+001
2.173204e+002, 5.949486e+001
2.178026e+002, 5.975500e+001
2.182847e+002, 6.072472e+001
2.187668e+002, 6.233053e+001
2.192489e+002, 6.300100e+001
2.197310e+002, 6.163201e+001
2.202131e+002, 6.053904e+001
2.206953e+002, 6.052284e+001
2.211774e+002, 6.126608e+001
2.216595e+002, 6.205577e+001
2.221416e+002, 6.243008e+001
2.226237e+002, 6.239768e+001
2.231058e+002, 6.208992e+001
2.235880e+002, 6.113456e+001
2.240701e+002, 6.034026e+001
2.245522e+002, 6.000352e+001
2.250343e+002, 6.006227e+001
2.255164e+002, 6.033199e+001
2.259985e+002, 6.070988e+001
2.264807e+002, 6.119364e+001
2.269628e+002, 6.173407e+001
2.274449e+002, 6.256019e+001
2.279270e+002, 6.321025e+001
2.284091e+002, 6.340305e+001
2.288912e+002, 6.322753e+001
2.293733e+002, 6.296052e+001
2.298555e+002, 6.270458e+001
2.303376e+002, 6.252798e+001
2.308197e+002, 6.269434e+001
2.313018e+002, 6.355737e+001
2.317839e+002, 6.439407e+001
2.322660e+002, 6.480571e+001
2.327482e+002, 6.484963e+001
2.332303e+002, 6.479032e+001
2.337124e+002, 6.466473e+001
2.341945e+002, 6.460915e+001
2.346766e+002, 6.498421e+001
2.351587e+002, 6.623553e+001
2.356409e+002, 6.738612e+001
2.361230e+002, 6.758627e+001
2.366051e+002, 6.696368e+001
2.370872e+002, 6.663107e+001
2.375693e+002, 6.738618e+001
2.380514e+002, 6.864500e+001
2.385336e+002, 6.919640e+001
2.390157e+002, 6.880347e+001
2.394978e+002, 6.804243e+001
2.399799e+002, 6.721346e+001
2.404620e+002, 6.632747e+001
2.409441e+002, 6.562450e+001
2.414263e+002, 6.516404e+001
2.419084e+002, 6.500198e+001
2.423905e+002, 6.533249e+001
2.428726e+002, 6.643303e+001
2.433547e+002, 6.726843e+001
2.438368e+002, 6.661307e+001
2.443190e+002, 6.443724e+001
2.448011e+002, 6.265395e+001
2.452832e+002, 6.206991e+001
2.457653e+002, 6.208762e+001
2.462474e+002, 6.218110e+001
2.467295e+002, 6.229425e+001
2.472117e+002, 6.246024e+001
2.476938e+002, 6.291124e+001
2.481759e+002, 6.370313e+001
2.486580e+002, 6.384257e+001
2.491401e+002, 6.236039e+001
2.496222e+002, 6.060575e+001
2.501044e+002, 5.954770e+001
2.505865e+002, 5.930367e+001
2.510686e+002, 5.937671e+001
2.515507e+002, 5.938108e+001
2.520328e+002, 5.933862e+001
2.525149e+002, 5.900264e+001
2.529971e+002, 5.778283e+001
2.534792e+002, 5.666269e+001
2.539613e+002, 5.631588e+001
2.544434e+002, 5.674819e+001
2.549255e+002, 5.735534e+001
2.554076e+002, 5.759842e+001
2.558898e+002, 5.746679e+001
2.563719e+002, 5.704300e+001
2.568540e+002, 5.588274e+001
2.573361e+002, 5.476857e+001
2.578182e+002, 5.406583e+001
2.583003e+002, 5.377304e+001
2.587824e+002, 5.366788e+001
2.592646e+002, 5.357287e+001
2.597467e+002, 5.349609e+001
2.602288e+002, 5.337095e+001
2.607109e+002, 5.302541e+001
2.611930e+002, 5.277830e+001
2.616751e+002, 5.288421e+001
2.621573e+002, 5.323884e+001
2.626394e+002, 5.349258e+001
2.631215e+002, 5.329188e+001
2.636036e+002, 5.258887e+001
2.640857e+002, 5.203178e+001
2.645678e+002, 5.173721e+001
2.650500e+002, 5.149272e+001
2.655321e+002, 5.127344e+001
2.660142e+002, 5.105709e+001
2.664963e+002, 5.079189e+001
2.669784e+002, 5.039370e+001
2.674605e+002, 4.986367e+001
2.679427e+002, 4.968839e+001
2.684248e+002, 5.061866e+001
2.689069e+002, 5.117324e+001
2.693890e+002, 5.061095e+001
2.698711e+002, 4.939865e+001
2.703532e+002, 4.847322e+001
2.708354e+002, 4.849768e+001
2.713175e+002, 4.938205e+001
2.717996e+002, 5.007343e+001
2.722817e+002, 5.031777e+001
2.727638e+002, 5.062220e+001
2.732459e+002, 5.139278e+001
2.737281e+002, 5.223158e+001
2.742102e+002, 5.241801e+001
2.746923e+002, 5.147099e+001
2.751744e+002, 4.971273e+001
2.756565e+002, 4.878318e+001
2.761386e+002, 4.981762e+001
2.766208e+002, 5.048276e+001
2.771029e+002, 5.035107e+001
2.775850e+002, 4.976342e+001
2.780671e+002, 4.914454e+001
2.785492e+002, 4.869307e+001
2.790313e+002, 4.837480e+001
2.795135e+002, 4.808819e+001
2.799956e+002, 4.779145e+001
2.804777e+002, 4.758826e+001
2.809598e+002, 4.747319e+001
2.814419e+002, 4.745618e+001
2.819240e+002, 4.758429e+001
2.824062e+002, 4.786965e+001
2.828883e+002, 4.822306e+001
2.833704e+002, 4.846809e+001
2.838525e+002, 4.864480e+001
2.843346e+002, 4.862453e+001
2.848167e+002, 4.803891e+001
2.852989e+002, 4.746603e+001
2.857810e+002, 4.763445e+001
2.862631e+002, 4.866305e+001
2.867452e+002, 4.976799e+001
2.872273e+002, 4.969558e+001
2.877094e+002, 4.733877e+001
2.881916e+002, 4.631173e+001
2.886737e+002, 4.765743e+001
2.891558e+002, 4.950399e+001
2.896379e+002, 5.065382e+001
2.901200e+002, 5.086497e+001
2.906021e+002, 5.037719e+001
2.910843e+002, 4.931042e+001
2.915664e+002, 4.724999e+001
2.920485e+002, 4.649998e+001
2.925306e+002, 4.827306e+001
2.930127e+002, 5.016842e+001
2.934948e+002, 5.069969e+001
2.939770e+002, 4.990276e+001
2.944591e+002, 4.872035e+001
2.949412e+002, 4.794275e+001
2.954233e+002, 4.759850e+001
2.959054e+002, 4.734403e+001
2.963875e+002, 4.716853e+001
2.968697e+002, 4.707205e+001
2.973518e+002, 4.708028e+001
2.978339e+002, 4.717132e+001
2.983160e+002, 4.732131e+001
2.987981e+002, 4.754627e+001
2.992802e+002, 4.781363e+001
2.997624e+002, 4.772027e+001
3.002445e+002, 4.670814e+001
3.007266e+002, 4.601357e+001
3.012087e+002, 4.628545e+001
3.016908e+002, 4.711394e+001
3.021729e+002, 4.768195e+001
3.026551e+002, 4.752947e+001
3.031372e+002, 4.691441e+001
3.036193e+002, 4.676351e+001
3.041014e+002, 4.760988e+001
3.045835e+002, 4.823573e+001
3.050656e+002, 4.838793e+001
3.055477e+002, 4.824800e+001
3.060298e+002, 4.804916e+001
3.065120e+002, 4.787973e+001
3.069941e+002, 4.768275e+001
3.074762e+002, 4.733164e+001
3.079583e+002, 4.661271e+001
3.084404e+002, 4.611663e+001
3.089225e+002, 4.602448e+001
3.094047e+002, 4.608529e+001
3.098868e+002, 4.600719e+001
3.103689e+002, 4.573397e+001
3.108510e+002, 4.550719e+001
3.113331e+002, 4.569085e+001
3.118152e+002, 4.656860e+001
3.122974e+002, 4.695333e+001
3.127795e+002, 4.616180e+001
3.132616e+002, 4.539473e+001
3.137437e+002, 4.578942e+001
3.142258e+002, 4.728182e+001
3.147079e+002, 4.862960e+001
3.151901e+002, 4.856906e+001
3.156722e+002, 4.687195e+001
3.161543e+002, 4.609207e+001
3.166364e+002, 4.701928e+001
3.171185e+002, 4.797514e+001
3.176006e+002, 4.797432e+001
3.180828e+002, 4.724810e+001
3.185649e+002, 4.668431e+001
3.190470e+002, 4.691921e+001
3.195291e+002, 4.785557e+001
3.200112e+002, 4.845132e+001
3.204933e+002, 4.869650e+001
3.209755e+002, 4.868573e+001
3.214576e+002, 4.826770e+001
3.219397e+002, 4.763315e+001
3.224218e+002, 4.709032e+001
3.229039e+002, 4.678975e+001
3.233860e+002, 4.668497e+001
3.238682e+002, 4.664679e+001
3.243503e+002, 4.666737e+001
3.248324e+002, 4.676591e+001
3.253145e+002, 4.700811e+001
3.257966e+002, 4.730201e+001
3.262787e+002, 4.757288e+001
3.267609e+002, 4.779232e+001
3.272430e+002, 4.793404e+001
3.277251e+002, 4.797431e+001
3.282072e+002, 4.803393e+001
3.286893e+002, 4.766140e+001
3.291714e+002, 4.621424e+001
3.296536e+002, 4.480006e+001
3.301357e+002, 4.439539e+001
3.306178e+002, 4.503291e+001
3.310999e+002, 4.590432e+001
3.315820e+002, 4.616434e+001
3.320641e+002, 4.569241e+001
3.325463e+002, 4.527516e+001
3.330284e+002, 4.508581e+001
3.335105e+002, 4.477845e+001
3.339926e+002, 4.404042e+001
3.344747e+002, 4.302041e+001
3.349568e+002, 4.209212e+001
3.354390e+002, 4.149766e+001
3.359211e+002, 4.124654e+001
3.364032e+002, 4.155689e+001
3.368853e+002, 4.313010e+001
3.373674e+002, 4.444260e+001
3.378495e+002, 4.512293e+001
3.383317e+002, 4.535022e+001
3.388138e+002, 4.541252e+001
3.392959e+002, 4.545079e+001
3.397780e+002, 4.540865e+001
3.402601e+002, 4.511541e+001
3.407422e+002, 4.412535e+001
3.412244e+002, 4.348726e+001
3.417065e+002, 4.344117e+001
3.421886e+002, 4.363799e+001
3.426707e+002, 4.375965e+001
3.431528e+002, 4.372371e+001
3.436349e+002, 4.366624e+001
3.441171e+002, 4.380006e+001
3.445992e+002, 4.424874e+001
3.450813e+002, 4.457204e+001
3.455634e+002, 4.517554e+001
3.460455e+002, 4.535189e+001
3.465276e+002, 4.417813e+001
3.470098e+002, 4.201343e+001
3.474919e+002, 4.030166e+001
3.479740e+002, 4.051547e+001
3.484561e+002, 4.279473e+001
3.489382e+002, 4.428054e+001
3.494203e+002, 4.464759e+001
3.499025e+002, 4.454158e+001
3.503846e+002, 4.374250e+001
3.508667e+002, 4.263538e+001
3.513488e+002, 4.187683e+001
3.518309e+002, 4.190707e+001
3.523130e+002, 4.245183e+001
3.527952e+002, 4.233466e+001
3.532773e+002, 4.041380e+001
3.537594e+002, 3.958484e+001
3.542415e+002, 4.127727e+001
3.547236e+002, 4.366514e+001
3.552057e+002, 4.488066e+001
3.556879e+002, 4.432524e+001
3.561700e+002, 4.285522e+001
3.566521e+002, 4.170592e+001
3.571342e+002, 4.069768e+001
3.576163e+002, 4.054921e+001
3.580984e+002, 4.238762e+001
3.585806e+002, 4.420084e+001
3.590627e+002, 4.467260e+001
3.595448e+002, 4.385441e+001
3.600269e+002, 4.279985e+001
3.605090e+002, 4.254564e+001
3.609911e+002, 4.312702e+001
3.614733e+002, 4.344708e+001
3.619554e+002, 4.337450e+001
3.624375e+002, 4.315978e+001
3.629196e+002, 4.273952e+001
3.634017e+002, 4.226448e+001
3.638839e+002, 4.202942e+001
3.643660e+002, 4.227270e+001
3.648481e+002, 4.279980e+001
3.653302e+002, 4.301514e+001
3.658123e+002, 4.277793e+001
3.662944e+002, 4.252964e+001
3.667766e+002, 4.221692e+001
3.672587e+002, 4.205340e+001
3.677408e+002, 4.240441e+001
3.682229e+002, 4.344022e+001
3.687050e+002, 4.447965e+001
3.691871e+002, 4.448327e+001
3.696692e+002, 4.331823e+001
3.701513e+002, 4.256715e+001
3.706335e+002, 4.300586e+001
3.711156e+002, 4.359190e+001
3.715977e+002, 4.354945e+001
3.720798e+002, 4.288499e+001
3.725619e+002, 4.212743e+001
3.730440e+002, 4.154044e+001
3.735262e+002, 4.113895e+001
3.740083e+002, 4.101814e+001
3.744904e+002, 4.126022e+001
3.749725e+002, 4.164051e+001
3.754546e+002, 4.219046e+001
3.759367e+002, 4.275942e+001
3.764189e+002, 4.298364e+001
3.769010e+002, 4.256268e+001
3.773831e+002, 4.185866e+001
3.778652e+002, 4.128575e+001
3.783473e+002, 4.083577e+001
3.788294e+002, 4.063493e+001
3.793116e+002, 4.078554e+001
3.797937e+002, 4.122818e+001
3.802758e+002, 4.191413e+001
3.807579e+002, 4.301085e+001
3.812400e+002, 4.389453e+001
3.817221e+002, 4.407430e+001
3.822043e+002, 4.369283e+001
3.826864e+002, 4.314014e+001
3.831685e+002, 4.232885e+001
3.836506e+002, 4.176461e+001
3.841327e+002, 4.259862e+001
3.846148e+002, 4.480367e+001
3.850970e+002, 4.595356e+001
3.855791e+002, 4.438546e+001
3.860612e+002, 4.191454e+001
3.865433e+002, 4.081349e+001
3.870254e+002, 4.131121e+001
3.875075e+002, 4.219319e+001
3.879897e+002, 4.261805e+001
3.884718e+002, 4.258298e+001
3.889539e+002, 4.243446e+001
3.894360e+002, 4.202805e+001
3.899181e+002, 4.165003e+001
3.904002e+002, 4.148643e+001
3.908824e+002, 4.147329e+001
3.913645e+002, 4.143142e+001
3.918466e+002, 4.127448e+001
3.923287e+002, 4.105178e+001
3.928108e+002, 4.089186e+001
3.932929e+002, 4.088314e+001
3.937751e+002, 4.076686e+001
3.942572e+002, 4.027346e+001
3.947393e+002, 3.977876e+001
3.952214e+002, 3.966768e+001
3.957035e+002, 4.001804e+001
3.961856e+002, 4.071473e+001
3.966678e+002, 4.170948e+001
3.971499e+002, 4.313794e+001
3.976320e+002, 4.400449e+001
3.981141e+002, 4.410780e+001
3.985962e+002, 4.393185e+001
3.990783e+002, 4.364009e+001
3.995605e+002, 4.325090e+001
4.000426e+002, 4.273076e+001
4.005247e+002, 4.204430e+001
4.010068e+002, 4.124465e+001
4.014889e+002, 4.056930e+001
4.019710e+002, 3.988971e+001
4.024532e+002, 3.953374e+001
4.029353e+002, 3.982615e+001
4.034174e+002, 4.029330e+001
4.038995e+002, 4.037249e+001
4.043816e+002, 3.995049e+001
4.048637e+002, 3.950829e+001
4.053459e+002, 3.986246e+001
4.058280e+002, 4.147232e+001
4.063101e+002, 4.229284e+001
4.067922e+002, 4.147852e+001
4.072743e+002, 4.065306e+001
4.077564e+002, 4.050845e+001
4.082386e+002, 4.094872e+001
4.087207e+002, 4.155214e+001
4.092028e+002, 4.209994e+001
4.096849e+002, 4.254066e+001
4.101670e+002, 4.259075e+001
4.106491e+002, 4.198711e+001
4.111313e+002, 4.146885e+001
4.116134e+002, 4.132915e+001
4.120955e+002, 4.135017e+001
4.125776e+002, 4.129624e+001
4.130597e+002, 4.109053e+001
4.135418e+002, 4.086946e+001
4.140240e+002, 4.072093e+001
4.145061e+002, 4.063515e+001
4.149882e+002, 4.095692e+001
4.154703e+002, 4.230874e+001
4.159524e+002, 4.347261e+001
4.164345e+002, 4.334522e+001
4.169167e+002, 4.211227e+001
4.173988e+002, 4.095422e+001
4.178809e+002, 4.048406e+001
4.183630e+002, 4.051019e+001
4.188451e+002, 4.072312e+001
4.193272e+002, 4.117291e+001
4.198094e+002, 4.150550e+001
4.202915e+002, 4.136267e+001
4.207736e+002, 4.098378e+001
4.212557e+002, 4.089347e+001
4.217378e+002, 4.141663e+001
4.222199e+002, 4.182032e+001
4.227021e+002, 4.137626e+001
4.231842e+002, 4.035746e+001
4.236663e+002, 3.974243e+001
4.241484e+002, 3.992936e+001
4.246305e+002, 4.043690e+001
4.251126e+002, 4.044262e+001
4.255948e+002, 3.984483e+001
4.260769e+002, 3.961692e+001
4.265590e+002, 4.015244e+001
4.270411e+002, 4.099241e+001
4.275232e+002, 4.187543e+001
4.280053e+002, 4.271028e+001
4.284875e+002, 4.314779e+001
4.289695e+002, 4.282563e+001
4.294517e+002, 4.182496e+001
4.299338e+002, 4.131110e+001
4.304159e+002, 4.179710e+001
4.308980e+002, 4.207473e+001
4.313801e+002, 4.158303e+001
4.318622e+002, 4.073907e+001
4.323444e+002, 4.019909e+001
4.328265e+002, 4.020000e+001
4.333086e+002, 4.042810e+001
4.337907e+002, 4.032197e+001
4.342728e+002, 3.958554e+001
4.347549e+002, 3.921837e+001
4.352371e+002, 3.948734e+001
4.357192e+002, 3.984040e+001
4.362013e+002, 3.998303e+001
4.366834e+002, 3.992101e+001
4.371655e+002, 3.978473e+001
4.376476e+002, 3.964738e+001
4.381298e+002, 3.953142e+001
4.386119e+002, 3.961084e+001
4.390940e+002, 4.008504e+001
4.395761e+002, 4.045759e+001
4.400582e+002, 4.065763e+001
4.405403e+002, 4.070403e+001
4.410225e+002, 4.050047e+001
4.415046e+002, 4.003073e+001
4.419867e+002, 3.968246e+001
4.424688e+002, 4.012023e+001
4.429509e+002, 4.143904e+001
4.434330e+002, 4.225827e+001
4.439152e+002, 4.225510e+001
4.443973e+002, 4.188677e+001
4.448794e+002, 4.111597e+001
4.453615e+002, 4.018493e+001
4.458436e+002, 3.984338e+001
4.463257e+002, 4.104789e+001
4.468079e+002, 4.273699e+001
4.472900e+002, 4.278035e+001
4.477721e+002, 4.094438e+001
4.482542e+002, 3.941941e+001
4.487363e+002, 3.931786e+001
4.492184e+002, 4.007271e+001
4.497006e+002, 4.076261e+001
4.501827e+002, 4.137938e+001
4.506648e+002, 4.185977e+001
4.511469e+002, 4.210807e+001
4.516290e+002, 4.220712e+001
4.521111e+002, 4.235163e+001
4.525933e+002, 4.259330e+001
4.530754e+002, 4.275573e+001
4.535575e+002, 4.260381e+001
4.540396e+002, 4.212379e+001
4.545217e+002, 4.186371e+001
4.550038e+002, 4.180281e+001
4.554860e+002, 4.199179e+001
4.559681e+002, 4.269610e+001
4.564502e+002, 4.367978e+001
4.569323e+002, 4.436242e+001
4.574144e+002, 4.444931e+001
4.578965e+002, 4.414109e+001
4.583787e+002, 4.390081e+001
4.588608e+002, 4.379625e+001
4.593429e+002, 4.365919e+001
4.598250e+002, 4.354817e+001
4.603071e+002, 4.336377e+001
4.607892e+002, 4.288019e+001
4.612714e+002, 4.218940e+001
4.617535e+002, 4.171903e+001
4.622356e+002, 4.186532e+001
4.627177e+002, 4.259470e+001
4.631998e+002, 4.327742e+001
4.636819e+002, 4.397379e+001
4.641641e+002, 4.453777e+001
4.646462e+002, 4.489386e+001
4.651283e+002, 4.513236e+001
4.656104e+002, 4.544575e+001
4.660925e+002, 4.589361e+001
4.665746e+002, 4.611384e+001
4.670568e+002, 4.553737e+001
4.675389e+002, 4.409699e+001
4.680210e+002, 4.260561e+001
4.685031e+002, 4.061381e+001
4.689852e+002, 3.923811e+001
4.694673e+002, 3.942926e+001
4.699495e+002, 4.075150e+001
4.704316e+002, 4.193915e+001
4.709137e+002, 4.230766e+001
4.713958e+002, 4.230017e+001
4.718779e+002, 4.268233e+001
4.723600e+002, 4.347971e+001
4.728422e+002, 4.393166e+001
4.733243e+002, 4.357171e+001
4.738064e+002, 4.280683e+001
4.742885e+002, 4.225650e+001
4.747706e+002, 4.189524e+001
4.752527e+002, 4.184289e+001
4.757349e+002, 4.244092e+001
4.762170e+002, 4.324917e+001
4.766991e+002, 4.357507e+001
4.771812e+002, 4.333962e+001
4.776633e+002, 4.312219e+001
4.781454e+002, 4.346711e+001
4.786276e+002, 4.431442e+001
4.791097e+002, 4.462980e+001
4.795918e+002, 4.383511e+001
4.800739e+002, 4.326067e+001
4.805560e+002, 4.348555e+001
4.810381e+002, 4.413255e+001
4.815203e+002, 4.468784e+001
4.820024e+002, 4.497317e+001
4.824845e+002, 4.508988e+001
4.829666e+002, 4.515400e+001
4.834487e+002, 4.507767e+001
4.839308e+002, 4.526293e+001
4.844130e+002, 4.644822e+001
4.848951e+002, 4.714519e+001
4.853772e+002, 4.608496e+001
4.858593e+002, 4.410463e+001
4.863414e+002, 4.303005e+001
4.868235e+002, 4.397415e+001
4.873057e+002, 4.604945e+001
4.877878e+002, 4.714507e+001
4.882699e+002, 4.701501e+001
4.887520e+002, 4.670150e+001
4.892341e+002, 4.601701e+001
4.897162e+002, 4.552572e+001
4.901984e+002, 4.577966e+001
4.906805e+002, 4.671580e+001
4.911626e+002, 4.755904e+001
4.916447e+002, 4.761914e+001
4.921268e+002, 4.725741e+001
4.926089e+002, 4.732686e+001
4.930910e+002, 4.788217e+001
4.935732e+002, 4.870582e+001
4.940553e+002, 4.982278e+001
4.945374e+002, 5.107858e+001
4.950195e+002, 5.220179e+001
4.955016e+002, 5.332219e+001
4.959837e+002, 5.399250e+001
4.964659e+002, 5.346287e+001
4.969480e+002, 5.249251e+001
4.974301e+002, 5.245911e+001
4.979122e+002, 5.366117e+001
4.983943e+002, 5.530040e+001
4.988764e+002, 5.661802e+001
4.993586e+002, 5.759018e+001
4.998407e+002, 5.868089e+001
5.003228e+002, 6.002720e+001
5.008049e+002, 6.133569e+001
5.012870e+002, 6.242915e+001
5.017691e+002, 6.343684e+001
5.022513e+002, 6.459145e+001
5.027334e+002, 6.597420e+001
5.032155e+002, 6.746377e+001
5.036976e+002, 6.879242e+001
5.041797e+002, 6.969962e+001
5.046618e+002, 7.121812e+001
5.051440e+002, 7.362056e+001
5.056261e+002, 7.635949e+001
5.061082e+002, 7.934795e+001
5.065903e+002, 8.249421e+001
5.070724e+002, 8.569753e+001
5.075545e+002, 8.891722e+001
5.080367e+002, 9.208762e+001
5.085188e+002, 9.507531e+001
5.090009e+002, 9.785210e+001
5.094830e+002, 1.005641e+002
5.099651e+002, 1.031805e+002
5.104472e+002, 1.058009e+002
5.109294e+002, 1.088878e+002
5.114115e+002, 1.123457e+002
5.118936e+002, 1.148004e+002
5.123757e+002, 1.154447e+002
5.128578e+002, 1.148044e+002
5.133400e+002, 1.134262e+002
5.138221e+002, 1.113510e+002
5.143042e+002, 1.091495e+002
5.147863e+002, 1.072448e+002
5.152684e+002, 1.053290e+002
5.157505e+002, 1.024389e+002
5.162327e+002, 9.822902e+001
5.167148e+002, 9.395748e+001
5.171969e+002, 8.956831e+001
5.176790e+002, 8.545624e+001
5.181611e+002, 8.229818e+001
5.186432e+002, 8.001645e+001
5.191254e+002, 7.757372e+001
5.196075e+002, 7.396059e+001
5.200896e+002, 6.934721e+001
5.205717e+002, 6.596960e+001
5.210538e+002, 6.500547e+001
5.215359e+002, 6.391644e+001
5.220180e+002, 6.199197e+001
5.225001e+002, 6.001191e+001
5.229822e+002, 5.904427e+001
5.234644e+002, 5.919851e+001
5.239465e+002, 5.924664e+001
5.244286e+002, 5.758218e+001
5.249107e+002, 5.423790e+001
5.253928e+002, 5.171837e+001
5.258749e+002, 5.028908e+001
5.263571e+002, 4.925444e+001
5.268392e+002, 4.831504e+001
5.273213e+002, 4.751899e+001
5.278034e+002, 4.696801e+001
5.282855e+002, 4.672965e+001
5.287676e+002, 4.659702e+001
5.292498e+002, 4.646758e+001
5.297319e+002, 4.630982e+001
5.302140e+002, 4.598756e+001
5.306961e+002, 4.544345e+001
5.311782e+002, 4.485369e+001
5.316603e+002, 4.433584e+001
5.321425e+002, 4.390385e+001
5.326246e+002, 4.368325e+001
5.331067e+002, 4.394265e+001
5.335888e+002, 4.413437e+001
5.340709e+002, 4.375062e+001
5.345530e+002, 4.317558e+001
5.350352e+002, 4.329026e+001
5.355173e+002, 4.437736e+001
5.359994e+002, 4.555752e+001
5.364815e+002, 4.545391e+001
5.369636e+002, 4.353822e+001
5.374457e+002, 4.245306e+001
5.379279e+002, 4.268304e+001
5.384100e+002, 4.318243e+001
5.388921e+002, 4.376022e+001
5.393742e+002, 4.430818e+001
5.398563e+002, 4.472092e+001
5.403384e+002, 4.495641e+001
5.408206e+002, 4.500627e+001
5.413027e+002, 4.476842e+001
5.417848e+002, 4.420633e+001
5.422669e+002, 4.386908e+001
5.427490e+002, 4.401165e+001
5.432311e+002, 4.417812e+001
5.437133e+002, 4.401345e+001
5.441954e+002, 4.360385e+001
5.446775e+002, 4.322158e+001
5.451596e+002, 4.305592e+001
5.456417e+002, 4.285690e+001
5.461238e+002, 4.220811e+001
5.466060e+002, 4.126953e+001
5.470881e+002, 4.081289e+001
5.475702e+002, 4.119541e+001
5.480523e+002, 4.182566e+001
5.485344e+002, 4.188291e+001
5.490165e+002, 4.122815e+001
5.494987e+002, 4.047520e+001
5.499808e+002, 3.919488e+001
5.504629e+002, 3.822662e+001
5.509450e+002, 3.811911e+001
5.514271e+002, 3.867617e+001
5.519092e+002, 3.957470e+001
5.523914e+002, 4.067004e+001
5.528735e+002, 4.166203e+001
5.533556e+002, 4.191185e+001
5.538377e+002, 4.119622e+001
5.543198e+002, 4.038277e+001
5.548019e+002, 3.899222e+001
5.552841e+002, 3.799306e+001
5.557662e+002, 3.800567e+001
5.562483e+002, 3.874051e+001
5.567304e+002, 3.958678e+001
5.572125e+002, 4.044406e+001
5.576946e+002, 4.091437e+001
5.581768e+002, 4.004271e+001
5.586589e+002, 3.789137e+001
5.591410e+002, 3.654575e+001
5.596231e+002, 3.677647e+001
5.601052e+002, 3.760358e+001
5.605873e+002, 3.812965e+001
5.610695e+002, 3.837244e+001
5.615516e+002, 3.824575e+001
5.620337e+002, 3.732333e+001
5.625158e+002, 3.639887e+001
5.629979e+002, 3.595193e+001
5.634800e+002, 3.594923e+001
5.639622e+002, 3.640045e+001
5.644443e+002, 3.733941e+001
5.649264e+002, 3.825880e+001
5.654085e+002, 3.824725e+001
5.658906e+002, 3.673437e+001
5.663727e+002, 3.612152e+001
5.668549e+002, 3.731240e+001
5.673370e+002, 3.833425e+001
5.678191e+002, 3.821785e+001
5.683012e+002, 3.738735e+001
5.687833e+002, 3.661244e+001
5.692654e+002, 3.622623e+001
5.697476e+002, 3.613353e+001
5.702297e+002, 3.636638e+001
5.707118e+002, 3.697628e+001
5.711939e+002, 3.693893e+001
5.716760e+002, 3.555836e+001
5.721581e+002, 3.432802e+001
5.726403e+002, 3.441442e+001
5.731224e+002, 3.543589e+001
5.736045e+002, 3.650268e+001
5.740866e+002, 3.764478e+001
5.745687e+002, 3.843290e+001
5.750508e+002, 3.829803e+001
5.755330e+002, 3.755645e+001
5.760151e+002, 3.705321e+001
5.764972e+002, 3.702470e+001
5.769793e+002, 3.713827e+001
5.774614e+002, 3.702885e+001
5.779435e+002, 3.667251e+001
5.784257e+002, 3.635203e+001
5.789078e+002, 3.571130e+001
5.793899e+002, 3.550719e+001
5.798720e+002, 3.642986e+001
5.803541e+002, 3.773829e+001
5.808362e+002, 3.852488e+001
5.813184e+002, 3.850869e+001
5.818005e+002, 3.799235e+001
5.822826e+002, 3.718909e+001
5.827647e+002, 3.608478e+001
5.832468e+002, 3.540819e+001
5.837289e+002, 3.524723e+001
5.842111e+002, 3.538510e+001
5.846932e+002, 3.620800e+001
5.851753e+002, 3.706126e+001
5.856574e+002, 3.692811e+001
5.861395e+002, 3.541259e+001
5.866216e+002, 3.398143e+001
5.871038e+002, 3.374882e+001
5.875859e+002, 3.430121e+001
5.880680e+002, 3.486909e+001
5.885501e+002, 3.535395e+001
5.890322e+002, 3.568531e+001
5.895143e+002, 3.578667e+001
5.899965e+002, 3.569590e+001
5.904786e+002, 3.560543e+001
5.909607e+002, 3.550449e+001
5.914428e+002, 3.541780e+001
5.919249e+002, 3.541727e+001
5.924070e+002, 3.538663e+001
5.928892e+002, 3.513451e+001
5.933713e+002, 3.471557e+001
5.938534e+002, 3.446965e+001
5.943355e+002, 3.474168e+001
5.948176e+002, 3.529831e+001
5.952997e+002, 3.496794e+001
5.957819e+002, 3.309879e+001
5.962640e+002, 3.203738e+001
5.967461e+002, 3.298052e+001
5.972282e+002, 3.449031e+001
5.977103e+002, 3.590262e+001
5.981924e+002, 3.707444e+001
5.986746e+002, 3.753384e+001
5.991567e+002, 3.652481e+001
5.996388e+002, 3.499855e+001
6.001209e+002, 3.422805e+001
6.006030e+002, 3.412296e+001
6.010851e+002, 3.389867e+001
6.015673e+002, 3.316330e+001
6.020494e+002, 3.240994e+001
6.025315e+002, 3.250004e+001
6.030136e+002, 3.383281e+001
6.034957e+002, 3.463097e+001
6.039778e+002, 3.437629e+001
6.044600e+002, 3.410854e+001
6.049421e+002, 3.450483e+001
6.054242e+002, 3.522642e+001
6.059063e+002, 3.552538e+001
6.063884e+002, 3.510841e+001
6.068705e+002, 3.453936e+001
6.073527e+002, 3.482975e+001
6.078348e+002, 3.614106e+001
6.083169e+002, 3.671267e+001
6.087990e+002, 3.599333e+001
6.092811e+002, 3.526267e+001
6.097632e+002, 3.518548e+001
6.102454e+002, 3.550370e+001
6.107275e+002, 3.585545e+001
6.112096e+002, 3.621402e+001
6.116917e+002, 3.643380e+001
6.121738e+002, 3.659825e+001
6.126559e+002, 3.650795e+001
6.131381e+002, 3.539564e+001
6.136202e+002, 3.318665e+001
6.141023e+002, 3.159211e+001
6.145844e+002, 3.208241e+001
6.150665e+002, 3.419125e+001
6.155486e+002, 3.522639e+001
6.160308e+002, 3.366703e+001
6.165129e+002, 3.308879e+001
6.169950e+002, 3.476737e+001
6.174771e+002, 3.675966e+001
6.179592e+002, 3.757989e+001
6.184413e+002, 3.717639e+001
6.189235e+002, 3.618291e+001
6.194056e+002, 3.489301e+001
6.198877e+002, 3.354276e+001
6.203698e+002, 3.274406e+001
6.208519e+002, 3.253878e+001
6.213340e+002, 3.269772e+001
6.218162e+002, 3.348971e+001
6.222983e+002, 3.427217e+001
6.227804e+002, 3.442638e+001
6.232625e+002, 3.403124e+001
6.237446e+002, 3.358126e+001
6.242267e+002, 3.315774e+001
6.247089e+002, 3.277626e+001
6.251910e+002, 3.234626e+001
6.256731e+002, 3.197693e+001
6.261552e+002, 3.200480e+001
6.266373e+002, 3.253224e+001
6.271194e+002, 3.312027e+001
6.276016e+002, 3.319527e+001
6.280837e+002, 3.267525e+001
6.285658e+002, 3.253915e+001
6.290479e+002, 3.346043e+001
6.295300e+002, 3.398333e+001
6.300121e+002, 3.346229e+001
6.304943e+002, 3.259557e+001
6.309764e+002, 3.218515e+001
6.314585e+002, 3.236808e+001
6.319406e+002, 3.260020e+001
6.324227e+002, 3.236979e+001
6.329048e+002, 3.183445e+001
6.333870e+002, 3.136112e+001
6.338691e+002, 3.091572e+001
6.343512e+002, 3.102132e+001
6.348333e+002, 3.226725e+001
6.353154e+002, 3.386940e+001
6.357975e+002, 3.415856e+001
6.362797e+002, 3.282551e+001
6.367618e+002, 3.201294e+001
6.372439e+002, 3.251267e+001
6.377260e+002, 3.323081e+001
6.382081e+002, 3.351401e+001
6.386902e+002, 3.338860e+001
6.391724e+002, 3.294913e+001
6.396545e+002, 3.224004e+001
6.401366e+002, 3.158868e+001
6.406187e+002, 3.159527e+001
6.411008e+002, 3.240329e+001
6.415829e+002, 3.310126e+001
6.420651e+002, 3.388617e+001
6.425472e+002, 3.425533e+001
6.430293e+002, 3.347743e+001
6.435114e+002, 3.237423e+001
6.439935e+002, 3.237656e+001
6.444756e+002, 3.408441e+001
6.449578e+002, 3.545597e+001
6.454398e+002, 3.464639e+001
6.459219e+002, 3.281121e+001
6.464041e+002, 3.199029e+001
6.468862e+002, 3.235062e+001
6.473683e+002, 3.305225e+001
6.478504e+002, 3.368348e+001
6.483325e+002, 3.410002e+001
6.488146e+002, 3.380921e+001
6.492968e+002, 3.175252e+001
6.497789e+002, 3.075476e+001
6.502610e+002, 3.168879e+001
6.507431e+002, 3.280294e+001
6.512252e+002, 3.300808e+001
6.517073e+002, 3.258208e+001
6.521895e+002, 3.235500e+001
6.526716e+002, 3.274999e+001
6.531537e+002, 3.334195e+001
6.536358e+002, 3.350918e+001
6.541179e+002, 3.329026e+001
6.546000e+002, 3.316013e+001
6.550822e+002, 3.320563e+001
6.555643e+002, 3.328350e+001
6.560464e+002, 3.331030e+001
6.565285e+002, 3.328221e+001
6.570106e+002, 3.319259e+001
6.574927e+002, 3.290128e+001
6.579749e+002, 3.277555e+001
6.584570e+002, 3.323876e+001
6.589391e+002, 3.370333e+001
6.594212e+002, 3.340036e+001
6.599033e+002, 3.245303e+001
6.603854e+002, 3.168582e+001
6.608676e+002, 3.167737e+001
6.613497e+002, 3.214260e+001
6.618318e+002, 3.227353e+001
6.623139e+002, 3.197366e+001
6.627960e+002, 3.169923e+001
6.632781e+002, 3.141460e+001
6.637603e+002, 3.128040e+001
6.642424e+002, 3.150117e+001
6.647245e+002, 3.194004e+001
6.652066e+002, 3.223540e+001
6.656887e+002, 3.226080e+001
6.661708e+002, 3.217001e+001
6.666530e+002, 3.196846e+001
6.671351e+002, 3.175551e+001
6.676172e+002, 3.184189e+001
6.680993e+002, 3.223716e+001
6.685814e+002, 3.236832e+001
6.690635e+002, 3.171100e+001
6.695457e+002, 3.046730e+001
6.700278e+002, 2.976418e+001
6.705099e+002, 2.983286e+001
6.709920e+002, 3.007624e+001
6.714741e+002, 3.060646e+001
6.719562e+002, 3.114116e+001
6.724384e+002, 3.147392e+001
6.729205e+002, 3.165308e+001
6.734026e+002, 3.189018e+001
6.738847e+002, 3.238473e+001
6.743668e+002, 3.277784e+001
6.748489e+002, 3.244894e+001
6.753311e+002, 3.158779e+001
6.758132e+002, 3.115142e+001
6.762953e+002, 3.139304e+001
6.767774e+002, 3.160066e+001
6.772595e+002, 3.101663e+001
6.777416e+002, 2.982514e+001
6.782238e+002, 2.959719e+001
6.787059e+002, 3.143090e+001
6.791880e+002, 3.263375e+001
6.796701e+002, 3.233686e+001
6.801522e+002, 3.167130e+001
6.806343e+002, 3.152518e+001
6.811165e+002, 3.189026e+001
6.815986e+002, 3.232645e+001
6.820807e+002, 3.259710e+001
6.825628e+002, 3.269548e+001
6.830449e+002, 3.249238e+001
6.835270e+002, 3.199131e+001
6.840092e+002, 3.183990e+001
6.844913e+002, 3.231820e+001
6.849734e+002, 3.280285e+001
6.854555e+002, 3.273907e+001
6.859376e+002, 3.223547e+001
6.864197e+002, 3.185571e+001
6.869019e+002, 3.151728e+001
6.873840e+002, 3.143937e+001
6.878661e+002, 3.201091e+001
6.883482e+002, 3.265543e+001
6.888303e+002, 3.262044e+001
6.893124e+002, 3.202923e+001
6.897946e+002, 3.175840e+001
6.902767e+002, 3.245991e+001
6.907588e+002, 3.357616e+001
6.912409e+002, 3.367316e+001
6.917230e+002, 3.256824e+001
6.922051e+002, 3.158048e+001
6.926873e+002, 3.081501e+001
6.931694e+002, 3.030718e+001
6.936515e+002, 3.013588e+001
6.941336e+002, 3.023011e+001
6.946157e+002, 3.049565e+001
6.950978e+002, 3.115976e+001
6.955800e+002, 3.153077e+001
6.960621e+002, 3.107168e+001
6.965442e+002, 3.026589e+001
6.970263e+002, 2.946310e+001
6.975084e+002, 2.885021e+001
6.979905e+002, 2.899175e+001
6.984727e+002, 3.034253e+001
6.989548e+002, 3.224569e+001
6.994369e+002, 3.291227e+001
6.999190e+002, 3.187877e+001
7.004011e+002, 3.127481e+001
7.008832e+002, 3.164132e+001
7.013654e+002, 3.199753e+001
7.018475e+002, 3.173577e+001
7.023296e+002, 3.113761e+001
7.028117e+002, 3.073912e+001
7.032938e+002, 3.069229e+001
7.037759e+002, 3.072718e+001
7.042581e+002, 3.066257e+001
7.047402e+002, 3.059825e+001
7.052223e+002, 3.072999e+001
7.057044e+002, 3.102806e+001
7.061865e+002, 3.126754e+001
7.066686e+002, 3.133195e+001
7.071508e+002, 3.120150e+001
7.076329e+002, 3.072186e+001
7.081150e+002, 2.948316e+001
7.085971e+002, 2.911740e+001
7.090792e+002, 3.060037e+001
7.095613e+002, 3.185456e+001
7.100435e+002, 3.185708e+001
7.105256e+002, 3.122004e+001
7.110077e+002, 3.086424e+001
7.114898e+002, 3.101069e+001
7.119719e+002, 3.123727e+001
7.124540e+002, 3.126640e+001
7.129362e+002, 3.121861e+001
7.134183e+002, 3.131383e+001
7.139004e+002, 3.151955e+001
7.143825e+002, 3.153943e+001
7.148646e+002, 3.120157e+001
7.153467e+002, 3.083615e+001
7.158289e+002, 3.107858e+001
7.163110e+002, 3.217072e+001
7.167931e+002, 3.274683e+001
7.172752e+002, 3.233982e+001
7.177573e+002, 3.195855e+001
7.182394e+002, 3.200542e+001
7.187216e+002, 3.215643e+001
7.192037e+002, 3.193116e+001
7.196858e+002, 3.127094e+001
7.201679e+002, 3.081699e+001
7.206500e+002, 3.126342e+001
7.211321e+002, 3.194901e+001
7.216143e+002, 3.201451e+001
7.220964e+002, 3.151071e+001
7.225785e+002, 3.061113e+001
7.230606e+002, 2.932876e+001
7.235427e+002, 2.826901e+001
7.240248e+002, 2.825991e+001
7.245070e+002, 2.937225e+001
7.249891e+002, 3.031668e+001
7.254712e+002, 3.122486e+001
7.259533e+002, 3.176807e+001
7.264354e+002, 3.163108e+001
7.269175e+002, 3.130815e+001
7.273997e+002, 3.127123e+001
7.278818e+002, 3.150706e+001
7.283639e+002, 3.161262e+001
7.288460e+002, 3.129893e+001
7.293281e+002, 3.083627e+001
7.298102e+002, 3.046636e+001
7.302924e+002, 3.019918e+001
7.307745e+002, 3.007651e+001
7.312566e+002, 3.010810e+001
7.317387e+002, 3.025579e+001
7.322208e+002, 3.052813e+001
7.327029e+002, 3.087504e+001
7.331851e+002, 3.090004e+001
7.336672e+002, 3.021818e+001
7.341493e+002, 2.988415e+001
7.346314e+002, 3.023921e+001
7.351135e+002, 3.072642e+001
7.355956e+002, 3.108512e+001
7.360778e+002, 3.128942e+001
7.365599e+002, 3.132630e+001
7.370420e+002, 3.111117e+001
7.375241e+002, 3.092010e+001
7.380062e+002, 3.115240e+001
7.384883e+002, 3.152497e+001
7.389705e+002, 3.126722e+001
7.394526e+002, 3.038959e+001
7.399347e+002, 3.001969e+001
7.404168e+002, 3.098894e+001
7.408989e+002, 3.261113e+001
7.413810e+002, 3.301805e+001
7.418632e+002, 3.150280e+001
7.423453e+002, 3.058799e+001
7.428274e+002, 3.071037e+001
7.433095e+002, 3.099209e+001
7.437916e+002, 3.126645e+001
7.442737e+002, 3.142844e+001
7.447559e+002, 3.128106e+001
7.452380e+002, 3.074959e+001
7.457201e+002, 3.026037e+001
7.462022e+002, 3.000335e+001
7.466843e+002, 2.996585e+001
7.471664e+002, 3.036616e+001
7.476486e+002, 3.100947e+001
7.481307e+002, 3.112380e+001
7.486128e+002, 3.039235e+001
7.490949e+002, 2.933840e+001
7.495770e+002, 2.860830e+001
7.500591e+002, 2.818336e+001
7.505413e+002, 2.844366e+001
7.510234e+002, 2.997307e+001
7.515055e+002, 3.115585e+001
7.519876e+002, 3.147418e+001
7.524697e+002, 3.129035e+001
7.529518e+002, 3.064410e+001
7.534340e+002, 2.963966e+001
7.539161e+002, 2.904680e+001
7.543982e+002, 2.917694e+001
7.548803e+002, 2.976490e+001
7.553624e+002, 3.116353e+001
7.558445e+002, 3.270294e+001
7.563267e+002, 3.306548e+001
7.568088e+002, 3.212166e+001
7.572909e+002, 3.098390e+001
7.577730e+002, 3.054473e+001
7.582551e+002, 3.059903e+001
7.587372e+002, 3.037497e+001
7.592194e+002, 2.975329e+001
7.597015e+002, 2.939188e+001
7.601836e+002, 2.953917e+001
7.606657e+002, 2.975950e+001
7.611478e+002, 2.973537e+001
7.616299e+002, 2.956271e+001
7.621121e+002, 2.943592e+001
7.625942e+002, 2.933362e+001
7.630763e+002, 2.937721e+001
7.635584e+002, 2.945480e+001
7.640405e+002, 2.981770e+001
7.645226e+002, 3.114244e+001
7.650048e+002, 3.293148e+001
7.654869e+002, 3.383651e+001
7.659690e+002, 3.325723e+001
7.664511e+002, 3.200071e+001
7.669332e+002, 3.103413e+001
7.674153e+002, 3.036049e+001
7.678975e+002, 3.011052e+001
7.683795e+002, 3.041584e+001
7.688616e+002, 3.056725e+001
7.693438e+002, 3.017193e+001
7.698259e+002, 2.957820e+001
7.703080e+002, 2.938069e+001
7.707901e+002, 2.965029e+001
7.712722e+002, 2.954508e+001
7.717543e+002, 2.832778e+001
7.722365e+002, 2.753470e+001
7.727186e+002, 2.838408e+001
7.732007e+002, 2.962235e+001
7.736828e+002, 2.958443e+001
7.741649e+002, 2.825797e+001
7.746470e+002, 2.708870e+001
7.751292e+002, 2.713288e+001
7.756113e+002, 2.786810e+001
7.760934e+002, 2.853306e+001
7.765755e+002, 2.909634e+001
7.770576e+002, 2.924231e+001
7.775397e+002, 2.883714e+001
7.780219e+002, 2.857395e+001
7.785040e+002, 2.913087e+001
7.789861e+002, 3.019290e+001
7.794682e+002, 3.038794e+001
7.799503e+002, 2.844954e+001
7.804324e+002, 2.767358e+001
7.809146e+002, 2.919410e+001
7.813967e+002, 3.066516e+001
7.818788e+002, 3.087555e+001
7.823609e+002, 3.021047e+001
7.828430e+002, 2.927427e+001
7.833251e+002, 2.819063e+001
7.838073e+002, 2.751531e+001
7.842894e+002, 2.805066e+001
7.847715e+002, 2.901214e+001
7.852536e+002, 2.907164e+001
7.857357e+002, 2.841575e+001
7.862178e+002, 2.818193e+001
7.867000e+002, 2.880953e+001
7.871821e+002, 2.969093e+001
7.876642e+002, 3.009997e+001
7.881463e+002, 3.003659e+001
7.886284e+002, 2.960913e+001
7.891105e+002, 2.836469e+001
7.895927e+002, 2.770356e+001
7.900748e+002, 2.843341e+001
7.905569e+002, 2.947210e+001
7.910390e+002, 3.000934e+001
7.915211e+002, 3.011969e+001
7.920032e+002, 3.026196e+001
7.924854e+002, 3.071701e+001
7.929675e+002, 3.097447e+001
7.934496e+002, 3.064236e+001
7.939317e+002, 3.007349e+001
7.944138e+002, 2.951696e+001
7.948959e+002, 2.910850e+001
7.953781e+002, 2.916459e+001
7.958602e+002, 2.988829e+001
7.963423e+002, 3.084775e+001
7.968244e+002, 3.131870e+001
7.973065e+002, 3.132778e+001
7.977886e+002, 3.139367e+001
7.982708e+002, 3.159634e+001
7.987529e+002, 3.159356e+001
7.992350e+002, 3.111586e+001
7.997171e+002, 3.046361e+001
8.001992e+002, 3.019938e+001
8.006813e+002, 3.049009e+001
8.011635e+002, 3.037008e+001
8.016456e+002, 2.935380e+001
8.021277e+002, 2.850757e+001
8.026098e+002, 2.823547e+001
8.030919e+002, 2.828713e+001
8.035740e+002, 2.836290e+001
8.040562e+002, 2.845146e+001
8.045383e+002, 2.880419e+001
8.050204e+002, 2.985526e+001
8.055025e+002, 3.082361e+001
8.059846e+002, 3.047932e+001
8.064667e+002, 2.926621e+001
8.069489e+002, 2.841310e+001
8.074310e+002, 2.813226e+001
8.079131e+002, 2.833024e+001
8.083952e+002, 2.901763e+001
8.088773e+002, 2.994441e+001
8.093594e+002, 3.043428e+001
8.098416e+002, 3.046524e+001
8.103237e+002, 3.010680e+001
8.108058e+002, 2.892146e+001
8.112879e+002, 2.794813e+001
8.117700e+002, 2.769048e+001
8.122521e+002, 2.785704e+001
8.127343e+002, 2.821819e+001
8.132164e+002, 2.878593e+001
8.136985e+002, 2.900773e+001
8.141806e+002, 2.812094e+001
8.146627e+002, 2.742195e+001
8.151448e+002, 2.814828e+001
8.156270e+002, 2.950725e+001
8.161091e+002, 3.023853e+001
8.165912e+002, 3.011114e+001
8.170733e+002, 2.964717e+001
8.175554e+002, 2.918658e+001
8.180375e+002, 2.878094e+001
8.185197e+002, 2.854373e+001
8.190018e+002, 2.847334e+001
8.194839e+002, 2.862267e+001
8.199660e+002, 2.910862e+001
8.204481e+002, 2.929134e+001
8.209302e+002, 2.862358e+001
8.214124e+002, 2.741496e+001
8.218945e+002, 2.656125e+001
8.223766e+002, 2.601171e+001
8.228587e+002, 2.594206e+001
8.233408e+002, 2.662489e+001
8.238229e+002, 2.745335e+001
8.243051e+002, 2.836508e+001
8.247872e+002, 2.918866e+001
8.252693e+002, 2.973630e+001
8.257514e+002, 2.997258e+001
8.262335e+002, 2.992766e+001
8.267156e+002, 2.955522e+001
8.271978e+002, 2.896502e+001
8.276799e+002, 2.785099e+001
8.281620e+002, 2.670145e+001
8.286441e+002, 2.691343e+001
8.291262e+002, 2.857439e+001
8.296083e+002, 3.000430e+001
8.300905e+002, 2.986765e+001
8.305726e+002, 2.864286e+001
8.310547e+002, 2.747834e+001
8.315368e+002, 2.627020e+001
8.320189e+002, 2.621288e+001
8.325010e+002, 2.799102e+001
8.329832e+002, 2.959979e+001
8.334653e+002, 2.971729e+001
8.339474e+002, 2.899520e+001
8.344295e+002, 2.891461e+001
8.349116e+002, 2.974270e+001
8.353937e+002, 3.006433e+001
8.358759e+002, 2.929575e+001
8.363580e+002, 2.853574e+001
8.368401e+002, 2.831030e+001
8.373222e+002, 2.832690e+001
8.378043e+002, 2.818334e+001
8.382864e+002, 2.785508e+001
8.387686e+002, 2.764702e+001
8.392507e+002, 2.775924e+001
8.397328e+002, 2.805746e+001
8.402149e+002, 2.860708e+001
8.406970e+002, 2.917940e+001
8.411791e+002, 2.903411e+001
8.416613e+002, 2.814092e+001
8.421434e+002, 2.729752e+001
8.426255e+002, 2.699687e+001
8.431076e+002, 2.713974e+001
8.435897e+002, 2.754653e+001
8.440718e+002, 2.825484e+001
8.445540e+002, 2.904638e+001
8.450361e+002, 3.012130e+001
8.455182e+002, 3.084788e+001
8.460003e+002, 3.093971e+001
8.464824e+002, 3.056197e+001
8.469645e+002, 2.967542e+001
8.474467e+002, 2.824720e+001
8.479288e+002, 2.768566e+001
8.484109e+002, 2.919056e+001
8.488930e+002, 3.027946e+001
8.493751e+002, 2.949444e+001
8.498572e+002, 2.833795e+001
8.503394e+002, 2.844199e+001
8.508215e+002, 2.961109e+001
8.513036e+002, 3.059260e+001
8.517857e+002, 3.081311e+001
8.522678e+002, 3.054459e+001
8.527499e+002, 2.987492e+001
8.532321e+002, 2.899581e+001
8.537142e+002, 2.818549e+001
8.541963e+002, 2.753279e+001
8.546784e+002, 2.749754e+001
8.551605e+002, 2.831578e+001
8.556426e+002, 2.939011e+001
8.561248e+002, 2.992278e+001
8.566069e+002, 2.991954e+001
8.570890e+002, 2.962082e+001
8.575711e+002, 2.879533e+001
8.580532e+002, 2.838988e+001
8.585353e+002, 2.893734e+001
8.590175e+002, 2.961350e+001
8.594996e+002, 2.970785e+001
8.599817e+002, 2.931635e+001
8.604638e+002, 2.883565e+001
8.609459e+002, 2.819083e+001
8.614280e+002, 2.761267e+001
8.619102e+002, 2.694436e+001
8.623923e+002, 2.654115e+001
8.628744e+002, 2.671762e+001
8.633565e+002, 2.730280e+001
8.638386e+002, 2.814791e+001
8.643207e+002, 2.918459e+001
8.648029e+002, 2.978533e+001
8.652850e+002, 2.901229e+001
8.657671e+002, 2.785749e+001
8.662492e+002, 2.787575e+001
8.667313e+002, 2.866296e+001
8.672134e+002, 2.890101e+001
8.676956e+002, 2.832453e+001
8.681777e+002, 2.772642e+001
8.686598e+002, 2.775874e+001
8.691419e+002, 2.821689e+001
8.696240e+002, 2.853052e+001
8.701061e+002, 2.868439e+001
8.705883e+002, 2.885074e+001
8.710704e+002, 2.914951e+001
8.715525e+002, 2.915235e+001
8.720346e+002, 2.845354e+001
8.725167e+002, 2.746656e+001
8.729988e+002, 2.691377e+001
8.734810e+002, 2.684756e+001
8.739631e+002, 2.700291e+001
8.744452e+002, 2.768074e+001
8.749273e+002, 2.819871e+001
8.754094e+002, 2.837055e+001
8.758915e+002, 2.829057e+001
8.763737e+002, 2.782145e+001
8.768558e+002, 2.715796e+001
8.773379e+002, 2.700418e+001
8.778200e+002, 2.789216e+001
8.783021e+002, 2.873764e+001
8.787842e+002, 2.863740e+001
8.792664e+002, 2.810688e+001
8.797485e+002, 2.775871e+001
8.802306e+002, 2.761550e+001
8.807127e+002, 2.746958e+001
8.811948e+002, 2.724968e+001
8.816769e+002, 2.723077e+001
8.821591e+002, 2.795767e+001
8.826412e+002, 2.909919e+001
8.831233e+002, 2.892849e+001
8.836054e+002, 2.742470e+001
8.840875e+002, 2.712449e+001
8.845696e+002, 2.893706e+001
8.850518e+002, 3.070490e+001
8.855339e+002, 3.057117e+001
8.860160e+002, 2.902017e+001
8.864981e+002, 2.791265e+001
8.869802e+002, 2.723035e+001
8.874623e+002, 2.703648e+001
8.879445e+002, 2.760000e+001
8.884266e+002, 2.833897e+001
8.889087e+002, 2.947370e+001
8.893908e+002, 3.041964e+001
8.898729e+002, 3.014952e+001
8.903550e+002, 2.860649e+001
8.908372e+002, 2.779807e+001
8.913193e+002, 2.885859e+001
8.918014e+002, 3.006314e+001
8.922834e+002, 3.073075e+001
8.927656e+002, 3.099461e+001
8.932477e+002, 3.086714e+001
8.937298e+002, 3.049239e+001
8.942119e+002, 3.023123e+001
8.946940e+002, 3.026991e+001
8.951761e+002, 3.034553e+001
8.956583e+002, 2.992068e+001
8.961404e+002, 2.943423e+001
8.966225e+002, 3.000774e+001
8.971046e+002, 3.146259e+001
8.975867e+002, 3.262780e+001
8.980688e+002, 3.310259e+001
8.985510e+002, 3.323730e+001
8.990331e+002, 3.336423e+001
8.995152e+002, 3.349073e+001
8.999973e+002, 3.364368e+001
9.004794e+002, 3.381062e+001
9.009615e+002, 3.409427e+001
9.014437e+002, 3.455169e+001
9.019258e+002, 3.502442e+001
9.024079e+002, 3.540034e+001
9.028900e+002, 3.573376e+001
9.033721e+002, 3.615594e+001
9.038542e+002, 3.671147e+001
9.043364e+002, 3.720962e+001
9.048185e+002, 3.787371e+001
9.053006e+002, 3.820159e+001
9.057827e+002, 3.817898e+001
9.062648e+002, 3.766679e+001
9.067469e+002, 3.624078e+001
9.072291e+002, 3.413853e+001
9.077112e+002, 3.245416e+001
9.081933e+002, 3.163971e+001
9.086754e+002, 3.107376e+001
9.091575e+002, 3.048818e+001
9.096396e+002, 2.995182e+001
9.101218e+002, 2.954945e+001
9.106039e+002, 2.925498e+001
9.110860e+002, 2.899928e+001
9.115681e+002, 2.875906e+001
9.120502e+002, 2.854541e+001
9.125323e+002, 2.833385e+001
9.130145e+002, 2.818009e+001
9.134966e+002, 2.806442e+001
9.139787e+002, 2.808581e+001
9.144608e+002, 2.891090e+001
9.149429e+002, 3.059543e+001
9.154250e+002, 3.182769e+001
9.159072e+002, 3.166537e+001
9.163893e+002, 3.066143e+001
9.168714e+002, 2.999596e+001
9.173535e+002, 2.969471e+001
9.178356e+002, 2.948821e+001
9.183177e+002, 2.941119e+001
9.187999e+002, 2.929166e+001
9.192820e+002, 2.903139e+001
9.197641e+002, 2.876271e+001
9.202462e+002, 2.866499e+001
9.207283e+002, 2.872411e+001
9.212104e+002, 2.863086e+001
9.216926e+002, 2.803197e+001
9.221747e+002, 2.780316e+001
9.226568e+002, 2.828389e+001
9.231389e+002, 2.883650e+001
9.236210e+002, 2.930926e+001
9.241031e+002, 2.955661e+001
9.245853e+002, 2.924372e+001
9.250674e+002, 2.827165e+001
9.255495e+002, 2.756172e+001
9.260316e+002, 2.762707e+001
9.265137e+002, 2.782690e+001
9.269958e+002, 2.775742e+001
9.274780e+002, 2.762082e+001
9.279601e+002, 2.781885e+001
9.284422e+002, 2.822712e+001
9.289243e+002, 2.819099e+001
9.294064e+002, 2.729260e+001
9.298885e+002, 2.638890e+001
9.303707e+002, 2.646830e+001
9.308528e+002, 2.708369e+001
9.313349e+002, 2.761296e+001
9.318170e+002, 2.793821e+001
9.322991e+002, 2.771306e+001
9.327813e+002, 2.686881e+001
9.332634e+002, 2.595587e+001
9.337455e+002, 2.544663e+001
9.342276e+002, 2.536423e+001
9.347097e+002, 2.593552e+001
9.351918e+002, 2.714364e+001
9.356740e+002, 2.814400e+001
9.361561e+002, 2.886440e+001
9.366382e+002, 2.908874e+001
9.371203e+002, 2.858680e+001
9.376024e+002, 2.780080e+001
9.380845e+002, 2.747404e+001
9.385667e+002, 2.765499e+001
9.390488e+002, 2.769763e+001
9.395309e+002, 2.756921e+001
9.400130e+002, 2.736557e+001
9.404951e+002, 2.700650e+001
9.409772e+002, 2.668640e+001
9.414594e+002, 2.656067e+001
9.419415e+002, 2.658575e+001
9.424236e+002, 2.666779e+001
9.429057e+002, 2.687402e+001
9.433878e+002, 2.694802e+001
9.438699e+002, 2.652245e+001
9.443521e+002, 2.635032e+001
9.448342e+002, 2.718960e+001
9.453163e+002, 2.817375e+001
9.457984e+002, 2.809214e+001
9.462805e+002, 2.708547e+001
9.467626e+002, 2.661836e+001
9.472448e+002, 2.769283e+001
9.477269e+002, 2.858233e+001
9.482090e+002, 2.791012e+001
9.486911e+002, 2.679144e+001
9.491732e+002, 2.639507e+001
9.496553e+002, 2.653167e+001
9.501375e+002, 2.653564e+001
9.506196e+002, 2.621644e+001
9.511017e+002, 2.592124e+001
9.515838e+002, 2.590509e+001
9.520659e+002, 2.611375e+001
9.525480e+002, 2.664005e+001
9.530302e+002, 2.729382e+001
9.535123e+002, 2.743531e+001
9.539944e+002, 2.706672e+001
9.544765e+002, 2.690024e+001
9.549586e+002, 2.733295e+001
9.554407e+002, 2.790178e+001
9.559229e+002, 2.786802e+001
9.564050e+002, 2.731523e+001
9.568871e+002, 2.673573e+001
9.573692e+002, 2.611015e+001
9.578513e+002, 2.622012e+001
9.583334e+002, 2.743089e+001
9.588156e+002, 2.843548e+001
9.592977e+002, 2.809690e+001
9.597798e+002, 2.691638e+001
9.602619e+002, 2.647323e+001
9.607440e+002, 2.713710e+001
9.612261e+002, 2.706777e+001
9.617083e+002, 2.563409e+001
9.621904e+002, 2.486987e+001
9.626725e+002, 2.606399e+001
9.631546e+002, 2.761979e+001
9.636367e+002, 2.766626e+001
9.641188e+002, 2.636042e+001
9.646010e+002, 2.568453e+001
9.650831e+002, 2.634578e+001
9.655652e+002, 2.652471e+001
9.660473e+002, 2.563483e+001
9.665294e+002, 2.478597e+001
9.670115e+002, 2.455073e+001
9.674937e+002, 2.465389e+001
9.679758e+002, 2.462858e+001
9.684579e+002, 2.444312e+001
9.689400e+002, 2.465820e+001
9.694221e+002, 2.591105e+001
9.699042e+002, 2.697677e+001
9.703864e+002, 2.743485e+001
9.708685e+002, 2.741558e+001
9.713506e+002, 2.679898e+001
9.718327e+002, 2.586693e+001
9.723148e+002, 2.510105e+001
9.727969e+002, 2.464580e+001
9.732791e+002, 2.458035e+001
9.737612e+002, 2.517869e+001
9.742433e+002, 2.597884e+001
9.747254e+002, 2.660865e+001
9.752075e+002, 2.709718e+001
9.756896e+002, 2.754831e+001
9.761718e+002, 2.793100e+001
9.766539e+002, 2.805793e+001
9.771360e+002, 2.782338e+001
9.776181e+002, 2.743245e+001
9.781002e+002, 2.705031e+001
9.785823e+002, 2.671946e+001
9.790645e+002, 2.649129e+001
9.795466e+002, 2.639545e+001
9.800287e+002, 2.660748e+001
9.805108e+002, 2.713945e+001
9.809929e+002, 2.766824e+001
9.814750e+002, 2.796662e+001
9.819572e+002, 2.806785e+001
9.824393e+002, 2.795704e+001
9.829214e+002, 2.767411e+001
9.834035e+002, 2.776667e+001
9.838856e+002, 2.827581e+001
9.843677e+002, 2.803532e+001
9.848499e+002, 2.650245e+001
9.853320e+002, 2.506677e+001
9.858141e+002, 2.521912e+001
9.862962e+002, 2.651022e+001
9.867783e+002, 2.691111e+001
9.872604e+002, 2.617107e+001
9.877426e+002, 2.587493e+001
9.882247e+002, 2.623817e+001
9.887068e+002, 2.672657e+001
9.891889e+002, 2.715031e+001
9.896710e+002, 2.753714e+001
9.901531e+002, 2.802851e+001
9.906353e+002, 2.859756e+001
9.911174e+002, 2.832700e+001
9.915995e+002, 2.655215e+001
9.920816e+002, 2.522599e+001
9.925637e+002, 2.459061e+001
9.930458e+002, 2.434288e+001
9.935280e+002, 2.439500e+001
9.940101e+002, 2.471243e+001
9.944922e+002, 2.534019e+001
9.949743e+002, 2.631909e+001
9.954564e+002, 2.702533e+001
9.959385e+002, 2.727355e+001
9.964207e+002, 2.745134e+001
9.969028e+002, 2.766530e+001
9.973849e+002, 2.780197e+001
9.978670e+002, 2.762706e+001
9.983491e+002, 2.737546e+001
9.988312e+002, 2.761625e+001
9.993134e+002, 2.851471e+001
9.997955e+002, 2.890783e+001
1.000278e+003, 2.811020e+001
1.000760e+003, 2.715381e+001
1.001242e+003, 2.614690e+001
1.001724e+003, 2.548759e+001
1.002206e+003, 2.584359e+001
1.002688e+003, 2.680857e+001
1.003170e+003, 2.724951e+001
1.003652e+003, 2.676903e+001
1.004135e+003, 2.642059e+001
1.004617e+003, 2.717594e+001
1.005099e+003, 2.791929e+001
1.005581e+003, 2.736923e+001
1.006063e+003, 2.647180e+001
1.006545e+003, 2.681165e+001
1.007027e+003, 2.817567e+001
1.007509e+003, 2.901907e+001
1.007991e+003, 2.861394e+001
1.008474e+003, 2.796642e+001
1.008956e+003, 2.796020e+001
1.009438e+003, 2.823505e+001
1.009920e+003, 2.840443e+001
1.010402e+003, 2.845665e+001
1.010884e+003, 2.849537e+001
1.011366e+003, 2.846552e+001
1.011848e+003, 2.797564e+001
1.012331e+003, 2.674175e+001
1.012813e+003, 2.536979e+001
1.013295e+003, 2.441191e+001
1.013777e+003, 2.398494e+001
1.014259e+003, 2.473173e+001
1.014741e+003, 2.628027e+001
1.015223e+003, 2.713093e+001
1.015705e+003, 2.698084e+001
1.016187e+003, 2.670868e+001
1.016669e+003, 2.695089e+001
1.017152e+003, 2.745197e+001
1.017634e+003, 2.785015e+001
1.018116e+003, 2.811187e+001
1.018598e+003, 2.804012e+001
1.019080e+003, 2.764489e+001
1.019562e+003, 2.702122e+001
1.020044e+003, 2.620119e+001
1.020526e+003, 2.557330e+001
1.021009e+003, 2.549916e+001
1.021491e+003, 2.578148e+001
1.021973e+003, 2.589611e+001
1.022455e+003, 2.585699e+001
1.022937e+003, 2.617706e+001
1.023419e+003, 2.692028e+001
1.023901e+003, 2.732441e+001
1.024383e+003, 2.709621e+001
1.024865e+003, 2.665896e+001
1.025348e+003, 2.638158e+001
1.025830e+003, 2.626479e+001
1.026312e+003, 2.632240e+001
1.026794e+003, 2.656822e+001
1.027276e+003, 2.696481e+001
1.027758e+003, 2.765783e+001
1.028240e+003, 2.775477e+001
1.028722e+003, 2.667947e+001
1.029205e+003, 2.556299e+001
1.029687e+003, 2.567104e+001
1.030169e+003, 2.669736e+001
1.030651e+003, 2.702690e+001
1.031133e+003, 2.642399e+001
1.031615e+003, 2.594348e+001
1.032097e+003, 2.558393e+001
1.032579e+003, 2.545686e+001
1.033062e+003, 2.561831e+001
1.033544e+003, 2.604474e+001
1.034026e+003, 2.694410e+001
1.034508e+003, 2.811803e+001
1.034990e+003, 2.800642e+001
1.035472e+003, 2.535761e+001
1.035954e+003, 2.438642e+001
1.036436e+003, 2.662625e+001
1.036918e+003, 2.821005e+001
1.037401e+003, 2.713192e+001
1.037883e+003, 2.517957e+001
1.038365e+003, 2.424751e+001
1.038847e+003, 2.426303e+001
1.039329e+003, 2.448309e+001
1.039811e+003, 2.508650e+001
1.040293e+003, 2.559466e+001
1.040775e+003, 2.600244e+001
1.041257e+003, 2.630887e+001
1.041740e+003, 2.652385e+001
1.042222e+003, 2.663269e+001
1.042704e+003, 2.656132e+001
1.043186e+003, 2.633848e+001
1.043668e+003, 2.622966e+001
1.044150e+003, 2.618154e+001
1.044632e+003, 2.634908e+001
1.045114e+003, 2.707640e+001
1.045597e+003, 2.762518e+001
1.046079e+003, 2.760990e+001
1.046561e+003, 2.730727e+001
1.047043e+003, 2.693719e+001
1.047525e+003, 2.654455e+001
1.048007e+003, 2.634826e+001
1.048489e+003, 2.660247e+001
1.048971e+003, 2.665453e+001
1.049453e+003, 2.618192e+001
1.049936e+003, 2.575014e+001
1.050418e+003, 2.563118e+001
1.050900e+003, 2.569841e+001
1.051382e+003, 2.585999e+001
1.051864e+003, 2.607632e+001
1.052346e+003, 2.617573e+001
1.052828e+003, 2.596032e+001
1.053310e+003, 2.595087e+001
1.053792e+003, 2.679270e+001
1.054275e+003, 2.727098e+001
1.054757e+003, 2.617278e+001
1.055239e+003, 2.474228e+001
1.055721e+003, 2.457785e+001
1.056203e+003, 2.555721e+001
1.056685e+003, 2.630474e+001
1.057167e+003, 2.645009e+001
1.057649e+003, 2.642692e+001
1.058132e+003, 2.607577e+001
1.058614e+003, 2.592152e+001
1.059096e+003, 2.662435e+001
1.059578e+003, 2.744533e+001
1.060060e+003, 2.738860e+001
1.060542e+003, 2.657804e+001
1.061024e+003, 2.600422e+001
1.061506e+003, 2.607460e+001
1.061989e+003, 2.604301e+001
1.062471e+003, 2.556244e+001
1.062953e+003, 2.498438e+001
1.063435e+003, 2.417437e+001
1.063917e+003, 2.361846e+001
1.064399e+003, 2.414740e+001
1.064881e+003, 2.547687e+001
1.065363e+003, 2.629106e+001
1.065845e+003, 2.602615e+001
1.066328e+003, 2.587558e+001
1.066810e+003, 2.652748e+001
1.067292e+003, 2.722395e+001
1.067774e+003, 2.766433e+001
1.068256e+003, 2.778255e+001
1.068738e+003, 2.738343e+001
1.069220e+003, 2.662044e+001
1.069702e+003, 2.592569e+001
1.070184e+003, 2.537479e+001
1.070667e+003, 2.516823e+001
1.071149e+003, 2.595907e+001
1.071631e+003, 2.647733e+001
1.072113e+003, 2.546708e+001
1.072595e+003, 2.414119e+001
1.073077e+003, 2.381644e+001
1.073559e+003, 2.437906e+001
1.074041e+003, 2.518089e+001
1.074524e+003, 2.613954e+001
1.075006e+003, 2.654097e+001
1.075488e+003, 2.548227e+001
1.075970e+003, 2.446399e+001
1.076452e+003, 2.423969e+001
1.076934e+003, 2.460357e+001
1.077416e+003, 2.575705e+001
1.077898e+003, 2.719999e+001
1.078380e+003, 2.777255e+001
1.078863e+003, 2.714345e+001
1.079345e+003, 2.639104e+001
1.079827e+003, 2.573888e+001
1.080309e+003, 2.541965e+001
1.080791e+003, 2.600533e+001
1.081273e+003, 2.661233e+001
1.081755e+003, 2.615884e+001
1.082237e+003, 2.512800e+001
1.082719e+003, 2.470352e+001
1.083202e+003, 2.514340e+001
1.083684e+003, 2.553596e+001
1.084166e+003, 2.539403e+001
1.084648e+003, 2.523735e+001
1.085130e+003, 2.517093e+001
1.085612e+003, 2.533387e+001
1.086094e+003, 2.623716e+001
1.086576e+003, 2.728689e+001
1.087058e+003, 2.724067e+001
1.087541e+003, 2.600033e+001
1.088023e+003, 2.524449e+001
1.088505e+003, 2.626656e+001
1.088987e+003, 2.697073e+001
1.089469e+003, 2.576204e+001
1.089951e+003, 2.462216e+001
1.090433e+003, 2.547490e+001
1.090915e+003, 2.714335e+001
1.091398e+003, 2.779119e+001
1.091880e+003, 2.725818e+001
1.092362e+003, 2.652769e+001
1.092844e+003, 2.571295e+001
1.093326e+003, 2.514560e+001
1.093808e+003, 2.483060e+001
1.094290e+003, 2.493069e+001
1.094772e+003, 2.611471e+001
1.095255e+003, 2.739979e+001
1.095737e+003, 2.735707e+001
1.096219e+003, 2.618208e+001
1.096701e+003, 2.544904e+001
1.097183e+003, 2.571624e+001
1.097665e+003, 2.598017e+001
1.098147e+003, 2.576126e+001
1.098629e+003, 2.566785e+001
1.099111e+003, 2.623687e+001
1.099594e+003, 2.690039e+001
1.100076e+003, 2.696755e+001
1.100558e+003, 2.661450e+001
1.101040e+003, 2.657611e+001
1.101522e+003, 2.711808e+001
1.102004e+003, 2.739422e+001
1.102486e+003, 2.675467e+001
1.102968e+003, 2.640035e+001
1.103450e+003, 2.725896e+001
1.103933e+003, 2.814500e+001
1.104415e+003, 2.788350e+001
1.104897e+003, 2.695129e+001
1.105379e+003, 2.650145e+001
1.105861e+003, 2.670751e+001
1.106343e+003, 2.700843e+001
1.106825e+003, 2.788346e+001
1.107307e+003, 2.804568e+001
1.107790e+003, 2.636626e+001
1.108272e+003, 2.474624e+001
1.108754e+003, 2.450711e+001
1.109236e+003, 2.502762e+001
1.109718e+003, 2.536744e+001
1.110200e+003, 2.548010e+001
1.110682e+003, 2.524410e+001
1.111164e+003, 2.422123e+001
1.111646e+003, 2.350641e+001
1.112129e+003, 2.301110e+001
1.112611e+003, 2.307356e+001
1.113093e+003, 2.443025e+001
1.113575e+003, 2.603038e+001
1.114057e+003, 2.656303e+001
1.114539e+003, 2.614933e+001
1.115021e+003, 2.585926e+001
1.115503e+003, 2.564799e+001
1.115985e+003, 2.565013e+001
1.116468e+003, 2.597732e+001
1.116950e+003, 2.636230e+001
1.117432e+003, 2.699526e+001
1.117914e+003, 2.731113e+001
1.118396e+003, 2.652812e+001
1.118878e+003, 2.510699e+001
1.119360e+003, 2.468450e+001
1.119842e+003, 2.568783e+001
1.120325e+003, 2.596231e+001
1.120807e+003, 2.499729e+001
1.121289e+003, 2.453909e+001
1.121771e+003, 2.525981e+001
1.122253e+003, 2.599838e+001
1.122735e+003, 2.584554e+001
1.123217e+003, 2.536040e+001
1.123699e+003, 2.576782e+001
1.124182e+003, 2.713297e+001
1.124664e+003, 2.738088e+001
1.125146e+003, 2.611252e+001
1.125628e+003, 2.546065e+001
1.126110e+003, 2.588727e+001
1.126592e+003, 2.638311e+001
1.127074e+003, 2.639241e+001
1.127556e+003, 2.639223e+001
1.128038e+003, 2.714234e+001
1.128521e+003, 2.837481e+001
1.129003e+003, 2.835260e+001
1.129485e+003, 2.697826e+001
1.129967e+003, 2.581813e+001
1.130449e+003, 2.499880e+001
1.130931e+003, 2.419549e+001
1.131413e+003, 2.320885e+001
1.131895e+003, 2.302149e+001
1.132377e+003, 2.473802e+001
1.132860e+003, 2.729605e+001
1.133342e+003, 2.782843e+001
1.133824e+003, 2.657577e+001
1.134306e+003, 2.581339e+001
1.134788e+003, 2.558308e+001
1.135270e+003, 2.556648e+001
1.135752e+003, 2.567878e+001
1.136234e+003, 2.581735e+001
1.136717e+003, 2.592168e+001
1.137199e+003, 2.596847e+001
1.137681e+003, 2.588125e+001
1.138163e+003, 2.572411e+001
1.138645e+003, 2.568797e+001
1.139127e+003, 2.575649e+001
1.139609e+003, 2.586351e+001
1.140091e+003, 2.600780e+001
1.140573e+003, 2.632846e+001
1.141056e+003, 2.686063e+001
1.141538e+003, 2.716212e+001
1.142020e+003, 2.676759e+001
1.142502e+003, 2.596669e+001
1.142984e+003, 2.484864e+001
1.143466e+003, 2.383361e+001
1.143948e+003, 2.389753e+001
1.144430e+003, 2.475674e+001
1.144912e+003, 2.553723e+001
1.145395e+003, 2.598519e+001
1.145877e+003, 2.619831e+001
1.146359e+003, 2.620692e+001
1.146841e+003, 2.610708e+001
1.147323e+003, 2.597328e+001
1.147805e+003, 2.579010e+001
1.148287e+003, 2.540814e+001
1.148769e+003, 2.504084e+001
1.149252e+003, 2.508585e+001
1.149734e+003, 2.547090e+001
1.150216e+003, 2.578983e+001
1.150698e+003, 2.589742e+001
1.151180e+003, 2.594752e+001
1.151662e+003, 2.591104e+001
1.152144e+003, 2.598088e+001
1.152626e+003, 2.667216e+001
1.153109e+003, 2.716713e+001
1.153591e+003, 2.615370e+001
1.154073e+003, 2.458672e+001
1.154555e+003, 2.452673e+001
1.155037e+003, 2.620911e+001
1.155519e+003, 2.748839e+001
1.156001e+003, 2.782232e+001
1.156483e+003, 2.759963e+001
1.156965e+003, 2.652389e+001
1.157448e+003, 2.537717e+001
1.157930e+003, 2.433167e+001
1.158412e+003, 2.360491e+001
1.158894e+003, 2.355256e+001
1.159376e+003, 2.404440e+001
1.159858e+003, 2.443151e+001
1.160340e+003, 2.468824e+001
1.160822e+003, 2.481072e+001
1.161304e+003, 2.455288e+001
1.161787e+003, 2.455914e+001
1.162269e+003, 2.518290e+001
1.162751e+003, 2.581448e+001
1.163233e+003, 2.602517e+001
1.163715e+003, 2.601608e+001
1.164197e+003, 2.621654e+001
1.164679e+003, 2.663726e+001
1.165161e+003, 2.641583e+001
1.165644e+003, 2.522962e+001
1.166126e+003, 2.464551e+001
1.166608e+003, 2.493917e+001
1.167090e+003, 2.543670e+001
1.167572e+003, 2.586855e+001
1.168054e+003, 2.641895e+001
1.168536e+003, 2.743764e+001
1.169018e+003, 2.845260e+001
1.169500e+003, 2.751965e+001
1.169983e+003, 2.474363e+001
1.170465e+003, 2.385670e+001
1.170947e+003, 2.491905e+001
1.171429e+003, 2.601082e+001
1.171911e+003, 2.664968e+001
1.172393e+003, 2.647731e+001
1.172875e+003, 2.519931e+001
1.173357e+003, 2.380886e+001
1.173839e+003, 2.386550e+001
1.174322e+003, 2.478433e+001
1.174804e+003, 2.502650e+001
1.175286e+003, 2.483649e+001
1.175768e+003, 2.512310e+001
1.176250e+003, 2.573729e+001
1.176732e+003, 2.543930e+001
1.177214e+003, 2.394747e+001
1.177696e+003, 2.287799e+001
1.178179e+003, 2.362537e+001
1.178661e+003, 2.479541e+001
1.179143e+003, 2.488732e+001
1.179625e+003, 2.453547e+001
1.180107e+003, 2.432761e+001
1.180589e+003, 2.437523e+001
1.181071e+003, 2.498724e+001
1.181553e+003, 2.595975e+001
1.182036e+003, 2.640552e+001
1.182518e+003, 2.591725e+001
1.183000e+003, 2.561847e+001
1.183482e+003, 2.649036e+001
1.183964e+003, 2.719987e+001
1.184446e+003, 2.687119e+001
1.184928e+003, 2.620247e+001
1.185410e+003, 2.553356e+001
1.185892e+003, 2.509359e+001
1.186375e+003, 2.534663e+001
1.186857e+003, 2.628565e+001
1.187339e+003, 2.681544e+001
1.187821e+003, 2.644484e+001
1.188303e+003, 2.616639e+001
1.188785e+003, 2.614360e+001
1.189267e+003, 2.613279e+001
1.189749e+003, 2.587638e+001
1.190231e+003, 2.579287e+001
1.190714e+003, 2.647208e+001
1.191196e+003, 2.748017e+001
1.191678e+003, 2.755242e+001
1.192160e+003, 2.651001e+001
1.192642e+003, 2.602159e+001
1.193124e+003, 2.630819e+001
1.193606e+003, 2.625294e+001
1.194088e+003, 2.555114e+001
1.194571e+003, 2.505658e+001
1.195053e+003, 2.522389e+001
1.195535e+003, 2.563955e+001
1.196017e+003, 2.584787e+001
1.196499e+003, 2.586683e+001
1.196981e+003, 2.568677e+001
1.197463e+003, 2.534865e+001
1.197945e+003, 2.527919e+001
1.198427e+003, 2.546005e+001
1.198910e+003, 2.546684e+001
1.199392e+003, 2.523920e+001
1.199874e+003, 2.534126e+001
1.200356e+003, 2.613232e+001
1.200838e+003, 2.702573e+001
1.201320e+003, 2.720222e+001
1.201802e+003, 2.708319e+001
1.202284e+003, 2.749926e+001
1.202766e+003, 2.806192e+001
1.203249e+003, 2.796821e+001
1.203731e+003, 2.737288e+001
1.204213e+003, 2.690898e+001
1.204695e+003, 2.672558e+001
1.205177e+003, 2.651388e+001
1.205659e+003, 2.605308e+001
1.206141e+003, 2.566679e+001
1.206623e+003, 2.548057e+001
1.207105e+003, 2.553292e+001
1.207588e+003, 2.607363e+001
1.208070e+003, 2.669633e+001
1.208552e+003, 2.692319e+001
1.209034e+003, 2.684568e+001
1.209516e+003, 2.683641e+001
1.209998e+003, 2.696858e+001
1.210480e+003, 2.701374e+001
1.210962e+003, 2.683875e+001
1.211445e+003, 2.672298e+001
1.211927e+003, 2.706022e+001
1.212409e+003, 2.699722e+001
1.212891e+003, 2.574060e+001
1.213373e+003, 2.438255e+001
1.213855e+003, 2.410412e+001
1.214337e+003, 2.470158e+001
1.214819e+003, 2.546533e+001
1.215302e+003, 2.653940e+001
1.215784e+003, 2.691044e+001
1.216266e+003, 2.651379e+001
1.216748e+003, 2.564702e+001
1.217230e+003, 2.424522e+001
1.217712e+003, 2.351171e+001
1.218194e+003, 2.417529e+001
1.218676e+003, 2.523290e+001
1.219158e+003, 2.537456e+001
1.219641e+003, 2.502707e+001
1.220123e+003, 2.539908e+001
1.220605e+003, 2.628946e+001
1.221087e+003, 2.724989e+001
1.221569e+003, 2.806086e+001
1.222051e+003, 2.785598e+001
1.222533e+003, 2.665694e+001
1.223015e+003, 2.581632e+001
1.223497e+003, 2.610430e+001
1.223980e+003, 2.653349e+001
1.224462e+003, 2.597387e+001
1.224944e+003, 2.538447e+001
1.225426e+003, 2.583660e+001
1.225908e+003, 2.665960e+001
1.226390e+003, 2.720513e+001
1.226872e+003, 2.740870e+001
1.227354e+003, 2.728908e+001
1.227837e+003, 2.686936e+001
1.228319e+003, 2.622645e+001
1.228801e+003, 2.492223e+001
1.229283e+003, 2.437486e+001
1.229765e+003, 2.552758e+001
1.230247e+003, 2.668946e+001
1.230729e+003, 2.757902e+001
1.231211e+003, 2.784486e+001
1.231693e+003, 2.670805e+001
1.232176e+003, 2.514006e+001
1.232658e+003, 2.513529e+001
1.233140e+003, 2.670171e+001
1.233622e+003, 2.732072e+001
1.234104e+003, 2.665964e+001
1.234586e+003, 2.663779e+001
1.235068e+003, 2.759918e+001
1.235550e+003, 2.793286e+001
1.236032e+003, 2.698485e+001
1.236515e+003, 2.614128e+001
1.236997e+003, 2.656250e+001
1.237479e+003, 2.752351e+001
1.237961e+003, 2.761958e+001
1.238443e+003, 2.718747e+001
1.238925e+003, 2.770077e+001
1.239407e+003, 2.867045e+001
1.239889e+003, 2.840826e+001
1.240372e+003, 2.700064e+001
1.240854e+003, 2.542106e+001
1.241336e+003, 2.410699e+001
1.241818e+003, 2.371149e+001
1.242300e+003, 2.498381e+001
1.242782e+003, 2.633536e+001
1.243264e+003, 2.623308e+001
1.243746e+003, 2.590193e+001
1.244229e+003, 2.661049e+001
1.244711e+003, 2.752401e+001
1.245193e+003, 2.743404e+001
1.245675e+003, 2.672301e+001
1.246157e+003, 2.669653e+001
1.246639e+003, 2.760558e+001
1.247121e+003, 2.777995e+001
1.247603e+003, 2.587354e+001
1.248085e+003, 2.496357e+001
1.248568e+003, 2.637348e+001
1.249050e+003, 2.719337e+001
1.249532e+003, 2.578682e+001
1.250014e+003, 2.453753e+001
1.250496e+003, 2.579276e+001
1.250978e+003, 2.814403e+001
1.251460e+003, 2.827501e+001
1.251942e+003, 2.629162e+001
1.252424e+003, 2.531062e+001
1.252907e+003, 2.533247e+001
1.253389e+003, 2.574997e+001
1.253871e+003, 2.644649e+001
1.254353e+003, 2.666928e+001
1.254835e+003, 2.617074e+001
1.255317e+003, 2.561482e+001
1.255799e+003, 2.550855e+001
1.256281e+003, 2.560207e+001
1.256764e+003, 2.551319e+001
1.257246e+003, 2.545193e+001
1.257728e+003, 2.579951e+001
1.258210e+003, 2.635642e+001
1.258692e+003, 2.676515e+001
1.259174e+003, 2.708408e+001
1.259656e+003, 2.766154e+001
1.260138e+003, 2.852346e+001
1.260620e+003, 2.909629e+001
1.261103e+003, 2.918321e+001
1.261585e+003, 2.888915e+001
1.262067e+003, 2.778019e+001
1.262549e+003, 2.689979e+001
1.263031e+003, 2.680020e+001
1.263513e+003, 2.703718e+001
1.263995e+003, 2.753066e+001
1.264477e+003, 2.790269e+001
1.264959e+003, 2.726196e+001
1.265442e+003, 2.566604e+001
1.265924e+003, 2.552956e+001
1.266406e+003, 2.728824e+001
1.266888e+003, 2.801880e+001
1.267370e+003, 2.741855e+001
1.267852e+003, 2.690989e+001
1.268334e+003, 2.691241e+001
1.268816e+003, 2.712617e+001
1.269299e+003, 2.737143e+001
1.269781e+003, 2.749234e+001
1.270263e+003, 2.713733e+001
1.270745e+003, 2.662725e+001
1.271227e+003, 2.665367e+001
1.271709e+003, 2.701286e+001
1.272191e+003, 2.741041e+001
1.272673e+003, 2.775173e+001
1.273156e+003, 2.801700e+001
1.273638e+003, 2.812138e+001
1.274120e+003, 2.767436e+001
1.274602e+003, 2.637074e+001
1.275084e+003, 2.528697e+001
1.275566e+003, 2.502451e+001
1.276048e+003, 2.497096e+001
1.276530e+003, 2.477010e+001
1.277012e+003, 2.477717e+001
1.277495e+003, 2.545187e+001
1.277977e+003, 2.634671e+001
1.278459e+003, 2.685268e+001
1.278941e+003, 2.703805e+001
1.279423e+003, 2.725869e+001
1.279905e+003, 2.760009e+001
1.280387e+003, 2.745620e+001
1.280869e+003, 2.669021e+001
1.281351e+003, 2.646169e+001
1.281834e+003, 2.704007e+001
1.282316e+003, 2.722531e+001
1.282798e+003, 2.643572e+001
1.283280e+003, 2.548207e+001
1.283762e+003, 2.508281e+001
1.284244e+003, 2.523734e+001
##END=



