##NAMES=Magnesioalterite
##RRUFFID=R180015
##IDEAL CHEMISTRY=Mg_2_Fe^3+^_4_(S^6+^O_4_)_4_((C_2_)^6+^O_4_)_2_(OH)_4_&#183;17H_2_O
##LOCALITY=Near Marble Canyon, Coconino County, Arizona, USA
##OWNER=RRUFF
##SOURCE=Malcom Alter
##DESCRIPTION=Isolated or aggregates of yellow brown prismatic crystals on petrified wood, associated with greenish prismatic alterite, gypsum, alunogen, and sulfur. Type sample.
##STATUS=The identification of this mineral is confirmed by single-crystal X-ray diffraction and chemical analysis.
##URL=rruff.info/R180015
##MEASURED CHEMISTRY=(Mg_0.74_Zn_0.60_Fe^2+^_0.58_Mn_0.09_)Fe^3+^_4_(SO_4_)_4.0_(C_2_O_4_)_2.0_(OH)_4.0_Â·17H_2_O
8.758203e+001, 2.277840e+002
8.806415e+001, 2.270470e+002
8.854626e+001, 2.269297e+002
8.902838e+001, 2.280132e+002
8.951050e+001, 2.290198e+002
8.999261e+001, 2.291214e+002
9.047473e+001, 2.284606e+002
9.095685e+001, 2.280581e+002
9.143896e+001, 2.289344e+002
9.192108e+001, 2.311442e+002
9.240320e+001, 2.332654e+002
9.288531e+001, 2.326252e+002
9.336743e+001, 2.276432e+002
9.384955e+001, 2.192350e+002
9.433167e+001, 2.106562e+002
9.481378e+001, 2.021109e+002
9.529590e+001, 1.951331e+002
9.577802e+001, 1.894864e+002
9.626013e+001, 1.847748e+002
9.674225e+001, 1.808454e+002
9.722437e+001, 1.775797e+002
9.770648e+001, 1.746012e+002
9.818860e+001, 1.719706e+002
9.867072e+001, 1.694168e+002
9.915283e+001, 1.667909e+002
9.963495e+001, 1.640612e+002
1.001171e+002, 1.612975e+002
1.005992e+002, 1.585623e+002
1.010813e+002, 1.556318e+002
1.015634e+002, 1.531426e+002
1.020455e+002, 1.509463e+002
1.025277e+002, 1.490734e+002
1.030098e+002, 1.475614e+002
1.034919e+002, 1.464105e+002
1.039740e+002, 1.455671e+002
1.044561e+002, 1.449098e+002
1.049382e+002, 1.449477e+002
1.054204e+002, 1.445663e+002
1.059025e+002, 1.435092e+002
1.063846e+002, 1.419499e+002
1.068667e+002, 1.401370e+002
1.073488e+002, 1.381524e+002
1.078309e+002, 1.360636e+002
1.083131e+002, 1.343843e+002
1.087952e+002, 1.332471e+002
1.092773e+002, 1.323131e+002
1.097594e+002, 1.314892e+002
1.102415e+002, 1.307555e+002
1.107236e+002, 1.299506e+002
1.112058e+002, 1.288396e+002
1.116879e+002, 1.275433e+002
1.121700e+002, 1.264598e+002
1.126521e+002, 1.258944e+002
1.131342e+002, 1.255333e+002
1.136163e+002, 1.247976e+002
1.140985e+002, 1.234721e+002
1.145806e+002, 1.221806e+002
1.150627e+002, 1.214042e+002
1.155448e+002, 1.209853e+002
1.160269e+002, 1.205461e+002
1.165090e+002, 1.197852e+002
1.169912e+002, 1.187131e+002
1.174733e+002, 1.177996e+002
1.179554e+002, 1.171417e+002
1.184375e+002, 1.165878e+002
1.189196e+002, 1.161929e+002
1.194017e+002, 1.158929e+002
1.198839e+002, 1.154917e+002
1.203660e+002, 1.146785e+002
1.208481e+002, 1.130966e+002
1.213302e+002, 1.120094e+002
1.218123e+002, 1.117209e+002
1.222944e+002, 1.116016e+002
1.227766e+002, 1.112370e+002
1.232587e+002, 1.105154e+002
1.237408e+002, 1.096060e+002
1.242229e+002, 1.088321e+002
1.247050e+002, 1.082110e+002
1.251871e+002, 1.077254e+002
1.256693e+002, 1.074953e+002
1.261514e+002, 1.073692e+002
1.266335e+002, 1.071902e+002
1.271156e+002, 1.069068e+002
1.275977e+002, 1.064809e+002
1.280798e+002, 1.057428e+002
1.285620e+002, 1.044040e+002
1.290441e+002, 1.032622e+002
1.295262e+002, 1.027965e+002
1.300083e+002, 1.028571e+002
1.304904e+002, 1.028193e+002
1.309725e+002, 1.023483e+002
1.314547e+002, 1.015679e+002
1.319368e+002, 1.007793e+002
1.324189e+002, 9.989671e+001
1.329010e+002, 9.912989e+001
1.333831e+002, 9.880469e+001
1.338652e+002, 9.903139e+001
1.343474e+002, 9.910891e+001
1.348295e+002, 9.844698e+001
1.353116e+002, 9.750246e+001
1.357937e+002, 9.675825e+001
1.362758e+002, 9.644302e+001
1.367579e+002, 9.641176e+001
1.372401e+002, 9.628772e+001
1.377222e+002, 9.601932e+001
1.382043e+002, 9.572688e+001
1.386864e+002, 9.551450e+001
1.391685e+002, 9.530056e+001
1.396507e+002, 9.494613e+001
1.401328e+002, 9.432393e+001
1.406149e+002, 9.344538e+001
1.410970e+002, 9.275751e+001
1.415791e+002, 9.242417e+001
1.420612e+002, 9.214034e+001
1.425434e+002, 9.178146e+001
1.430255e+002, 9.139635e+001
1.435076e+002, 9.115624e+001
1.439897e+002, 9.127807e+001
1.444718e+002, 9.193461e+001
1.449539e+002, 9.189487e+001
1.454361e+002, 9.054974e+001
1.459182e+002, 8.915452e+001
1.464003e+002, 8.853115e+001
1.468824e+002, 8.870455e+001
1.473645e+002, 8.899677e+001
1.478466e+002, 8.858475e+001
1.483288e+002, 8.713570e+001
1.488109e+002, 8.616186e+001
1.492930e+002, 8.598714e+001
1.497751e+002, 8.615999e+001
1.502572e+002, 8.624725e+001
1.507393e+002, 8.615752e+001
1.512215e+002, 8.594907e+001
1.517036e+002, 8.563847e+001
1.521857e+002, 8.522495e+001
1.526678e+002, 8.489114e+001
1.531499e+002, 8.471805e+001
1.536320e+002, 8.466921e+001
1.541142e+002, 8.468168e+001
1.545963e+002, 8.481190e+001
1.550784e+002, 8.489172e+001
1.555605e+002, 8.474662e+001
1.560426e+002, 8.438071e+001
1.565247e+002, 8.394877e+001
1.570069e+002, 8.351530e+001
1.574890e+002, 8.308237e+001
1.579711e+002, 8.274915e+001
1.584532e+002, 8.255565e+001
1.589353e+002, 8.246975e+001
1.594174e+002, 8.248875e+001
1.598996e+002, 8.261085e+001
1.603817e+002, 8.279544e+001
1.608638e+002, 8.307534e+001
1.613459e+002, 8.358675e+001
1.618280e+002, 8.370924e+001
1.623102e+002, 8.297401e+001
1.627923e+002, 8.209239e+001
1.632744e+002, 8.156860e+001
1.637565e+002, 8.153781e+001
1.642386e+002, 8.173199e+001
1.647207e+002, 8.160562e+001
1.652029e+002, 8.069264e+001
1.656850e+002, 8.024048e+001
1.661671e+002, 8.065994e+001
1.666492e+002, 8.136659e+001
1.671313e+002, 8.183411e+001
1.676134e+002, 8.183263e+001
1.680956e+002, 8.151277e+001
1.685777e+002, 8.131050e+001
1.690598e+002, 8.121315e+001
1.695419e+002, 8.126347e+001
1.700240e+002, 8.172742e+001
1.705061e+002, 8.228979e+001
1.709883e+002, 8.243850e+001
1.714704e+002, 8.187009e+001
1.719525e+002, 8.082293e+001
1.724346e+002, 8.033366e+001
1.729167e+002, 8.081946e+001
1.733988e+002, 8.126041e+001
1.738810e+002, 8.139433e+001
1.743631e+002, 8.125681e+001
1.748452e+002, 8.090007e+001
1.753273e+002, 8.027568e+001
1.758094e+002, 7.950050e+001
1.762915e+002, 7.899512e+001
1.767737e+002, 7.885198e+001
1.772558e+002, 7.884518e+001
1.777379e+002, 7.892860e+001
1.782200e+002, 7.908397e+001
1.787021e+002, 7.911128e+001
1.791842e+002, 7.890073e+001
1.796664e+002, 7.846494e+001
1.801485e+002, 7.783357e+001
1.806306e+002, 7.682638e+001
1.811127e+002, 7.581968e+001
1.815948e+002, 7.532371e+001
1.820769e+002, 7.544057e+001
1.825591e+002, 7.548503e+001
1.830412e+002, 7.486823e+001
1.835233e+002, 7.404485e+001
1.840054e+002, 7.351977e+001
1.844875e+002, 7.356420e+001
1.849696e+002, 7.387191e+001
1.854518e+002, 7.386504e+001
1.859339e+002, 7.340970e+001
1.864160e+002, 7.293040e+001
1.868981e+002, 7.263978e+001
1.873802e+002, 7.240137e+001
1.878623e+002, 7.202534e+001
1.883445e+002, 7.137405e+001
1.888266e+002, 7.058044e+001
1.893087e+002, 7.011685e+001
1.897908e+002, 7.020506e+001
1.902729e+002, 7.033733e+001
1.907550e+002, 7.048360e+001
1.912372e+002, 7.057227e+001
1.917193e+002, 7.048524e+001
1.922014e+002, 7.012753e+001
1.926835e+002, 6.956150e+001
1.931656e+002, 6.921427e+001
1.936477e+002, 6.944962e+001
1.941299e+002, 6.954837e+001
1.946120e+002, 6.931381e+001
1.950941e+002, 6.886655e+001
1.955762e+002, 6.839922e+001
1.960583e+002, 6.803114e+001
1.965404e+002, 6.776344e+001
1.970226e+002, 6.762967e+001
1.975047e+002, 6.786761e+001
1.979868e+002, 6.798306e+001
1.984689e+002, 6.774117e+001
1.989510e+002, 6.725674e+001
1.994331e+002, 6.680229e+001
1.999153e+002, 6.656783e+001
2.003974e+002, 6.654941e+001
2.008795e+002, 6.654128e+001
2.013616e+002, 6.641373e+001
2.018437e+002, 6.641292e+001
2.023258e+002, 6.677823e+001
2.028080e+002, 6.740716e+001
2.032901e+002, 6.793969e+001
2.037722e+002, 6.814777e+001
2.042543e+002, 6.800402e+001
2.047364e+002, 6.761192e+001
2.052185e+002, 6.666090e+001
2.057007e+002, 6.574029e+001
2.061828e+002, 6.530116e+001
2.066649e+002, 6.530849e+001
2.071470e+002, 6.530419e+001
2.076291e+002, 6.489820e+001
2.081112e+002, 6.421162e+001
2.085934e+002, 6.383307e+001
2.090755e+002, 6.403001e+001
2.095576e+002, 6.438570e+001
2.100397e+002, 6.453489e+001
2.105218e+002, 6.446775e+001
2.110039e+002, 6.437950e+001
2.114861e+002, 6.441809e+001
2.119682e+002, 6.452270e+001
2.124503e+002, 6.456590e+001
2.129324e+002, 6.447596e+001
2.134145e+002, 6.434755e+001
2.138967e+002, 6.428767e+001
2.143788e+002, 6.429857e+001
2.148609e+002, 6.436668e+001
2.153430e+002, 6.454350e+001
2.158251e+002, 6.475990e+001
2.163072e+002, 6.492902e+001
2.167894e+002, 6.501304e+001
2.172715e+002, 6.504701e+001
2.177536e+002, 6.508255e+001
2.182357e+002, 6.510799e+001
2.187178e+002, 6.516843e+001
2.191999e+002, 6.539267e+001
2.196821e+002, 6.562819e+001
2.201642e+002, 6.566142e+001
2.206463e+002, 6.533920e+001
2.211284e+002, 6.485927e+001
2.216105e+002, 6.470017e+001
2.220926e+002, 6.506895e+001
2.225748e+002, 6.534798e+001
2.230569e+002, 6.526985e+001
2.235390e+002, 6.504275e+001
2.240211e+002, 6.489596e+001
2.245032e+002, 6.494026e+001
2.249853e+002, 6.511461e+001
2.254675e+002, 6.526351e+001
2.259496e+002, 6.544180e+001
2.264317e+002, 6.548905e+001
2.269138e+002, 6.528432e+001
2.273959e+002, 6.498348e+001
2.278780e+002, 6.476642e+001
2.283602e+002, 6.472520e+001
2.288423e+002, 6.479132e+001
2.293244e+002, 6.473731e+001
2.298065e+002, 6.442393e+001
2.302886e+002, 6.417593e+001
2.307707e+002, 6.407845e+001
2.312529e+002, 6.404636e+001
2.317350e+002, 6.397376e+001
2.322171e+002, 6.380858e+001
2.326992e+002, 6.359104e+001
2.331813e+002, 6.345383e+001
2.336634e+002, 6.354945e+001
2.341456e+002, 6.354041e+001
2.346277e+002, 6.336061e+001
2.351098e+002, 6.307921e+001
2.355919e+002, 6.273983e+001
2.360740e+002, 6.236094e+001
2.365561e+002, 6.200077e+001
2.370383e+002, 6.183315e+001
2.375204e+002, 6.223693e+001
2.380025e+002, 6.239391e+001
2.384846e+002, 6.209428e+001
2.389667e+002, 6.157751e+001
2.394488e+002, 6.112477e+001
2.399310e+002, 6.085183e+001
2.404131e+002, 6.070617e+001
2.408952e+002, 6.055504e+001
2.413773e+002, 6.032680e+001
2.418594e+002, 6.019217e+001
2.423415e+002, 6.015611e+001
2.428237e+002, 6.022647e+001
2.433058e+002, 6.050262e+001
2.437879e+002, 6.104560e+001
2.442700e+002, 6.160497e+001
2.447521e+002, 6.158581e+001
2.452342e+002, 6.058142e+001
2.457164e+002, 5.985116e+001
2.461985e+002, 5.972461e+001
2.466806e+002, 5.993428e+001
2.471627e+002, 6.014967e+001
2.476448e+002, 6.027382e+001
2.481269e+002, 6.031657e+001
2.486091e+002, 6.027090e+001
2.490912e+002, 6.010228e+001
2.495733e+002, 5.997969e+001
2.500554e+002, 5.996076e+001
2.505375e+002, 6.000063e+001
2.510196e+002, 6.003497e+001
2.515018e+002, 6.004708e+001
2.519839e+002, 6.005081e+001
2.524660e+002, 6.004985e+001
2.529481e+002, 6.003480e+001
2.534302e+002, 6.009037e+001
2.539123e+002, 6.028124e+001
2.543945e+002, 6.054396e+001
2.548766e+002, 6.078535e+001
2.553587e+002, 6.098619e+001
2.558408e+002, 6.116857e+001
2.563229e+002, 6.136404e+001
2.568051e+002, 6.157055e+001
2.572872e+002, 6.174968e+001
2.577693e+002, 6.188070e+001
2.582514e+002, 6.198047e+001
2.587335e+002, 6.208663e+001
2.592156e+002, 6.221413e+001
2.596978e+002, 6.230747e+001
2.601799e+002, 6.226231e+001
2.606620e+002, 6.212207e+001
2.611441e+002, 6.203751e+001
2.616262e+002, 6.204622e+001
2.621083e+002, 6.213988e+001
2.625905e+002, 6.236581e+001
2.630726e+002, 6.278965e+001
2.635547e+002, 6.311035e+001
2.640368e+002, 6.286905e+001
2.645189e+002, 6.234063e+001
2.650010e+002, 6.210033e+001
2.654832e+002, 6.257044e+001
2.659653e+002, 6.334203e+001
2.664474e+002, 6.380480e+001
2.669295e+002, 6.394308e+001
2.674116e+002, 6.382308e+001
2.678937e+002, 6.327499e+001
2.683759e+002, 6.253288e+001
2.688580e+002, 6.191885e+001
2.693401e+002, 6.160748e+001
2.698222e+002, 6.140414e+001
2.703043e+002, 6.100533e+001
2.707864e+002, 6.036657e+001
2.712686e+002, 5.972688e+001
2.717507e+002, 5.913334e+001
2.722328e+002, 5.862278e+001
2.727149e+002, 5.827771e+001
2.731970e+002, 5.816811e+001
2.736791e+002, 5.812461e+001
2.741613e+002, 5.792706e+001
2.746434e+002, 5.755558e+001
2.751255e+002, 5.712296e+001
2.756076e+002, 5.649342e+001
2.760897e+002, 5.590706e+001
2.765718e+002, 5.560168e+001
2.770540e+002, 5.565674e+001
2.775361e+002, 5.583061e+001
2.780182e+002, 5.584159e+001
2.785003e+002, 5.566721e+001
2.789824e+002, 5.548666e+001
2.794645e+002, 5.536753e+001
2.799467e+002, 5.524229e+001
2.804288e+002, 5.504975e+001
2.809109e+002, 5.478262e+001
2.813930e+002, 5.451658e+001
2.818751e+002, 5.435737e+001
2.823572e+002, 5.432107e+001
2.828394e+002, 5.419602e+001
2.833215e+002, 5.382470e+001
2.838036e+002, 5.345589e+001
2.842857e+002, 5.326003e+001
2.847678e+002, 5.322699e+001
2.852499e+002, 5.319878e+001
2.857321e+002, 5.297961e+001
2.862142e+002, 5.256112e+001
2.866963e+002, 5.234589e+001
2.871784e+002, 5.260136e+001
2.876605e+002, 5.281915e+001
2.881426e+002, 5.272246e+001
2.886248e+002, 5.237019e+001
2.891069e+002, 5.198708e+001
2.895890e+002, 5.175485e+001
2.900711e+002, 5.165570e+001
2.905532e+002, 5.146658e+001
2.910353e+002, 5.105981e+001
2.915175e+002, 5.072084e+001
2.919996e+002, 5.055659e+001
2.924817e+002, 5.053388e+001
2.929638e+002, 5.058989e+001
2.934459e+002, 5.069543e+001
2.939280e+002, 5.084694e+001
2.944102e+002, 5.104991e+001
2.948923e+002, 5.146639e+001
2.953744e+002, 5.166310e+001
2.958565e+002, 5.144885e+001
2.963386e+002, 5.099366e+001
2.968207e+002, 5.048280e+001
2.973029e+002, 4.998322e+001
2.977850e+002, 4.954302e+001
2.982671e+002, 4.929811e+001
2.987492e+002, 4.932875e+001
2.992313e+002, 4.940615e+001
2.997134e+002, 4.952956e+001
3.001956e+002, 4.964245e+001
3.006777e+002, 4.968439e+001
3.011598e+002, 4.963446e+001
3.016419e+002, 4.953492e+001
3.021240e+002, 4.946517e+001
3.026061e+002, 4.945661e+001
3.030883e+002, 4.938557e+001
3.035704e+002, 4.914848e+001
3.040525e+002, 4.890282e+001
3.045346e+002, 4.873577e+001
3.050167e+002, 4.867000e+001
3.054988e+002, 4.870257e+001
3.059810e+002, 4.890065e+001
3.064631e+002, 4.935700e+001
3.069452e+002, 4.954350e+001
3.074273e+002, 4.916621e+001
3.079094e+002, 4.871318e+001
3.083915e+002, 4.830652e+001
3.088737e+002, 4.800676e+001
3.093558e+002, 4.791613e+001
3.098379e+002, 4.824575e+001
3.103200e+002, 4.903479e+001
3.108021e+002, 4.944864e+001
3.112842e+002, 4.915228e+001
3.117664e+002, 4.879031e+001
3.122485e+002, 4.855793e+001
3.127306e+002, 4.843919e+001
3.132127e+002, 4.836951e+001
3.136948e+002, 4.833523e+001
3.141769e+002, 4.831059e+001
3.146591e+002, 4.811719e+001
3.151412e+002, 4.757221e+001
3.156233e+002, 4.711013e+001
3.161054e+002, 4.686223e+001
3.165875e+002, 4.676056e+001
3.170696e+002, 4.673442e+001
3.175518e+002, 4.676561e+001
3.180339e+002, 4.680397e+001
3.185160e+002, 4.670390e+001
3.189981e+002, 4.636517e+001
3.194802e+002, 4.609492e+001
3.199623e+002, 4.602875e+001
3.204445e+002, 4.601218e+001
3.209266e+002, 4.588326e+001
3.214087e+002, 4.559379e+001
3.218908e+002, 4.528215e+001
3.223729e+002, 4.516844e+001
3.228550e+002, 4.530450e+001
3.233372e+002, 4.545559e+001
3.238193e+002, 4.582712e+001
3.243014e+002, 4.603040e+001
3.247835e+002, 4.565998e+001
3.252656e+002, 4.476037e+001
3.257477e+002, 4.389519e+001
3.262299e+002, 4.377619e+001
3.267120e+002, 4.451409e+001
3.271941e+002, 4.481879e+001
3.276762e+002, 4.423764e+001
3.281583e+002, 4.359096e+001
3.286404e+002, 4.315989e+001
3.291226e+002, 4.295156e+001
3.296047e+002, 4.292152e+001
3.300868e+002, 4.315785e+001
3.305689e+002, 4.357115e+001
3.310510e+002, 4.350154e+001
3.315331e+002, 4.249223e+001
3.320153e+002, 4.167944e+001
3.324974e+002, 4.155556e+001
3.329795e+002, 4.184397e+001
3.334616e+002, 4.216296e+001
3.339437e+002, 4.235590e+001
3.344258e+002, 4.243908e+001
3.349080e+002, 4.244328e+001
3.353901e+002, 4.236227e+001
3.358722e+002, 4.221722e+001
3.363543e+002, 4.189051e+001
3.368365e+002, 4.157177e+001
3.373186e+002, 4.146846e+001
3.378007e+002, 4.164742e+001
3.382828e+002, 4.188890e+001
3.387649e+002, 4.189223e+001
3.392470e+002, 4.161619e+001
3.397292e+002, 4.141303e+001
3.402113e+002, 4.143582e+001
3.406934e+002, 4.148669e+001
3.411755e+002, 4.147163e+001
3.416576e+002, 4.137583e+001
3.421397e+002, 4.118165e+001
3.426219e+002, 4.071468e+001
3.431040e+002, 4.003601e+001
3.435861e+002, 3.985328e+001
3.440682e+002, 4.054884e+001
3.445503e+002, 4.129583e+001
3.450324e+002, 4.163239e+001
3.455146e+002, 4.164107e+001
3.459967e+002, 4.152791e+001
3.464788e+002, 4.138187e+001
3.469609e+002, 4.119313e+001
3.474430e+002, 4.087912e+001
3.479251e+002, 4.032394e+001
3.484073e+002, 3.997087e+001
3.488894e+002, 4.028686e+001
3.493715e+002, 4.084989e+001
3.498536e+002, 4.113305e+001
3.503357e+002, 4.090789e+001
3.508178e+002, 4.053447e+001
3.513000e+002, 4.047169e+001
3.517821e+002, 4.073848e+001
3.522642e+002, 4.094111e+001
3.527463e+002, 4.093404e+001
3.532284e+002, 4.080936e+001
3.537105e+002, 4.067650e+001
3.541927e+002, 4.054703e+001
3.546748e+002, 4.035492e+001
3.551569e+002, 3.996631e+001
3.556390e+002, 3.945093e+001
3.561211e+002, 3.912032e+001
3.566032e+002, 3.905230e+001
3.570854e+002, 3.915016e+001
3.575675e+002, 3.938457e+001
3.580496e+002, 3.972398e+001
3.585317e+002, 3.999986e+001
3.590138e+002, 4.012986e+001
3.594959e+002, 4.016393e+001
3.599781e+002, 4.017324e+001
3.604602e+002, 4.015874e+001
3.609423e+002, 4.013782e+001
3.614244e+002, 4.013520e+001
3.619065e+002, 4.013301e+001
3.623886e+002, 4.008142e+001
3.628708e+002, 3.988636e+001
3.633529e+002, 3.972944e+001
3.638350e+002, 3.982336e+001
3.643171e+002, 4.012502e+001
3.647992e+002, 4.032567e+001
3.652813e+002, 4.023420e+001
3.657635e+002, 4.001828e+001
3.662456e+002, 4.004668e+001
3.667277e+002, 4.043633e+001
3.672098e+002, 4.069547e+001
3.676919e+002, 4.051183e+001
3.681740e+002, 4.008062e+001
3.686562e+002, 3.973582e+001
3.691383e+002, 3.954436e+001
3.696204e+002, 3.953508e+001
3.701025e+002, 3.986277e+001
3.705846e+002, 4.056738e+001
3.710667e+002, 4.094050e+001
3.715489e+002, 4.060221e+001
3.720310e+002, 4.009013e+001
3.725131e+002, 3.992642e+001
3.729952e+002, 4.011940e+001
3.734773e+002, 4.030890e+001
3.739594e+002, 4.022828e+001
3.744416e+002, 3.989716e+001
3.749237e+002, 3.960281e+001
3.754058e+002, 3.923120e+001
3.758879e+002, 3.901027e+001
3.763700e+002, 3.912548e+001
3.768521e+002, 3.945272e+001
3.773343e+002, 3.974342e+001
3.778164e+002, 3.988891e+001
3.782985e+002, 3.992574e+001
3.787806e+002, 3.993014e+001
3.792627e+002, 3.981546e+001
3.797448e+002, 3.981695e+001
3.802270e+002, 4.004407e+001
3.807091e+002, 4.034202e+001
3.811912e+002, 4.057903e+001
3.816733e+002, 4.072515e+001
3.821554e+002, 4.081024e+001
3.826375e+002, 4.087497e+001
3.831197e+002, 4.093737e+001
3.836018e+002, 4.086771e+001
3.840839e+002, 4.042900e+001
3.845660e+002, 4.010976e+001
3.850481e+002, 4.022178e+001
3.855302e+002, 4.064281e+001
3.860124e+002, 4.106215e+001
3.864945e+002, 4.128611e+001
3.869766e+002, 4.132709e+001
3.874587e+002, 4.124831e+001
3.879408e+002, 4.087850e+001
3.884229e+002, 4.059147e+001
3.889051e+002, 4.034911e+001
3.893872e+002, 4.024192e+001
3.898693e+002, 4.045493e+001
3.903514e+002, 4.102138e+001
3.908335e+002, 4.165045e+001
3.913156e+002, 4.183150e+001
3.917978e+002, 4.132050e+001
3.922799e+002, 4.102934e+001
3.927620e+002, 4.116422e+001
3.932441e+002, 4.133624e+001
3.937262e+002, 4.134718e+001
3.942083e+002, 4.120835e+001
3.946905e+002, 4.104138e+001
3.951726e+002, 4.093555e+001
3.956547e+002, 4.088762e+001
3.961368e+002, 4.085909e+001
3.966189e+002, 4.080542e+001
3.971010e+002, 4.084483e+001
3.975832e+002, 4.111816e+001
3.980653e+002, 4.145922e+001
3.985474e+002, 4.162251e+001
3.990295e+002, 4.148668e+001
3.995116e+002, 4.125801e+001
3.999937e+002, 4.133086e+001
4.004759e+002, 4.180070e+001
4.009580e+002, 4.207066e+001
4.014401e+002, 4.172587e+001
4.019222e+002, 4.132922e+001
4.024043e+002, 4.132243e+001
4.028864e+002, 4.171191e+001
4.033686e+002, 4.210256e+001
4.038507e+002, 4.216615e+001
4.043328e+002, 4.197964e+001
4.048149e+002, 4.189945e+001
4.052970e+002, 4.201395e+001
4.057791e+002, 4.209927e+001
4.062613e+002, 4.189074e+001
4.067434e+002, 4.154680e+001
4.072255e+002, 4.140689e+001
4.077076e+002, 4.171407e+001
4.081897e+002, 4.213582e+001
4.086718e+002, 4.226665e+001
4.091540e+002, 4.211848e+001
4.096361e+002, 4.201300e+001
4.101182e+002, 4.210614e+001
4.106003e+002, 4.230331e+001
4.110824e+002, 4.241364e+001
4.115645e+002, 4.239365e+001
4.120467e+002, 4.245863e+001
4.125288e+002, 4.280064e+001
4.130109e+002, 4.326588e+001
4.134930e+002, 4.357053e+001
4.139751e+002, 4.365021e+001
4.144572e+002, 4.364230e+001
4.149394e+002, 4.366295e+001
4.154215e+002, 4.371505e+001
4.159036e+002, 4.382487e+001
4.163857e+002, 4.402160e+001
4.168678e+002, 4.425169e+001
4.173499e+002, 4.451089e+001
4.178321e+002, 4.477848e+001
4.183142e+002, 4.498102e+001
4.187963e+002, 4.505874e+001
4.192784e+002, 4.507375e+001
4.197605e+002, 4.524345e+001
4.202426e+002, 4.573311e+001
4.207248e+002, 4.614616e+001
4.212069e+002, 4.634948e+001
4.216890e+002, 4.650300e+001
4.221711e+002, 4.687547e+001
4.226532e+002, 4.748325e+001
4.231353e+002, 4.794801e+001
4.236175e+002, 4.774694e+001
4.240996e+002, 4.664019e+001
4.245817e+002, 4.611141e+001
4.250638e+002, 4.659678e+001
4.255459e+002, 4.713685e+001
4.260280e+002, 4.744828e+001
4.265102e+002, 4.751578e+001
4.269923e+002, 4.736567e+001
4.274744e+002, 4.700002e+001
4.279565e+002, 4.648057e+001
4.284386e+002, 4.599878e+001
4.289207e+002, 4.542582e+001
4.294029e+002, 4.514216e+001
4.298850e+002, 4.546844e+001
4.303671e+002, 4.587643e+001
4.308492e+002, 4.590404e+001
4.313313e+002, 4.549516e+001
4.318134e+002, 4.498416e+001
4.322956e+002, 4.474287e+001
4.327777e+002, 4.477954e+001
4.332598e+002, 4.469359e+001
4.337419e+002, 4.429645e+001
4.342241e+002, 4.402126e+001
4.347062e+002, 4.419048e+001
4.351883e+002, 4.459797e+001
4.356704e+002, 4.483437e+001
4.361525e+002, 4.465474e+001
4.366346e+002, 4.431117e+001
4.371168e+002, 4.420215e+001
4.375989e+002, 4.434599e+001
4.380810e+002, 4.453483e+001
4.385631e+002, 4.473227e+001
4.390452e+002, 4.491499e+001
4.395273e+002, 4.505694e+001
4.400095e+002, 4.515499e+001
4.404916e+002, 4.524051e+001
4.409737e+002, 4.528727e+001
4.414558e+002, 4.534124e+001
4.419379e+002, 4.551870e+001
4.424200e+002, 4.585112e+001
4.429022e+002, 4.620716e+001
4.433843e+002, 4.652966e+001
4.438664e+002, 4.679125e+001
4.443485e+002, 4.688207e+001
4.448306e+002, 4.664148e+001
4.453127e+002, 4.637796e+001
4.457949e+002, 4.617023e+001
4.462770e+002, 4.607420e+001
4.467591e+002, 4.631576e+001
4.472412e+002, 4.704918e+001
4.477233e+002, 4.790875e+001
4.482054e+002, 4.816753e+001
4.486876e+002, 4.741479e+001
4.491697e+002, 4.699282e+001
4.496518e+002, 4.726176e+001
4.501339e+002, 4.765757e+001
4.506160e+002, 4.766505e+001
4.510981e+002, 4.733162e+001
4.515803e+002, 4.713652e+001
4.520624e+002, 4.751215e+001
4.525445e+002, 4.839088e+001
4.530266e+002, 4.886540e+001
4.535087e+002, 4.847678e+001
4.539908e+002, 4.818796e+001
4.544730e+002, 4.817714e+001
4.549551e+002, 4.831254e+001
4.554372e+002, 4.848294e+001
4.559193e+002, 4.864039e+001
4.564014e+002, 4.872320e+001
4.568835e+002, 4.857911e+001
4.573657e+002, 4.810070e+001
4.578478e+002, 4.789135e+001
4.583299e+002, 4.834829e+001
4.588120e+002, 4.871605e+001
4.592941e+002, 4.860293e+001
4.597762e+002, 4.815135e+001
4.602584e+002, 4.772871e+001
4.607405e+002, 4.753094e+001
4.612226e+002, 4.749100e+001
4.617047e+002, 4.748265e+001
4.621868e+002, 4.751468e+001
4.626689e+002, 4.753880e+001
4.631511e+002, 4.758329e+001
4.636332e+002, 4.757854e+001
4.641153e+002, 4.743602e+001
4.645974e+002, 4.714142e+001
4.650795e+002, 4.683811e+001
4.655616e+002, 4.659694e+001
4.660438e+002, 4.641075e+001
4.665259e+002, 4.626924e+001
4.670080e+002, 4.617739e+001
4.674901e+002, 4.609692e+001
4.679722e+002, 4.598840e+001
4.684543e+002, 4.586626e+001
4.689365e+002, 4.579399e+001
4.694186e+002, 4.582075e+001
4.699007e+002, 4.585060e+001
4.703828e+002, 4.581133e+001
4.708649e+002, 4.574018e+001
4.713470e+002, 4.575763e+001
4.718292e+002, 4.591963e+001
4.723113e+002, 4.605436e+001
4.727934e+002, 4.585977e+001
4.732755e+002, 4.510257e+001
4.737576e+002, 4.471875e+001
4.742397e+002, 4.505809e+001
4.747219e+002, 4.544817e+001
4.752040e+002, 4.545129e+001
4.756861e+002, 4.514787e+001
4.761682e+002, 4.486628e+001
4.766503e+002, 4.482140e+001
4.771324e+002, 4.494369e+001
4.776146e+002, 4.495756e+001
4.780967e+002, 4.473882e+001
4.785788e+002, 4.461279e+001
4.790609e+002, 4.465290e+001
4.795430e+002, 4.475758e+001
4.800251e+002, 4.488699e+001
4.805073e+002, 4.501374e+001
4.809894e+002, 4.507071e+001
4.814715e+002, 4.493140e+001
4.819536e+002, 4.462367e+001
4.824357e+002, 4.455480e+001
4.829178e+002, 4.489435e+001
4.834000e+002, 4.518047e+001
4.838821e+002, 4.522537e+001
4.843642e+002, 4.509857e+001
4.848463e+002, 4.484436e+001
4.853284e+002, 4.442287e+001
4.858105e+002, 4.405303e+001
4.862927e+002, 4.401715e+001
4.867748e+002, 4.425226e+001
4.872569e+002, 4.435740e+001
4.877390e+002, 4.421238e+001
4.882211e+002, 4.398989e+001
4.887032e+002, 4.388350e+001
4.891854e+002, 4.386901e+001
4.896675e+002, 4.380978e+001
4.901496e+002, 4.363125e+001
4.906317e+002, 4.343810e+001
4.911138e+002, 4.336539e+001
4.915959e+002, 4.336521e+001
4.920781e+002, 4.321246e+001
4.925602e+002, 4.276351e+001
4.930423e+002, 4.221033e+001
4.935244e+002, 4.198998e+001
4.940065e+002, 4.238927e+001
4.944886e+002, 4.257536e+001
4.949708e+002, 4.241175e+001
4.954529e+002, 4.210855e+001
4.959350e+002, 4.174093e+001
4.964171e+002, 4.136662e+001
4.968992e+002, 4.110478e+001
4.973813e+002, 4.106124e+001
4.978635e+002, 4.119322e+001
4.983456e+002, 4.123308e+001
4.988277e+002, 4.113697e+001
4.993098e+002, 4.100541e+001
4.997919e+002, 4.085001e+001
5.002740e+002, 4.067165e+001
5.007562e+002, 4.045924e+001
5.012383e+002, 4.021593e+001
5.017204e+002, 3.997402e+001
5.022025e+002, 3.978407e+001
5.026846e+002, 3.963810e+001
5.031667e+002, 3.940685e+001
5.036489e+002, 3.898976e+001
5.041310e+002, 3.868389e+001
5.046131e+002, 3.876472e+001
5.050952e+002, 3.902067e+001
5.055773e+002, 3.914644e+001
5.060594e+002, 3.905304e+001
5.065416e+002, 3.887087e+001
5.070237e+002, 3.863032e+001
5.075058e+002, 3.837805e+001
5.079879e+002, 3.831489e+001
5.084700e+002, 3.853012e+001
5.089521e+002, 3.878070e+001
5.094343e+002, 3.877929e+001
5.099164e+002, 3.852556e+001
5.103985e+002, 3.838881e+001
5.108806e+002, 3.851056e+001
5.113627e+002, 3.863740e+001
5.118448e+002, 3.857323e+001
5.123270e+002, 3.840733e+001
5.128091e+002, 3.836402e+001
5.132912e+002, 3.854316e+001
5.137733e+002, 3.883356e+001
5.142554e+002, 3.904021e+001
5.147375e+002, 3.917402e+001
5.152197e+002, 3.918555e+001
5.157018e+002, 3.892024e+001
5.161839e+002, 3.869484e+001
5.166660e+002, 3.871260e+001
5.171481e+002, 3.890631e+001
5.176302e+002, 3.908505e+001
5.181124e+002, 3.913228e+001
5.185945e+002, 3.909962e+001
5.190766e+002, 3.911216e+001
5.195587e+002, 3.916597e+001
5.200408e+002, 3.927500e+001
5.205229e+002, 3.952629e+001
5.210051e+002, 3.976969e+001
5.214872e+002, 3.991674e+001
5.219693e+002, 3.996328e+001
5.224514e+002, 3.993380e+001
5.229335e+002, 3.969817e+001
5.234156e+002, 3.944487e+001
5.238978e+002, 3.958688e+001
5.243799e+002, 4.014817e+001
5.248620e+002, 4.072569e+001
5.253441e+002, 4.114422e+001
5.258262e+002, 4.144209e+001
5.263083e+002, 4.169387e+001
5.267905e+002, 4.188385e+001
5.272726e+002, 4.208657e+001
5.277547e+002, 4.235054e+001
5.282368e+002, 4.262319e+001
5.287189e+002, 4.280262e+001
5.292010e+002, 4.290380e+001
5.296832e+002, 4.311418e+001
5.301653e+002, 4.362300e+001
5.306474e+002, 4.433831e+001
5.311295e+002, 4.465191e+001
5.316116e+002, 4.381447e+001
5.320938e+002, 4.351150e+001
5.325759e+002, 4.433375e+001
5.330580e+002, 4.546029e+001
5.335401e+002, 4.615534e+001
5.340222e+002, 4.631645e+001
5.345043e+002, 4.632208e+001
5.349865e+002, 4.652919e+001
5.354686e+002, 4.691295e+001
5.359507e+002, 4.717561e+001
5.364328e+002, 4.725543e+001
5.369149e+002, 4.733086e+001
5.373970e+002, 4.744262e+001
5.378792e+002, 4.759681e+001
5.383613e+002, 4.785029e+001
5.388434e+002, 4.823274e+001
5.393255e+002, 4.850122e+001
5.398076e+002, 4.834508e+001
5.402897e+002, 4.794444e+001
5.407719e+002, 4.780604e+001
5.412540e+002, 4.801850e+001
5.417361e+002, 4.830545e+001
5.422182e+002, 4.850476e+001
5.427003e+002, 4.861062e+001
5.431824e+002, 4.863643e+001
5.436646e+002, 4.863764e+001
5.441467e+002, 4.848895e+001
5.446288e+002, 4.807402e+001
5.451109e+002, 4.751481e+001
5.455930e+002, 4.696159e+001
5.460751e+002, 4.644883e+001
5.465573e+002, 4.594725e+001
5.470394e+002, 4.542619e+001
5.475215e+002, 4.488652e+001
5.480036e+002, 4.431788e+001
5.484857e+002, 4.364178e+001
5.489678e+002, 4.301878e+001
5.494500e+002, 4.250536e+001
5.499321e+002, 4.204618e+001
5.504142e+002, 4.158480e+001
5.508963e+002, 4.110391e+001
5.513784e+002, 4.061054e+001
5.518605e+002, 4.008006e+001
5.523427e+002, 3.952193e+001
5.528248e+002, 3.908964e+001
5.533069e+002, 3.883166e+001
5.537890e+002, 3.861031e+001
5.542711e+002, 3.841793e+001
5.547532e+002, 3.819493e+001
5.552354e+002, 3.781340e+001
5.557175e+002, 3.716797e+001
5.561996e+002, 3.659244e+001
5.566817e+002, 3.634875e+001
5.571638e+002, 3.631675e+001
5.576459e+002, 3.626366e+001
5.581281e+002, 3.614771e+001
5.586102e+002, 3.599933e+001
5.590923e+002, 3.584506e+001
5.595744e+002, 3.568336e+001
5.600565e+002, 3.548668e+001
5.605386e+002, 3.518118e+001
5.610208e+002, 3.493847e+001
5.615029e+002, 3.484584e+001
5.619850e+002, 3.481126e+001
5.624671e+002, 3.473789e+001
5.629492e+002, 3.460109e+001
5.634313e+002, 3.441594e+001
5.639135e+002, 3.416879e+001
5.643956e+002, 3.386326e+001
5.648777e+002, 3.375836e+001
5.653598e+002, 3.401973e+001
5.658419e+002, 3.422047e+001
5.663240e+002, 3.428141e+001
5.668062e+002, 3.419759e+001
5.672883e+002, 3.386025e+001
5.677704e+002, 3.324004e+001
5.682525e+002, 3.277817e+001
5.687346e+002, 3.296444e+001
5.692167e+002, 3.356592e+001
5.696989e+002, 3.394849e+001
5.701810e+002, 3.405177e+001
5.706631e+002, 3.399040e+001
5.711452e+002, 3.376406e+001
5.716273e+002, 3.344800e+001
5.721094e+002, 3.330943e+001
5.725916e+002, 3.348219e+001
5.730737e+002, 3.357828e+001
5.735558e+002, 3.345067e+001
5.740379e+002, 3.321966e+001
5.745200e+002, 3.293277e+001
5.750021e+002, 3.264492e+001
5.754843e+002, 3.256281e+001
5.759664e+002, 3.289921e+001
5.764485e+002, 3.354162e+001
5.769306e+002, 3.377108e+001
5.774127e+002, 3.322186e+001
5.778948e+002, 3.283832e+001
5.783770e+002, 3.280956e+001
5.788591e+002, 3.292733e+001
5.793412e+002, 3.308656e+001
5.798233e+002, 3.324810e+001
5.803054e+002, 3.335153e+001
5.807875e+002, 3.335417e+001
5.812697e+002, 3.326638e+001
5.817518e+002, 3.306143e+001
5.822339e+002, 3.271087e+001
5.827161e+002, 3.251633e+001
5.831982e+002, 3.270074e+001
5.836803e+002, 3.300951e+001
5.841624e+002, 3.298656e+001
5.846445e+002, 3.257019e+001
5.851266e+002, 3.241891e+001
5.856088e+002, 3.296440e+001
5.860909e+002, 3.364674e+001
5.865730e+002, 3.397809e+001
5.870551e+002, 3.399906e+001
5.875372e+002, 3.397291e+001
5.880193e+002, 3.403590e+001
5.885015e+002, 3.412753e+001
5.889836e+002, 3.410796e+001
5.894657e+002, 3.390915e+001
5.899478e+002, 3.374663e+001
5.904299e+002, 3.363060e+001
5.909120e+002, 3.353619e+001
5.913942e+002, 3.339964e+001
5.918763e+002, 3.328185e+001
5.923584e+002, 3.333373e+001
5.928405e+002, 3.366014e+001
5.933226e+002, 3.405785e+001
5.938047e+002, 3.418127e+001
5.942869e+002, 3.403684e+001
5.947690e+002, 3.401049e+001
5.952511e+002, 3.424434e+001
5.957332e+002, 3.447755e+001
5.962153e+002, 3.440618e+001
5.966974e+002, 3.413083e+001
5.971796e+002, 3.400032e+001
5.976617e+002, 3.411933e+001
5.981438e+002, 3.433572e+001
5.986259e+002, 3.468523e+001
5.991080e+002, 3.504425e+001
5.995901e+002, 3.510835e+001
6.000723e+002, 3.482516e+001
6.005544e+002, 3.459601e+001
6.010365e+002, 3.489163e+001
6.015186e+002, 3.573136e+001
6.020007e+002, 3.626080e+001
6.024828e+002, 3.637656e+001
6.029650e+002, 3.628571e+001
6.034471e+002, 3.583093e+001
6.039292e+002, 3.529881e+001
6.044113e+002, 3.493886e+001
6.048934e+002, 3.480802e+001
6.053755e+002, 3.485074e+001
6.058577e+002, 3.517807e+001
6.063398e+002, 3.564872e+001
6.068219e+002, 3.566079e+001
6.073040e+002, 3.511810e+001
6.077861e+002, 3.465388e+001
6.082682e+002, 3.451502e+001
6.087504e+002, 3.465166e+001
6.092325e+002, 3.502828e+001
6.097146e+002, 3.572829e+001
6.101967e+002, 3.620979e+001
6.106788e+002, 3.619874e+001
6.111609e+002, 3.601155e+001
6.116431e+002, 3.592822e+001
6.121252e+002, 3.592724e+001
6.126073e+002, 3.582962e+001
6.130894e+002, 3.553130e+001
6.135715e+002, 3.517023e+001
6.140536e+002, 3.507554e+001
6.145358e+002, 3.543565e+001
6.150179e+002, 3.559726e+001
6.155000e+002, 3.522256e+001
6.159821e+002, 3.498658e+001
6.164642e+002, 3.535744e+001
6.169464e+002, 3.604125e+001
6.174285e+002, 3.644851e+001
6.179106e+002, 3.631663e+001
6.183927e+002, 3.598069e+001
6.188748e+002, 3.579784e+001
6.193569e+002, 3.574205e+001
6.198391e+002, 3.569430e+001
6.203212e+002, 3.565820e+001
6.208033e+002, 3.552774e+001
6.212854e+002, 3.515855e+001
6.217675e+002, 3.461148e+001
6.222496e+002, 3.425397e+001
6.227318e+002, 3.421614e+001
6.232139e+002, 3.419075e+001
6.236960e+002, 3.412886e+001
6.241781e+002, 3.401887e+001
6.246602e+002, 3.383815e+001
6.251423e+002, 3.359163e+001
6.256245e+002, 3.331986e+001
6.261066e+002, 3.306131e+001
6.265887e+002, 3.279607e+001
6.270708e+002, 3.239082e+001
6.275529e+002, 3.169675e+001
6.280350e+002, 3.122934e+001
6.285172e+002, 3.121168e+001
6.289993e+002, 3.136884e+001
6.294814e+002, 3.163592e+001
6.299635e+002, 3.195340e+001
6.304456e+002, 3.210355e+001
6.309277e+002, 3.197034e+001
6.314099e+002, 3.164112e+001
6.318920e+002, 3.107650e+001
6.323741e+002, 3.037037e+001
6.328562e+002, 2.994555e+001
6.333383e+002, 2.995995e+001
6.338204e+002, 3.012572e+001
6.343026e+002, 3.011331e+001
6.347847e+002, 2.990734e+001
6.352668e+002, 2.965547e+001
6.357489e+002, 2.913368e+001
6.362310e+002, 2.883648e+001
6.367131e+002, 2.900233e+001
6.371953e+002, 2.942304e+001
6.376774e+002, 2.996222e+001
6.381595e+002, 3.053336e+001
6.386416e+002, 3.090675e+001
6.391237e+002, 3.075648e+001
6.396058e+002, 3.020939e+001
6.400880e+002, 2.994373e+001
6.405701e+002, 3.003151e+001
6.410522e+002, 3.011759e+001
6.415343e+002, 3.007074e+001
6.420164e+002, 2.994756e+001
6.424985e+002, 2.980683e+001
6.429807e+002, 2.964268e+001
6.434628e+002, 2.954879e+001
6.439449e+002, 2.960993e+001
6.444270e+002, 2.970185e+001
6.449091e+002, 2.965314e+001
6.453912e+002, 2.955218e+001
6.458734e+002, 2.970427e+001
6.463555e+002, 3.023237e+001
6.468376e+002, 3.081392e+001
6.473197e+002, 3.090434e+001
6.478018e+002, 3.037384e+001
6.482839e+002, 3.009579e+001
6.487661e+002, 3.034121e+001
6.492482e+002, 3.050995e+001
6.497303e+002, 3.035797e+001
6.502124e+002, 3.005992e+001
6.506945e+002, 2.982042e+001
6.511766e+002, 2.968597e+001
6.516588e+002, 2.961718e+001
6.521409e+002, 2.967133e+001
6.526230e+002, 2.974620e+001
6.531051e+002, 2.954754e+001
6.535872e+002, 2.907232e+001
6.540693e+002, 2.878026e+001
6.545515e+002, 2.897145e+001
6.550336e+002, 2.939041e+001
6.555157e+002, 2.949622e+001
6.559978e+002, 2.911630e+001
6.564799e+002, 2.881226e+001
6.569620e+002, 2.857405e+001
6.574442e+002, 2.842514e+001
6.579263e+002, 2.848654e+001
6.584084e+002, 2.862001e+001
6.588905e+002, 2.853691e+001
6.593726e+002, 2.812295e+001
6.598547e+002, 2.768254e+001
6.603369e+002, 2.771873e+001
6.608190e+002, 2.818131e+001
6.613011e+002, 2.828282e+001
6.617832e+002, 2.785796e+001
6.622653e+002, 2.741929e+001
6.627474e+002, 2.723428e+001
6.632296e+002, 2.722790e+001
6.637117e+002, 2.728220e+001
6.641938e+002, 2.747761e+001
6.646759e+002, 2.745741e+001
6.651580e+002, 2.689459e+001
6.656401e+002, 2.623158e+001
6.661223e+002, 2.590109e+001
6.666044e+002, 2.584577e+001
6.670865e+002, 2.576483e+001
6.675686e+002, 2.549903e+001
6.680507e+002, 2.518914e+001
6.685328e+002, 2.514390e+001
6.690150e+002, 2.547364e+001
6.694971e+002, 2.557789e+001
6.699792e+002, 2.518343e+001
6.704613e+002, 2.490121e+001
6.709434e+002, 2.513780e+001
6.714255e+002, 2.559251e+001
6.719077e+002, 2.579688e+001
6.723898e+002, 2.561955e+001
6.728719e+002, 2.536892e+001
6.733540e+002, 2.523345e+001
6.738361e+002, 2.515180e+001
6.743182e+002, 2.499619e+001
6.748004e+002, 2.477679e+001
6.752825e+002, 2.466979e+001
6.757646e+002, 2.479619e+001
6.762467e+002, 2.503341e+001
6.767288e+002, 2.510000e+001
6.772109e+002, 2.494059e+001
6.776931e+002, 2.473458e+001
6.781752e+002, 2.428514e+001
6.786573e+002, 2.399808e+001
6.791394e+002, 2.421664e+001
6.796215e+002, 2.466354e+001
6.801036e+002, 2.485925e+001
6.805858e+002, 2.462992e+001
6.810679e+002, 2.432280e+001
6.815500e+002, 2.430935e+001
6.820321e+002, 2.447769e+001
6.825142e+002, 2.447667e+001
6.829963e+002, 2.426843e+001
6.834785e+002, 2.410780e+001
6.839606e+002, 2.415714e+001
6.844427e+002, 2.431755e+001
6.849248e+002, 2.435107e+001
6.854069e+002, 2.416338e+001
6.858890e+002, 2.407141e+001
6.863712e+002, 2.418553e+001
6.868533e+002, 2.429437e+001
6.873354e+002, 2.432071e+001
6.878175e+002, 2.425049e+001
6.882996e+002, 2.404478e+001
6.887817e+002, 2.369163e+001
6.892639e+002, 2.333074e+001
6.897460e+002, 2.313663e+001
6.902281e+002, 2.308931e+001
6.907102e+002, 2.304761e+001
6.911923e+002, 2.298735e+001
6.916744e+002, 2.303688e+001
6.921566e+002, 2.337078e+001
6.926387e+002, 2.377507e+001
6.931208e+002, 2.378422e+001
6.936029e+002, 2.330042e+001
6.940850e+002, 2.291909e+001
6.945671e+002, 2.275595e+001
6.950493e+002, 2.270471e+001
6.955314e+002, 2.275593e+001
6.960135e+002, 2.285482e+001
6.964956e+002, 2.291038e+001
6.969777e+002, 2.289035e+001
6.974598e+002, 2.283688e+001
6.979420e+002, 2.275465e+001
6.984241e+002, 2.265314e+001
6.989062e+002, 2.283563e+001
6.993883e+002, 2.345091e+001
6.998704e+002, 2.393239e+001
7.003525e+002, 2.400495e+001
7.008347e+002, 2.383353e+001
7.013168e+002, 2.360380e+001
7.017989e+002, 2.330457e+001
7.022810e+002, 2.312855e+001
7.027631e+002, 2.321506e+001
7.032452e+002, 2.336217e+001
7.037274e+002, 2.343711e+001
7.042095e+002, 2.346123e+001
7.046916e+002, 2.351923e+001
7.051737e+002, 2.362839e+001
7.056558e+002, 2.366255e+001
7.061379e+002, 2.343228e+001
7.066201e+002, 2.296136e+001
7.071022e+002, 2.270926e+001
7.075843e+002, 2.275302e+001
7.080664e+002, 2.283323e+001
7.085485e+002, 2.291412e+001
7.090306e+002, 2.296363e+001
7.095128e+002, 2.289463e+001
7.099949e+002, 2.272528e+001
7.104770e+002, 2.271069e+001
7.109591e+002, 2.320808e+001
7.114412e+002, 2.362131e+001
7.119233e+002, 2.336234e+001
7.124055e+002, 2.274454e+001
7.128876e+002, 2.238796e+001
7.133697e+002, 2.243823e+001
7.138518e+002, 2.260449e+001
7.143339e+002, 2.260469e+001
7.148160e+002, 2.246903e+001
7.152982e+002, 2.242486e+001
7.157803e+002, 2.252176e+001
7.162624e+002, 2.259482e+001
7.167445e+002, 2.260404e+001
7.172266e+002, 2.258328e+001
7.177087e+002, 2.252195e+001
7.181909e+002, 2.244376e+001
7.186730e+002, 2.244046e+001
7.191551e+002, 2.256612e+001
7.196372e+002, 2.273936e+001
7.201193e+002, 2.299991e+001
7.206014e+002, 2.323689e+001
7.210836e+002, 2.319677e+001
7.215657e+002, 2.287750e+001
7.220478e+002, 2.259067e+001
7.225299e+002, 2.258364e+001
7.230120e+002, 2.276053e+001
7.234941e+002, 2.275983e+001
7.239763e+002, 2.248006e+001
7.244584e+002, 2.230587e+001
7.249405e+002, 2.233168e+001
7.254226e+002, 2.241249e+001
7.259047e+002, 2.250693e+001
7.263868e+002, 2.259227e+001
7.268690e+002, 2.263701e+001
7.273511e+002, 2.265864e+001
7.278332e+002, 2.256579e+001
7.283153e+002, 2.206341e+001
7.287974e+002, 2.154670e+001
7.292795e+002, 2.172231e+001
7.297617e+002, 2.248563e+001
7.302438e+002, 2.299994e+001
7.307259e+002, 2.278942e+001
7.312080e+002, 2.223344e+001
7.316901e+002, 2.215388e+001
7.321722e+002, 2.275455e+001
7.326544e+002, 2.295580e+001
7.331365e+002, 2.241630e+001
7.336186e+002, 2.194629e+001
7.341007e+002, 2.193880e+001
7.345828e+002, 2.215309e+001
7.350649e+002, 2.231438e+001
7.355471e+002, 2.238826e+001
7.360292e+002, 2.238015e+001
7.365113e+002, 2.223206e+001
7.369934e+002, 2.205065e+001
7.374755e+002, 2.192369e+001
7.379576e+002, 2.185416e+001
7.384398e+002, 2.183318e+001
7.389219e+002, 2.185744e+001
7.394040e+002, 2.193486e+001
7.398861e+002, 2.209328e+001
7.403682e+002, 2.233018e+001
7.408503e+002, 2.245901e+001
7.413325e+002, 2.245621e+001
7.418146e+002, 2.239294e+001
7.422967e+002, 2.220589e+001
7.427788e+002, 2.202906e+001
7.432609e+002, 2.200721e+001
7.437430e+002, 2.211993e+001
7.442252e+002, 2.217746e+001
7.447073e+002, 2.206345e+001
7.451894e+002, 2.193937e+001
7.456715e+002, 2.186258e+001
7.461536e+002, 2.186272e+001
7.466357e+002, 2.206444e+001
7.471179e+002, 2.243991e+001
7.476000e+002, 2.269579e+001
7.480821e+002, 2.258125e+001
7.485642e+002, 2.223281e+001
7.490463e+002, 2.212553e+001
7.495284e+002, 2.234172e+001
7.500106e+002, 2.241389e+001
7.504927e+002, 2.217933e+001
7.509748e+002, 2.192922e+001
7.514569e+002, 2.189288e+001
7.519390e+002, 2.198080e+001
7.524211e+002, 2.199343e+001
7.529033e+002, 2.184924e+001
7.533854e+002, 2.177173e+001
7.538675e+002, 2.195748e+001
7.543496e+002, 2.215689e+001
7.548317e+002, 2.212012e+001
7.553138e+002, 2.188808e+001
7.557960e+002, 2.158868e+001
7.562781e+002, 2.128022e+001
7.567602e+002, 2.107910e+001
7.572423e+002, 2.120470e+001
7.577244e+002, 2.164445e+001
7.582065e+002, 2.202366e+001
7.586887e+002, 2.235781e+001
7.591708e+002, 2.255721e+001
7.596529e+002, 2.259480e+001
7.601350e+002, 2.246573e+001
7.606171e+002, 2.203444e+001
7.610992e+002, 2.124689e+001
7.615814e+002, 2.089070e+001
7.620635e+002, 2.153351e+001
7.625456e+002, 2.209539e+001
7.630277e+002, 2.194471e+001
7.635098e+002, 2.149423e+001
7.639919e+002, 2.129419e+001
7.644741e+002, 2.142845e+001
7.649562e+002, 2.162178e+001
7.654383e+002, 2.164901e+001
7.659204e+002, 2.160559e+001
7.664025e+002, 2.176608e+001
7.668846e+002, 2.211679e+001
7.673668e+002, 2.222991e+001
7.678489e+002, 2.195711e+001
7.683310e+002, 2.164636e+001
7.688131e+002, 2.162049e+001
7.692952e+002, 2.180394e+001
7.697773e+002, 2.176163e+001
7.702595e+002, 2.108559e+001
7.707416e+002, 2.079006e+001
7.712237e+002, 2.125822e+001
7.717058e+002, 2.182135e+001
7.721879e+002, 2.209134e+001
7.726700e+002, 2.211802e+001
7.731522e+002, 2.203786e+001
7.736343e+002, 2.188604e+001
7.741164e+002, 2.182410e+001
7.745985e+002, 2.217120e+001
7.750806e+002, 2.267502e+001
7.755627e+002, 2.269342e+001
7.760449e+002, 2.223248e+001
7.765270e+002, 2.177496e+001
7.770091e+002, 2.152053e+001
7.774912e+002, 2.141800e+001
7.779733e+002, 2.141162e+001
7.784554e+002, 2.152385e+001
7.789376e+002, 2.154367e+001
7.794197e+002, 2.133175e+001
7.799019e+002, 2.121948e+001
7.803840e+002, 2.138203e+001
7.808661e+002, 2.159030e+001
7.813482e+002, 2.163965e+001
7.818303e+002, 2.153308e+001
7.823124e+002, 2.139933e+001
7.827946e+002, 2.125990e+001
7.832767e+002, 2.115111e+001
7.837588e+002, 2.109761e+001
7.842409e+002, 2.109653e+001
7.847230e+002, 2.113961e+001
7.852051e+002, 2.122737e+001
7.856873e+002, 2.137989e+001
7.861694e+002, 2.161625e+001
7.866515e+002, 2.190479e+001
7.871336e+002, 2.219954e+001
7.876157e+002, 2.254119e+001
7.880978e+002, 2.263033e+001
7.885800e+002, 2.226647e+001
7.890621e+002, 2.195877e+001
7.895442e+002, 2.206980e+001
7.900263e+002, 2.237205e+001
7.905084e+002, 2.250135e+001
7.909905e+002, 2.241338e+001
7.914727e+002, 2.230665e+001
7.919548e+002, 2.225141e+001
7.924369e+002, 2.217091e+001
7.929190e+002, 2.199954e+001
7.934011e+002, 2.177458e+001
7.938832e+002, 2.152514e+001
7.943654e+002, 2.127667e+001
7.948475e+002, 2.112482e+001
7.953296e+002, 2.120517e+001
7.958117e+002, 2.140380e+001
7.962938e+002, 2.137501e+001
7.967759e+002, 2.112461e+001
7.972581e+002, 2.098667e+001
7.977402e+002, 2.105140e+001
7.982223e+002, 2.120433e+001
7.987044e+002, 2.138780e+001
7.991865e+002, 2.157357e+001
7.996686e+002, 2.159477e+001
8.001508e+002, 2.114928e+001
8.006329e+002, 2.097711e+001
8.011150e+002, 2.139283e+001
8.015971e+002, 2.178509e+001
8.020792e+002, 2.171882e+001
8.025613e+002, 2.140570e+001
8.030435e+002, 2.131823e+001
8.035256e+002, 2.162082e+001
8.040077e+002, 2.180770e+001
8.044898e+002, 2.127509e+001
8.049719e+002, 2.053969e+001
8.054540e+002, 2.042236e+001
8.059362e+002, 2.080951e+001
8.064183e+002, 2.111481e+001
8.069004e+002, 2.113049e+001
8.073825e+002, 2.100078e+001
8.078646e+002, 2.085701e+001
8.083467e+002, 2.071691e+001
8.088289e+002, 2.086315e+001
8.093110e+002, 2.150176e+001
8.097931e+002, 2.185872e+001
8.102752e+002, 2.159813e+001
8.107573e+002, 2.119065e+001
8.112394e+002, 2.099275e+001
8.117216e+002, 2.095536e+001
8.122037e+002, 2.092528e+001
8.126858e+002, 2.088143e+001
8.131679e+002, 2.084525e+001
8.136500e+002, 2.081626e+001
8.141321e+002, 2.080405e+001
8.146143e+002, 2.083162e+001
8.150964e+002, 2.088097e+001
8.155785e+002, 2.091117e+001
8.160606e+002, 2.090552e+001
8.165427e+002, 2.088226e+001
8.170248e+002, 2.084509e+001
8.175070e+002, 2.080804e+001
8.179891e+002, 2.082579e+001
8.184712e+002, 2.089905e+001
8.189533e+002, 2.101411e+001
8.194354e+002, 2.119794e+001
8.199175e+002, 2.128930e+001
8.203997e+002, 2.104629e+001
8.208818e+002, 2.047941e+001
8.213639e+002, 2.022639e+001
8.218460e+002, 2.055787e+001
8.223281e+002, 2.080511e+001
8.228102e+002, 2.080841e+001
8.232924e+002, 2.079178e+001
8.237745e+002, 2.094031e+001
8.242566e+002, 2.118409e+001
8.247387e+002, 2.131843e+001
8.252208e+002, 2.125669e+001
8.257029e+002, 2.117691e+001
8.261851e+002, 2.121083e+001
8.266672e+002, 2.126893e+001
8.271493e+002, 2.126773e+001
8.276314e+002, 2.119470e+001
8.281135e+002, 2.099191e+001
8.285956e+002, 2.064753e+001
8.290778e+002, 2.037490e+001
8.295599e+002, 2.047328e+001
8.300420e+002, 2.087886e+001
8.305241e+002, 2.118049e+001
8.310062e+002, 2.137892e+001
8.314883e+002, 2.142939e+001
8.319705e+002, 2.123939e+001
8.324526e+002, 2.106107e+001
8.329347e+002, 2.119351e+001
8.334168e+002, 2.158344e+001
8.338989e+002, 2.171441e+001
8.343810e+002, 2.143667e+001
8.348632e+002, 2.114293e+001
8.353453e+002, 2.076177e+001
8.358274e+002, 2.047573e+001
8.363095e+002, 2.042974e+001
8.367916e+002, 2.055383e+001
8.372737e+002, 2.073566e+001
8.377559e+002, 2.094953e+001
8.382380e+002, 2.108400e+001
8.387201e+002, 2.099588e+001
8.392022e+002, 2.082221e+001
8.396843e+002, 2.072195e+001
8.401664e+002, 2.070096e+001
8.406486e+002, 2.078348e+001
8.411307e+002, 2.096803e+001
8.416128e+002, 2.111199e+001
8.420949e+002, 2.105031e+001
8.425770e+002, 2.085209e+001
8.430591e+002, 2.086778e+001
8.435413e+002, 2.116096e+001
8.440234e+002, 2.134594e+001
8.445055e+002, 2.136669e+001
8.449876e+002, 2.125694e+001
8.454697e+002, 2.095673e+001
8.459518e+002, 2.056047e+001
8.464340e+002, 2.032639e+001
8.469161e+002, 2.022868e+001
8.473982e+002, 2.035109e+001
8.478803e+002, 2.103848e+001
8.483624e+002, 2.158323e+001
8.488445e+002, 2.148112e+001
8.493267e+002, 2.109469e+001
8.498088e+002, 2.094112e+001
8.502909e+002, 2.109714e+001
8.507730e+002, 2.124821e+001
8.512551e+002, 2.114845e+001
8.517372e+002, 2.098281e+001
8.522194e+002, 2.101920e+001
8.527015e+002, 2.115797e+001
8.531836e+002, 2.110173e+001
8.536657e+002, 2.082764e+001
8.541478e+002, 2.065578e+001
8.546299e+002, 2.082421e+001
8.551121e+002, 2.112533e+001
8.555942e+002, 2.102954e+001
8.560763e+002, 2.045705e+001
8.565584e+002, 2.018053e+001
8.570405e+002, 2.032757e+001
8.575226e+002, 2.049628e+001
8.580048e+002, 2.050344e+001
8.584869e+002, 2.045173e+001
8.589690e+002, 2.050045e+001
8.594511e+002, 2.065803e+001
8.599332e+002, 2.076374e+001
8.604153e+002, 2.084626e+001
8.608975e+002, 2.083135e+001
8.613796e+002, 2.057742e+001
8.618617e+002, 2.031453e+001
8.623438e+002, 2.027459e+001
8.628259e+002, 2.040617e+001
8.633080e+002, 2.050209e+001
8.637902e+002, 2.048141e+001
8.642723e+002, 2.039266e+001
8.647544e+002, 2.017163e+001
8.652365e+002, 1.996582e+001
8.657186e+002, 2.010667e+001
8.662007e+002, 2.049386e+001
8.666829e+002, 2.066121e+001
8.671650e+002, 2.043907e+001
8.676471e+002, 2.011147e+001
8.681292e+002, 2.000771e+001
8.686113e+002, 2.009545e+001
8.690934e+002, 2.019405e+001
8.695756e+002, 2.030761e+001
8.700577e+002, 2.040688e+001
8.705398e+002, 2.050072e+001
8.710219e+002, 2.053919e+001
8.715040e+002, 2.045925e+001
8.719861e+002, 2.029855e+001
8.724683e+002, 2.019638e+001
8.729504e+002, 2.019463e+001
8.734325e+002, 2.017438e+001
8.739146e+002, 2.007348e+001
8.743967e+002, 2.002388e+001
8.748788e+002, 2.016825e+001
8.753610e+002, 2.034937e+001
8.758431e+002, 2.031046e+001
8.763252e+002, 2.004161e+001
8.768073e+002, 1.989455e+001
8.772894e+002, 2.018135e+001
8.777715e+002, 2.050040e+001
8.782537e+002, 2.051731e+001
8.787358e+002, 2.037729e+001
8.792179e+002, 2.030025e+001
8.797000e+002, 2.029988e+001
8.801821e+002, 2.023248e+001
8.806642e+002, 2.000042e+001
8.811464e+002, 1.982561e+001
8.816285e+002, 2.022022e+001
8.821106e+002, 2.101580e+001
8.825927e+002, 2.118093e+001
8.830748e+002, 2.065416e+001
8.835569e+002, 2.006746e+001
8.840391e+002, 1.961242e+001
8.845212e+002, 1.936738e+001
8.850033e+002, 1.944866e+001
8.854854e+002, 1.984052e+001
8.859675e+002, 2.023954e+001
8.864496e+002, 2.065028e+001
8.869318e+002, 2.105975e+001
8.874139e+002, 2.168843e+001
8.878960e+002, 2.207636e+001
8.883781e+002, 2.173438e+001
8.888602e+002, 2.103981e+001
8.893423e+002, 2.076993e+001
8.898245e+002, 2.110994e+001
8.903066e+002, 2.140474e+001
8.907887e+002, 2.161466e+001
8.912708e+002, 2.157894e+001
8.917529e+002, 2.098084e+001
8.922350e+002, 2.019808e+001
8.927172e+002, 1.970882e+001
8.931993e+002, 1.958733e+001
8.936814e+002, 1.965144e+001
8.941635e+002, 1.981384e+001
8.946456e+002, 2.006742e+001
8.951277e+002, 2.042862e+001
8.956099e+002, 2.086586e+001
8.960920e+002, 2.140830e+001
8.965741e+002, 2.199302e+001
8.970562e+002, 2.221159e+001
8.975383e+002, 2.185916e+001
8.980204e+002, 2.129834e+001
8.985026e+002, 2.105274e+001
8.989847e+002, 2.109683e+001
8.994668e+002, 2.110316e+001
8.999489e+002, 2.106521e+001
9.004310e+002, 2.102488e+001
9.009131e+002, 2.099191e+001
9.013953e+002, 2.096150e+001
9.018774e+002, 2.093025e+001
9.023595e+002, 2.089801e+001
9.028416e+002, 2.086026e+001
9.033237e+002, 2.072364e+001
9.038058e+002, 2.075473e+001
9.042880e+002, 2.120639e+001
9.047701e+002, 2.152837e+001
9.052522e+002, 2.132776e+001
9.057343e+002, 2.097558e+001
9.062164e+002, 2.096127e+001
9.066985e+002, 2.131680e+001
9.071807e+002, 2.165594e+001
9.076628e+002, 2.191372e+001
9.081449e+002, 2.203544e+001
9.086270e+002, 2.186846e+001
9.091091e+002, 2.163465e+001
9.095912e+002, 2.157602e+001
9.100734e+002, 2.168790e+001
9.105555e+002, 2.187109e+001
9.110376e+002, 2.208512e+001
9.115197e+002, 2.227237e+001
9.120018e+002, 2.230438e+001
9.124839e+002, 2.229296e+001
9.129661e+002, 2.256511e+001
9.134482e+002, 2.303516e+001
9.139303e+002, 2.322596e+001
9.144124e+002, 2.301435e+001
9.148945e+002, 2.273217e+001
9.153766e+002, 2.267931e+001
9.158588e+002, 2.276344e+001
9.163409e+002, 2.266791e+001
9.168230e+002, 2.236348e+001
9.173051e+002, 2.217494e+001
9.177872e+002, 2.216906e+001
9.182693e+002, 2.213914e+001
9.187515e+002, 2.193656e+001
9.192336e+002, 2.172079e+001
9.197157e+002, 2.177449e+001
9.201978e+002, 2.214417e+001
9.206799e+002, 2.232171e+001
9.211620e+002, 2.214863e+001
9.216442e+002, 2.200067e+001
9.221263e+002, 2.195074e+001
9.226084e+002, 2.191911e+001
9.230905e+002, 2.181670e+001
9.235726e+002, 2.169713e+001
9.240547e+002, 2.170311e+001
9.245369e+002, 2.189689e+001
9.250190e+002, 2.206479e+001
9.255011e+002, 2.213507e+001
9.259832e+002, 2.215082e+001
9.264653e+002, 2.208855e+001
9.269474e+002, 2.201809e+001
9.274296e+002, 2.207751e+001
9.279117e+002, 2.224686e+001
9.283938e+002, 2.230722e+001
9.288759e+002, 2.206430e+001
9.293580e+002, 2.182236e+001
9.298401e+002, 2.203623e+001
9.303223e+002, 2.243991e+001
9.308044e+002, 2.247781e+001
9.312865e+002, 2.219275e+001
9.317686e+002, 2.198470e+001
9.322507e+002, 2.201412e+001
9.327328e+002, 2.212733e+001
9.332150e+002, 2.214719e+001
9.336971e+002, 2.210747e+001
9.341792e+002, 2.214967e+001
9.346613e+002, 2.227348e+001
9.351434e+002, 2.236565e+001
9.356255e+002, 2.239535e+001
9.361077e+002, 2.247040e+001
9.365898e+002, 2.268722e+001
9.370719e+002, 2.294875e+001
9.375540e+002, 2.303060e+001
9.380361e+002, 2.289123e+001
9.385182e+002, 2.278355e+001
9.390004e+002, 2.261196e+001
9.394825e+002, 2.266866e+001
9.399646e+002, 2.322340e+001
9.404467e+002, 2.385261e+001
9.409288e+002, 2.421224e+001
9.414109e+002, 2.432276e+001
9.418931e+002, 2.423211e+001
9.423752e+002, 2.366584e+001
9.428573e+002, 2.340883e+001
9.433394e+002, 2.379384e+001
9.438215e+002, 2.424254e+001
9.443036e+002, 2.447476e+001
9.447858e+002, 2.458745e+001
9.452679e+002, 2.471284e+001
9.457500e+002, 2.487276e+001
9.462321e+002, 2.505365e+001
9.467142e+002, 2.539057e+001
9.471964e+002, 2.556432e+001
9.476785e+002, 2.526218e+001
9.481606e+002, 2.478471e+001
9.486427e+002, 2.434627e+001
9.491248e+002, 2.405090e+001
9.496069e+002, 2.409529e+001
9.500891e+002, 2.453860e+001
9.505712e+002, 2.503539e+001
9.510533e+002, 2.525919e+001
9.515354e+002, 2.534176e+001
9.520175e+002, 2.557578e+001
9.524996e+002, 2.584392e+001
9.529818e+002, 2.574331e+001
9.534639e+002, 2.524686e+001
9.539460e+002, 2.471664e+001
9.544281e+002, 2.436884e+001
9.549102e+002, 2.420017e+001
9.553923e+002, 2.429040e+001
9.558745e+002, 2.459395e+001
9.563566e+002, 2.465582e+001
9.568387e+002, 2.446114e+001
9.573208e+002, 2.419443e+001
9.578029e+002, 2.389059e+001
9.582850e+002, 2.363699e+001
9.587672e+002, 2.351535e+001
9.592493e+002, 2.350848e+001
9.597314e+002, 2.355956e+001
9.602135e+002, 2.370515e+001
9.606956e+002, 2.377274e+001
9.611777e+002, 2.373197e+001
9.616599e+002, 2.365205e+001
9.621420e+002, 2.346857e+001
9.626241e+002, 2.335459e+001
9.631062e+002, 2.360884e+001
9.635883e+002, 2.422859e+001
9.640704e+002, 2.454979e+001
9.645526e+002, 2.419558e+001
9.650347e+002, 2.411424e+001
9.655168e+002, 2.468917e+001
9.659989e+002, 2.523588e+001
9.664810e+002, 2.528202e+001
9.669631e+002, 2.510765e+001
9.674453e+002, 2.521811e+001
9.679274e+002, 2.568664e+001
9.684095e+002, 2.596797e+001
9.688916e+002, 2.574038e+001
9.693737e+002, 2.550521e+001
9.698558e+002, 2.554117e+001
9.703380e+002, 2.562466e+001
9.708201e+002, 2.545334e+001
9.713022e+002, 2.515649e+001
9.717843e+002, 2.512584e+001
9.722664e+002, 2.550535e+001
9.727485e+002, 2.589737e+001
9.732307e+002, 2.597352e+001
9.737128e+002, 2.599336e+001
9.741949e+002, 2.623870e+001
9.746770e+002, 2.659796e+001
9.751591e+002, 2.690192e+001
9.756412e+002, 2.710997e+001
9.761234e+002, 2.716855e+001
9.766055e+002, 2.701345e+001
9.770876e+002, 2.698456e+001
9.775698e+002, 2.771661e+001
9.780519e+002, 2.878367e+001
9.785340e+002, 2.916861e+001
9.790161e+002, 2.900348e+001
9.794982e+002, 2.901581e+001
9.799803e+002, 2.938579e+001
9.804625e+002, 2.977421e+001
9.809446e+002, 2.989830e+001
9.814267e+002, 2.990855e+001
9.819088e+002, 3.015851e+001
9.823909e+002, 3.061813e+001
9.828730e+002, 3.098885e+001
9.833552e+002, 3.124978e+001
9.838373e+002, 3.153296e+001
9.843194e+002, 3.188377e+001
9.848015e+002, 3.230576e+001
9.852836e+002, 3.283511e+001
9.857657e+002, 3.341513e+001
9.862479e+002, 3.372118e+001
9.867300e+002, 3.366471e+001
9.872121e+002, 3.383718e+001
9.876942e+002, 3.438093e+001
9.881763e+002, 3.486884e+001
9.886584e+002, 3.505117e+001
9.891406e+002, 3.515399e+001
9.896227e+002, 3.545264e+001
9.901048e+002, 3.594997e+001
9.905869e+002, 3.669005e+001
9.910690e+002, 3.802445e+001
9.915511e+002, 3.890611e+001
9.920333e+002, 3.896492e+001
9.925154e+002, 3.888906e+001
9.929975e+002, 3.896798e+001
9.934796e+002, 3.917166e+001
9.939617e+002, 3.945080e+001
9.944438e+002, 3.980325e+001
9.949260e+002, 4.026131e+001
9.954081e+002, 4.097297e+001
9.958902e+002, 4.158698e+001
9.963723e+002, 4.190740e+001
9.968544e+002, 4.222638e+001
9.973365e+002, 4.279892e+001
9.978187e+002, 4.349705e+001
9.983008e+002, 4.402248e+001
9.987829e+002, 4.430623e+001
9.992650e+002, 4.470667e+001
9.997471e+002, 4.533158e+001
1.000229e+003, 4.609671e+001
1.000711e+003, 4.697294e+001
1.001193e+003, 4.796574e+001
1.001676e+003, 4.904754e+001
1.002158e+003, 5.026367e+001
1.002640e+003, 5.184405e+001
1.003122e+003, 5.392799e+001
1.003604e+003, 5.558202e+001
1.004086e+003, 5.597268e+001
1.004568e+003, 5.605184e+001
1.005050e+003, 5.654985e+001
1.005533e+003, 5.723976e+001
1.006015e+003, 5.778981e+001
1.006497e+003, 5.818304e+001
1.006979e+003, 5.855072e+001
1.007461e+003, 5.894519e+001
1.007943e+003, 5.938739e+001
1.008425e+003, 6.007272e+001
1.008907e+003, 6.067725e+001
1.009389e+003, 6.072023e+001
1.009872e+003, 6.036264e+001
1.010354e+003, 5.992207e+001
1.010836e+003, 5.947557e+001
1.011318e+003, 5.896141e+001
1.011800e+003, 5.831583e+001
1.012282e+003, 5.784517e+001
1.012764e+003, 5.817353e+001
1.013246e+003, 5.884919e+001
1.013729e+003, 5.883704e+001
1.014211e+003, 5.826490e+001
1.014693e+003, 5.768508e+001
1.015175e+003, 5.724136e+001
1.015657e+003, 5.691219e+001
1.016139e+003, 5.670307e+001
1.016621e+003, 5.647617e+001
1.017103e+003, 5.595673e+001
1.017585e+003, 5.521097e+001
1.018068e+003, 5.449046e+001
1.018550e+003, 5.381971e+001
1.019032e+003, 5.334426e+001
1.019514e+003, 5.310821e+001
1.019996e+003, 5.286354e+001
1.020478e+003, 5.240987e+001
1.020960e+003, 5.182237e+001
1.021442e+003, 5.125777e+001
1.021924e+003, 5.071883e+001
1.022407e+003, 5.028143e+001
1.022889e+003, 4.996689e+001
1.023371e+003, 4.940027e+001
1.023853e+003, 4.843684e+001
1.024335e+003, 4.733563e+001
1.024817e+003, 4.629800e+001
1.025299e+003, 4.534886e+001
1.025781e+003, 4.457576e+001
1.026264e+003, 4.398808e+001
1.026746e+003, 4.350889e+001
1.027228e+003, 4.319239e+001
1.027710e+003, 4.273279e+001
1.028192e+003, 4.201549e+001
1.028674e+003, 4.115284e+001
1.029156e+003, 4.023675e+001
1.029638e+003, 3.927550e+001
1.030120e+003, 3.826129e+001
1.030603e+003, 3.712336e+001
1.031085e+003, 3.621598e+001
1.031567e+003, 3.557790e+001
1.032049e+003, 3.512440e+001
1.032531e+003, 3.494423e+001
1.033013e+003, 3.474005e+001
1.033495e+003, 3.416159e+001
1.033977e+003, 3.331115e+001
1.034459e+003, 3.270753e+001
1.034942e+003, 3.242691e+001
1.035424e+003, 3.223065e+001
1.035906e+003, 3.231709e+001
1.036388e+003, 3.213806e+001
1.036870e+003, 3.124719e+001
1.037352e+003, 3.028613e+001
1.037834e+003, 2.995687e+001
1.038316e+003, 3.013291e+001
1.038799e+003, 3.005120e+001
1.039281e+003, 2.950158e+001
1.039763e+003, 2.910272e+001
1.040245e+003, 2.885238e+001
1.040727e+003, 2.875274e+001
1.041209e+003, 2.896691e+001
1.041691e+003, 2.920336e+001
1.042173e+003, 2.914105e+001
1.042656e+003, 2.884490e+001
1.043138e+003, 2.866590e+001
1.043620e+003, 2.873321e+001
1.044102e+003, 2.868340e+001
1.044584e+003, 2.838702e+001
1.045066e+003, 2.810472e+001
1.045548e+003, 2.791916e+001
1.046030e+003, 2.780118e+001
1.046512e+003, 2.774594e+001
1.046995e+003, 2.773465e+001
1.047477e+003, 2.768692e+001
1.047959e+003, 2.754432e+001
1.048441e+003, 2.748114e+001
1.048923e+003, 2.753936e+001
1.049405e+003, 2.766256e+001
1.049887e+003, 2.796144e+001
1.050369e+003, 2.821258e+001
1.050851e+003, 2.812447e+001
1.051334e+003, 2.778133e+001
1.051816e+003, 2.757240e+001
1.052298e+003, 2.763422e+001
1.052780e+003, 2.762992e+001
1.053262e+003, 2.734860e+001
1.053744e+003, 2.714644e+001
1.054226e+003, 2.727952e+001
1.054708e+003, 2.750012e+001
1.055191e+003, 2.748970e+001
1.055673e+003, 2.733433e+001
1.056155e+003, 2.744203e+001
1.056637e+003, 2.804422e+001
1.057119e+003, 2.840488e+001
1.057601e+003, 2.810595e+001
1.058083e+003, 2.775005e+001
1.058565e+003, 2.756800e+001
1.059047e+003, 2.753023e+001
1.059530e+003, 2.763157e+001
1.060012e+003, 2.783276e+001
1.060494e+003, 2.805829e+001
1.060976e+003, 2.831542e+001
1.061458e+003, 2.847133e+001
1.061940e+003, 2.834195e+001
1.062422e+003, 2.826638e+001
1.062904e+003, 2.856255e+001
1.063386e+003, 2.888796e+001
1.063869e+003, 2.882585e+001
1.064351e+003, 2.850281e+001
1.064833e+003, 2.833595e+001
1.065315e+003, 2.843811e+001
1.065797e+003, 2.862995e+001
1.066279e+003, 2.902448e+001
1.066761e+003, 2.926416e+001
1.067243e+003, 2.902122e+001
1.067726e+003, 2.864316e+001
1.068208e+003, 2.843936e+001
1.068690e+003, 2.839910e+001
1.069172e+003, 2.841688e+001
1.069654e+003, 2.846993e+001
1.070136e+003, 2.853211e+001
1.070618e+003, 2.861542e+001
1.071100e+003, 2.867582e+001
1.071583e+003, 2.865363e+001
1.072065e+003, 2.862851e+001
1.072547e+003, 2.859405e+001
1.073029e+003, 2.864231e+001
1.073511e+003, 2.905421e+001
1.073993e+003, 2.988141e+001
1.074475e+003, 3.039102e+001
1.074957e+003, 2.993941e+001
1.075439e+003, 2.950266e+001
1.075922e+003, 2.963117e+001
1.076404e+003, 2.993855e+001
1.076886e+003, 3.016899e+001
1.077368e+003, 3.027892e+001
1.077850e+003, 3.019954e+001
1.078332e+003, 2.994174e+001
1.078814e+003, 2.977961e+001
1.079296e+003, 2.994886e+001
1.079779e+003, 3.007528e+001
1.080261e+003, 2.978373e+001
1.080743e+003, 2.956693e+001
1.081225e+003, 2.997836e+001
1.081707e+003, 3.066952e+001
1.082189e+003, 3.106586e+001
1.082671e+003, 3.109775e+001
1.083153e+003, 3.108029e+001
1.083635e+003, 3.116410e+001
1.084118e+003, 3.116082e+001
1.084600e+003, 3.076565e+001
1.085082e+003, 3.048061e+001
1.085564e+003, 3.081293e+001
1.086046e+003, 3.140202e+001
1.086528e+003, 3.179593e+001
1.087010e+003, 3.192844e+001
1.087492e+003, 3.184280e+001
1.087974e+003, 3.140223e+001
1.088457e+003, 3.114564e+001
1.088939e+003, 3.149976e+001
1.089421e+003, 3.187909e+001
1.089903e+003, 3.199017e+001
1.090385e+003, 3.187088e+001
1.090867e+003, 3.143097e+001
1.091349e+003, 3.082332e+001
1.091831e+003, 3.056044e+001
1.092314e+003, 3.089921e+001
1.092796e+003, 3.108575e+001
1.093278e+003, 3.052189e+001
1.093760e+003, 3.012817e+001
1.094242e+003, 3.063738e+001
1.094724e+003, 3.132477e+001
1.095206e+003, 3.145913e+001
1.095688e+003, 3.117243e+001
1.096171e+003, 3.096469e+001
1.096653e+003, 3.095017e+001
1.097135e+003, 3.088959e+001
1.097617e+003, 3.060353e+001
1.098099e+003, 3.039997e+001
1.098581e+003, 3.048861e+001
1.099063e+003, 3.062216e+001
1.099545e+003, 3.059253e+001
1.100027e+003, 3.046556e+001
1.100510e+003, 3.036207e+001
1.100992e+003, 3.029753e+001
1.101474e+003, 3.035438e+001
1.101956e+003, 3.086588e+001
1.102438e+003, 3.105135e+001
1.102920e+003, 3.023326e+001
1.103402e+003, 2.953463e+001
1.103884e+003, 2.996197e+001
1.104366e+003, 3.076138e+001
1.104849e+003, 3.072317e+001
1.105331e+003, 2.984330e+001
1.105813e+003, 2.935100e+001
1.106295e+003, 2.967811e+001
1.106777e+003, 3.000547e+001
1.107259e+003, 3.044367e+001
1.107741e+003, 3.059663e+001
1.108223e+003, 2.997910e+001
1.108706e+003, 2.921462e+001
1.109188e+003, 2.899293e+001
1.109670e+003, 2.923630e+001
1.110152e+003, 2.944758e+001
1.110634e+003, 2.970110e+001
1.111116e+003, 2.968770e+001
1.111598e+003, 2.905189e+001
1.112080e+003, 2.859875e+001
1.112563e+003, 2.864955e+001
1.113045e+003, 2.888836e+001
1.113527e+003, 2.917012e+001
1.114009e+003, 2.942753e+001
1.114491e+003, 2.944715e+001
1.114973e+003, 2.913552e+001
1.115455e+003, 2.899379e+001
1.115937e+003, 2.915304e+001
1.116419e+003, 2.924973e+001
1.116901e+003, 2.913860e+001
1.117384e+003, 2.907029e+001
1.117866e+003, 2.925139e+001
1.118348e+003, 2.952111e+001
1.118830e+003, 2.961535e+001
1.119312e+003, 2.953122e+001
1.119794e+003, 2.933459e+001
1.120276e+003, 2.886457e+001
1.120758e+003, 2.874269e+001
1.121241e+003, 2.927051e+001
1.121723e+003, 2.958613e+001
1.122205e+003, 2.916477e+001
1.122687e+003, 2.859788e+001
1.123169e+003, 2.861697e+001
1.123651e+003, 2.910439e+001
1.124133e+003, 2.937067e+001
1.124615e+003, 2.935808e+001
1.125098e+003, 2.942400e+001
1.125580e+003, 2.962885e+001
1.126062e+003, 2.970246e+001
1.126544e+003, 2.953210e+001
1.127026e+003, 2.929934e+001
1.127508e+003, 2.915418e+001
1.127990e+003, 2.905986e+001
1.128472e+003, 2.889880e+001
1.128954e+003, 2.866448e+001
1.129437e+003, 2.866649e+001
1.129919e+003, 2.892832e+001
1.130401e+003, 2.903605e+001
1.130883e+003, 2.889233e+001
1.131365e+003, 2.873401e+001
1.131847e+003, 2.870562e+001
1.132329e+003, 2.871502e+001
1.132811e+003, 2.861382e+001
1.133293e+003, 2.843652e+001
1.133776e+003, 2.834168e+001
1.134258e+003, 2.832664e+001
1.134740e+003, 2.839626e+001
1.135222e+003, 2.854006e+001
1.135704e+003, 2.862584e+001
1.136186e+003, 2.860025e+001
1.136668e+003, 2.855039e+001
1.137150e+003, 2.855752e+001
1.137633e+003, 2.860551e+001
1.138115e+003, 2.867426e+001
1.138597e+003, 2.875447e+001
1.139079e+003, 2.887940e+001
1.139561e+003, 2.899284e+001
1.140043e+003, 2.879729e+001
1.140525e+003, 2.828019e+001
1.141007e+003, 2.789266e+001
1.141490e+003, 2.793597e+001
1.141972e+003, 2.812769e+001
1.142454e+003, 2.821635e+001
1.142936e+003, 2.816990e+001
1.143418e+003, 2.773147e+001
1.143900e+003, 2.720172e+001
1.144382e+003, 2.738507e+001
1.144864e+003, 2.811356e+001
1.145346e+003, 2.834385e+001
1.145828e+003, 2.768458e+001
1.146311e+003, 2.706854e+001
1.146793e+003, 2.738472e+001
1.147275e+003, 2.786762e+001
1.147757e+003, 2.782717e+001
1.148239e+003, 2.754351e+001
1.148721e+003, 2.719231e+001
1.149203e+003, 2.692490e+001
1.149685e+003, 2.701803e+001
1.150168e+003, 2.747070e+001
1.150650e+003, 2.788496e+001
1.151132e+003, 2.811195e+001
1.151614e+003, 2.820901e+001
1.152096e+003, 2.816452e+001
1.152578e+003, 2.804678e+001
1.153060e+003, 2.784082e+001
1.153542e+003, 2.763302e+001
1.154025e+003, 2.750479e+001
1.154507e+003, 2.746194e+001
1.154989e+003, 2.749792e+001
1.155471e+003, 2.763065e+001
1.155953e+003, 2.774302e+001
1.156435e+003, 2.781425e+001
1.156917e+003, 2.785335e+001
1.157399e+003, 2.787616e+001
1.157881e+003, 2.785500e+001
1.158364e+003, 2.766762e+001
1.158846e+003, 2.747324e+001
1.159328e+003, 2.760796e+001
1.159810e+003, 2.809220e+001
1.160292e+003, 2.830704e+001
1.160774e+003, 2.812833e+001
1.161256e+003, 2.788566e+001
1.161738e+003, 2.739352e+001
1.162220e+003, 2.718536e+001
1.162703e+003, 2.766552e+001
1.163185e+003, 2.821139e+001
1.163667e+003, 2.821765e+001
1.164149e+003, 2.782873e+001
1.164631e+003, 2.748358e+001
1.165113e+003, 2.712057e+001
1.165595e+003, 2.725185e+001
1.166077e+003, 2.804492e+001
1.166560e+003, 2.858392e+001
1.167042e+003, 2.864398e+001
1.167524e+003, 2.859754e+001
1.168006e+003, 2.866794e+001
1.168488e+003, 2.872172e+001
1.168970e+003, 2.850124e+001
1.169452e+003, 2.812736e+001
1.169934e+003, 2.834202e+001
1.170417e+003, 2.908284e+001
1.170899e+003, 2.938828e+001
1.171381e+003, 2.919656e+001
1.171863e+003, 2.908246e+001
1.172345e+003, 2.923414e+001
1.172827e+003, 2.929056e+001
1.173309e+003, 2.892757e+001
1.173791e+003, 2.844225e+001
1.174273e+003, 2.831376e+001
1.174755e+003, 2.844772e+001
1.175238e+003, 2.872525e+001
1.175720e+003, 2.904516e+001
1.176202e+003, 2.910346e+001
1.176684e+003, 2.891303e+001
1.177166e+003, 2.873775e+001
1.177648e+003, 2.869317e+001
1.178130e+003, 2.878919e+001
1.178612e+003, 2.923186e+001
1.179095e+003, 2.958585e+001
1.179577e+003, 2.928999e+001
1.180059e+003, 2.875415e+001
1.180541e+003, 2.835236e+001
1.181023e+003, 2.816346e+001
1.181505e+003, 2.826251e+001
1.181987e+003, 2.863282e+001
1.182469e+003, 2.915216e+001
1.182952e+003, 2.989593e+001
1.183434e+003, 3.042605e+001
1.183916e+003, 3.049021e+001
1.184398e+003, 3.035580e+001
1.184880e+003, 2.992523e+001
1.185362e+003, 2.957756e+001
1.185844e+003, 2.977236e+001
1.186326e+003, 3.030766e+001
1.186808e+003, 3.065514e+001
1.187291e+003, 3.074210e+001
1.187773e+003, 3.083368e+001
1.188255e+003, 3.097182e+001
1.188737e+003, 3.109103e+001
1.189219e+003, 3.120507e+001
1.189701e+003, 3.126468e+001
1.190183e+003, 3.114514e+001
1.190665e+003, 3.108958e+001
1.191147e+003, 3.142229e+001
1.191630e+003, 3.202109e+001
1.192112e+003, 3.235430e+001
1.192594e+003, 3.237127e+001
1.193076e+003, 3.236685e+001
1.193558e+003, 3.232893e+001
1.194040e+003, 3.233457e+001
1.194522e+003, 3.240501e+001
1.195004e+003, 3.248658e+001
1.195487e+003, 3.253690e+001
1.195969e+003, 3.264448e+001
1.196451e+003, 3.297655e+001
1.196933e+003, 3.343191e+001
1.197415e+003, 3.359777e+001
1.197897e+003, 3.352525e+001
1.198379e+003, 3.349665e+001
1.198861e+003, 3.352627e+001
1.199344e+003, 3.351933e+001
1.199826e+003, 3.345477e+001
1.200308e+003, 3.342364e+001
1.200790e+003, 3.349722e+001
1.201272e+003, 3.356915e+001
1.201754e+003, 3.343934e+001
1.202236e+003, 3.328807e+001
1.202718e+003, 3.340397e+001
1.203200e+003, 3.366523e+001
1.203682e+003, 3.388479e+001
1.204165e+003, 3.403978e+001
1.204647e+003, 3.419206e+001
1.205129e+003, 3.434602e+001
1.205611e+003, 3.431190e+001
1.206093e+003, 3.370284e+001
1.206575e+003, 3.335891e+001
1.207057e+003, 3.402508e+001
1.207539e+003, 3.475704e+001
1.208022e+003, 3.492959e+001
1.208504e+003, 3.478805e+001
1.208986e+003, 3.455528e+001
1.209468e+003, 3.431572e+001
1.209950e+003, 3.425746e+001
1.210432e+003, 3.443999e+001
1.210914e+003, 3.463996e+001
1.211396e+003, 3.498059e+001
1.211879e+003, 3.511372e+001
1.212361e+003, 3.486657e+001
1.212843e+003, 3.459657e+001
1.213325e+003, 3.447843e+001
1.213807e+003, 3.442614e+001
1.214289e+003, 3.430758e+001
1.214771e+003, 3.417627e+001
1.215253e+003, 3.434604e+001
1.215735e+003, 3.487751e+001
1.216218e+003, 3.511823e+001
1.216700e+003, 3.503335e+001
1.217182e+003, 3.493074e+001
1.217664e+003, 3.488087e+001
1.218146e+003, 3.485230e+001
1.218628e+003, 3.482782e+001
1.219110e+003, 3.478699e+001
1.219592e+003, 3.464819e+001
1.220074e+003, 3.453848e+001
1.220557e+003, 3.493802e+001
1.221039e+003, 3.555474e+001
1.221521e+003, 3.548555e+001
1.222003e+003, 3.492095e+001
1.222485e+003, 3.471394e+001
1.222967e+003, 3.500921e+001
1.223449e+003, 3.529133e+001
1.223931e+003, 3.529146e+001
1.224414e+003, 3.516595e+001
1.224896e+003, 3.494102e+001
1.225378e+003, 3.474674e+001
1.225860e+003, 3.469827e+001
1.226342e+003, 3.472869e+001
1.226824e+003, 3.488475e+001
1.227306e+003, 3.501223e+001
1.227788e+003, 3.471909e+001
1.228271e+003, 3.400903e+001
1.228753e+003, 3.366880e+001
1.229235e+003, 3.412280e+001
1.229717e+003, 3.448010e+001
1.230199e+003, 3.464666e+001
1.230681e+003, 3.466282e+001
1.231163e+003, 3.440185e+001
1.231645e+003, 3.417102e+001
1.232127e+003, 3.417331e+001
1.232609e+003, 3.438397e+001
1.233092e+003, 3.482393e+001
1.233574e+003, 3.547908e+001
1.234056e+003, 3.561233e+001
1.234538e+003, 3.514926e+001
1.235020e+003, 3.475879e+001
1.235502e+003, 3.449714e+001
1.235984e+003, 3.442842e+001
1.236466e+003, 3.458215e+001
1.236949e+003, 3.472196e+001
1.237431e+003, 3.465668e+001
1.237913e+003, 3.451697e+001
1.238395e+003, 3.448612e+001
1.238877e+003, 3.455508e+001
1.239359e+003, 3.476355e+001
1.239841e+003, 3.503077e+001
1.240323e+003, 3.520836e+001
1.240806e+003, 3.525563e+001
1.241288e+003, 3.506359e+001
1.241770e+003, 3.464879e+001
1.242252e+003, 3.435406e+001
1.242734e+003, 3.437537e+001
1.243216e+003, 3.454802e+001
1.243698e+003, 3.490174e+001
1.244180e+003, 3.521002e+001
1.244662e+003, 3.533119e+001
1.245145e+003, 3.531323e+001
1.245627e+003, 3.514995e+001
1.246109e+003, 3.491304e+001
1.246591e+003, 3.473309e+001
1.247073e+003, 3.462341e+001
1.247555e+003, 3.457449e+001
1.248037e+003, 3.455844e+001
1.248519e+003, 3.466788e+001
1.249001e+003, 3.504292e+001
1.249484e+003, 3.525258e+001
1.249966e+003, 3.510662e+001
1.250448e+003, 3.487439e+001
1.250930e+003, 3.476203e+001
1.251412e+003, 3.470587e+001
1.251894e+003, 3.452874e+001
1.252376e+003, 3.429775e+001
1.252858e+003, 3.467713e+001
1.253341e+003, 3.555387e+001
1.253823e+003, 3.587706e+001
1.254305e+003, 3.561133e+001
1.254787e+003, 3.529845e+001
1.255269e+003, 3.512398e+001
1.255751e+003, 3.507291e+001
1.256233e+003, 3.513538e+001
1.256715e+003, 3.531157e+001
1.257198e+003, 3.574933e+001
1.257680e+003, 3.615498e+001
1.258162e+003, 3.613562e+001
1.258644e+003, 3.593105e+001
1.259126e+003, 3.580707e+001
1.259608e+003, 3.577514e+001
1.260090e+003, 3.580164e+001
1.260572e+003, 3.586894e+001
1.261054e+003, 3.589765e+001
1.261536e+003, 3.579704e+001
1.262019e+003, 3.581217e+001
1.262501e+003, 3.621615e+001
1.262983e+003, 3.641957e+001
1.263465e+003, 3.597202e+001
1.263947e+003, 3.563173e+001
1.264429e+003, 3.600379e+001
1.264911e+003, 3.659018e+001
1.265393e+003, 3.658937e+001
1.265876e+003, 3.612702e+001
1.266358e+003, 3.613784e+001
1.266840e+003, 3.666264e+001
1.267322e+003, 3.689460e+001
1.267804e+003, 3.679982e+001
1.268286e+003, 3.645016e+001
1.268768e+003, 3.589240e+001
1.269250e+003, 3.563103e+001
1.269733e+003, 3.594773e+001
1.270215e+003, 3.648220e+001
1.270697e+003, 3.693376e+001
1.271179e+003, 3.725568e+001
1.271661e+003, 3.734702e+001
1.272143e+003, 3.729353e+001
1.272625e+003, 3.717777e+001
1.273107e+003, 3.703254e+001
1.273589e+003, 3.683389e+001
1.274072e+003, 3.664293e+001
1.274554e+003, 3.669231e+001
1.275036e+003, 3.708796e+001
1.275518e+003, 3.736317e+001
1.276000e+003, 3.729821e+001
1.276482e+003, 3.719997e+001
1.276964e+003, 3.712920e+001
1.277446e+003, 3.706966e+001
1.277929e+003, 3.684787e+001
1.278411e+003, 3.682096e+001
1.278893e+003, 3.745040e+001
1.279375e+003, 3.843785e+001
1.279857e+003, 3.897087e+001
1.280339e+003, 3.904356e+001
1.280821e+003, 3.900219e+001
1.281303e+003, 3.885131e+001
1.281786e+003, 3.862362e+001
1.282268e+003, 3.832005e+001
##END=



