##NAMES=Metalodevite
##RRUFFID=R130693
##IDEAL CHEMISTRY=Zn^2+^(U^6+^O_2_)_2_(As^5+^O_4_)_2_&#183;10H_2_O
##LOCALITY=Riviéral, Lodève, Hérault, Languedoc-Roussillon, France
##OWNER=RRUFF
##SOURCE=Rock Currier
##DESCRIPTION=Aggregates of pale yellow-green platy crystals
##STATUS=The identification of this mineral has been confirmed only by single crystal X-ray diffraction.
##URL=rruff.info/R130693
8.813672e+001, 1.438016e+006
8.861884e+001, 1.456848e+006
8.910095e+001, 1.475187e+006
8.958307e+001, 1.499497e+006
9.006519e+001, 1.527519e+006
9.054730e+001, 1.551949e+006
9.102942e+001, 1.573428e+006
9.151154e+001, 1.592192e+006
9.199365e+001, 1.608391e+006
9.247577e+001, 1.622673e+006
9.295789e+001, 1.635785e+006
9.344000e+001, 1.648035e+006
9.392212e+001, 1.658159e+006
9.440424e+001, 1.666804e+006
9.488635e+001, 1.676393e+006
9.536847e+001, 1.686985e+006
9.585059e+001, 1.697637e+006
9.633270e+001, 1.708199e+006
9.681482e+001, 1.719072e+006
9.729694e+001, 1.730324e+006
9.777905e+001, 1.741971e+006
9.826117e+001, 1.754493e+006
9.874329e+001, 1.767992e+006
9.922540e+001, 1.782268e+006
9.970752e+001, 1.796821e+006
1.001896e+002, 1.811436e+006
1.006718e+002, 1.825994e+006
1.011539e+002, 1.840238e+006
1.016360e+002, 1.854145e+006
1.021181e+002, 1.868285e+006
1.026002e+002, 1.882768e+006
1.030823e+002, 1.897647e+006
1.035645e+002, 1.912663e+006
1.040466e+002, 1.928009e+006
1.045287e+002, 1.943615e+006
1.050108e+002, 1.959740e+006
1.054929e+002, 1.976634e+006
1.059750e+002, 1.993846e+006
1.064572e+002, 2.011217e+006
1.069393e+002, 2.029181e+006
1.074214e+002, 2.046954e+006
1.079035e+002, 2.064626e+006
1.083856e+002, 2.082424e+006
1.088677e+002, 2.100161e+006
1.093499e+002, 2.118414e+006
1.098320e+002, 2.136605e+006
1.103141e+002, 2.154488e+006
1.107962e+002, 2.172294e+006
1.112783e+002, 2.189983e+006
1.117604e+002, 2.207627e+006
1.122426e+002, 2.225407e+006
1.127247e+002, 2.243205e+006
1.132068e+002, 2.261342e+006
1.136889e+002, 2.279374e+006
1.141710e+002, 2.296801e+006
1.146531e+002, 2.313280e+006
1.151353e+002, 2.329261e+006
1.156174e+002, 2.344968e+006
1.160995e+002, 2.360308e+006
1.165816e+002, 2.375701e+006
1.170637e+002, 2.391570e+006
1.175458e+002, 2.407330e+006
1.180280e+002, 2.422558e+006
1.185101e+002, 2.436218e+006
1.189922e+002, 2.449683e+006
1.194743e+002, 2.463588e+006
1.199564e+002, 2.478037e+006
1.204385e+002, 2.492519e+006
1.209207e+002, 2.506633e+006
1.214028e+002, 2.520506e+006
1.218849e+002, 2.534340e+006
1.223670e+002, 2.548615e+006
1.228491e+002, 2.562878e+006
1.233312e+002, 2.576448e+006
1.238134e+002, 2.589179e+006
1.242955e+002, 2.601724e+006
1.247776e+002, 2.614601e+006
1.252597e+002, 2.627775e+006
1.257418e+002, 2.641133e+006
1.262239e+002, 2.654698e+006
1.267061e+002, 2.668503e+006
1.271882e+002, 2.682089e+006
1.276703e+002, 2.695401e+006
1.281524e+002, 2.708846e+006
1.286345e+002, 2.723074e+006
1.291166e+002, 2.738029e+006
1.295988e+002, 2.753225e+006
1.300809e+002, 2.768335e+006
1.305630e+002, 2.783352e+006
1.310451e+002, 2.798385e+006
1.315272e+002, 2.813235e+006
1.320093e+002, 2.827969e+006
1.324915e+002, 2.843139e+006
1.329736e+002, 2.858731e+006
1.334557e+002, 2.874168e+006
1.339378e+002, 2.888568e+006
1.344199e+002, 2.901926e+006
1.349020e+002, 2.915128e+006
1.353842e+002, 2.928458e+006
1.358663e+002, 2.941529e+006
1.363484e+002, 2.954064e+006
1.368305e+002, 2.966060e+006
1.373126e+002, 2.977160e+006
1.377947e+002, 2.986846e+006
1.382769e+002, 2.995052e+006
1.387590e+002, 3.002073e+006
1.392411e+002, 3.007882e+006
1.397232e+002, 3.012542e+006
1.402053e+002, 3.015990e+006
1.406874e+002, 3.018163e+006
1.411696e+002, 3.019435e+006
1.416517e+002, 3.020310e+006
1.421338e+002, 3.021006e+006
1.426159e+002, 3.021210e+006
1.430980e+002, 3.021033e+006
1.435801e+002, 3.020737e+006
1.440623e+002, 3.019387e+006
1.445444e+002, 3.016832e+006
1.450265e+002, 3.013540e+006
1.455086e+002, 3.010275e+006
1.459907e+002, 3.006999e+006
1.464728e+002, 3.003996e+006
1.469550e+002, 3.001410e+006
1.474371e+002, 2.999599e+006
1.479192e+002, 2.997544e+006
1.484013e+002, 2.995055e+006
1.488834e+002, 2.992359e+006
1.493655e+002, 2.989911e+006
1.498477e+002, 2.987668e+006
1.503298e+002, 2.985695e+006
1.508119e+002, 2.984070e+006
1.512940e+002, 2.983606e+006
1.517761e+002, 2.982231e+006
1.522583e+002, 2.979372e+006
1.527404e+002, 2.975492e+006
1.532225e+002, 2.971914e+006
1.537046e+002, 2.968854e+006
1.541867e+002, 2.966049e+006
1.546688e+002, 2.963400e+006
1.551510e+002, 2.961019e+006
1.556331e+002, 2.958592e+006
1.561152e+002, 2.956006e+006
1.565973e+002, 2.953331e+006
1.570794e+002, 2.950904e+006
1.575615e+002, 2.948907e+006
1.580437e+002, 2.947114e+006
1.585258e+002, 2.945378e+006
1.590079e+002, 2.943877e+006
1.594900e+002, 2.942237e+006
1.599721e+002, 2.940160e+006
1.604542e+002, 2.937768e+006
1.609364e+002, 2.935714e+006
1.614185e+002, 2.934637e+006
1.619006e+002, 2.933805e+006
1.623827e+002, 2.932621e+006
1.628648e+002, 2.930556e+006
1.633469e+002, 2.928400e+006
1.638291e+002, 2.926525e+006
1.643112e+002, 2.924910e+006
1.647933e+002, 2.923218e+006
1.652754e+002, 2.921244e+006
1.657575e+002, 2.919120e+006
1.662396e+002, 2.916977e+006
1.667218e+002, 2.914779e+006
1.672039e+002, 2.912635e+006
1.676860e+002, 2.910576e+006
1.681681e+002, 2.908627e+006
1.686502e+002, 2.906868e+006
1.691323e+002, 2.905529e+006
1.696145e+002, 2.904409e+006
1.700966e+002, 2.903240e+006
1.705787e+002, 2.901961e+006
1.710608e+002, 2.900580e+006
1.715429e+002, 2.898970e+006
1.720250e+002, 2.897108e+006
1.725072e+002, 2.895536e+006
1.729893e+002, 2.894788e+006
1.734714e+002, 2.894593e+006
1.739535e+002, 2.894447e+006
1.744356e+002, 2.894232e+006
1.749177e+002, 2.893908e+006
1.753999e+002, 2.893411e+006
1.758820e+002, 2.892720e+006
1.763641e+002, 2.891879e+006
1.768462e+002, 2.890815e+006
1.773283e+002, 2.889565e+006
1.778104e+002, 2.888265e+006
1.782926e+002, 2.886556e+006
1.787747e+002, 2.884897e+006
1.792568e+002, 2.884318e+006
1.797389e+002, 2.884991e+006
1.802210e+002, 2.885725e+006
1.807031e+002, 2.885016e+006
1.811853e+002, 2.883154e+006
1.816674e+002, 2.881260e+006
1.821495e+002, 2.880103e+006
1.826316e+002, 2.879330e+006
1.831137e+002, 2.878242e+006
1.835958e+002, 2.876877e+006
1.840780e+002, 2.875028e+006
1.845601e+002, 2.872083e+006
1.850422e+002, 2.868289e+006
1.855243e+002, 2.864637e+006
1.860064e+002, 2.861745e+006
1.864885e+002, 2.859511e+006
1.869707e+002, 2.857644e+006
1.874528e+002, 2.856196e+006
1.879349e+002, 2.854971e+006
1.884170e+002, 2.853612e+006
1.888991e+002, 2.852136e+006
1.893812e+002, 2.850790e+006
1.898634e+002, 2.849986e+006
1.903455e+002, 2.849523e+006
1.908276e+002, 2.848117e+006
1.913097e+002, 2.845468e+006
1.917918e+002, 2.842168e+006
1.922739e+002, 2.839136e+006
1.927561e+002, 2.836305e+006
1.932382e+002, 2.833661e+006
1.937203e+002, 2.831185e+006
1.942024e+002, 2.828858e+006
1.946845e+002, 2.826597e+006
1.951666e+002, 2.824531e+006
1.956488e+002, 2.822323e+006
1.961309e+002, 2.819154e+006
1.966130e+002, 2.814864e+006
1.970951e+002, 2.810628e+006
1.975772e+002, 2.807181e+006
1.980593e+002, 2.804546e+006
1.985415e+002, 2.801681e+006
1.990236e+002, 2.798492e+006
1.995057e+002, 2.795087e+006
1.999878e+002, 2.791762e+006
2.004699e+002, 2.788520e+006
2.009520e+002, 2.785342e+006
2.014342e+002, 2.782300e+006
2.019163e+002, 2.779401e+006
2.023984e+002, 2.776365e+006
2.028805e+002, 2.773120e+006
2.033626e+002, 2.769762e+006
2.038447e+002, 2.766503e+006
2.043269e+002, 2.763314e+006
2.048090e+002, 2.760263e+006
2.052911e+002, 2.757417e+006
2.057732e+002, 2.754752e+006
2.062553e+002, 2.752325e+006
2.067374e+002, 2.750219e+006
2.072196e+002, 2.748308e+006
2.077017e+002, 2.746222e+006
2.081838e+002, 2.743927e+006
2.086659e+002, 2.741587e+006
2.091480e+002, 2.739294e+006
2.096301e+002, 2.737004e+006
2.101123e+002, 2.734945e+006
2.105944e+002, 2.733188e+006
2.110765e+002, 2.731641e+006
2.115586e+002, 2.730011e+006
2.120407e+002, 2.728246e+006
2.125228e+002, 2.726529e+006
2.130050e+002, 2.724990e+006
2.134871e+002, 2.723701e+006
2.139692e+002, 2.722367e+006
2.144513e+002, 2.721044e+006
2.149334e+002, 2.719612e+006
2.154155e+002, 2.717588e+006
2.158977e+002, 2.714605e+006
2.163798e+002, 2.711654e+006
2.168619e+002, 2.709300e+006
2.173440e+002, 2.707727e+006
2.178261e+002, 2.706075e+006
2.183082e+002, 2.704250e+006
2.187904e+002, 2.702313e+006
2.192725e+002, 2.700537e+006
2.197546e+002, 2.699120e+006
2.202367e+002, 2.697524e+006
2.207188e+002, 2.695477e+006
2.212009e+002, 2.692815e+006
2.216831e+002, 2.690169e+006
2.221652e+002, 2.687666e+006
2.226473e+002, 2.685213e+006
2.231294e+002, 2.682501e+006
2.236115e+002, 2.679203e+006
2.240936e+002, 2.676266e+006
2.245758e+002, 2.674269e+006
2.250579e+002, 2.673924e+006
2.255400e+002, 2.672879e+006
2.260221e+002, 2.670875e+006
2.265042e+002, 2.668237e+006
2.269863e+002, 2.665905e+006
2.274685e+002, 2.663985e+006
2.279506e+002, 2.662174e+006
2.284327e+002, 2.660254e+006
2.289148e+002, 2.657836e+006
2.293969e+002, 2.656108e+006
2.298790e+002, 2.655112e+006
2.303612e+002, 2.654748e+006
2.308433e+002, 2.654886e+006
2.313254e+002, 2.655889e+006
2.318075e+002, 2.656759e+006
2.322896e+002, 2.657014e+006
2.327717e+002, 2.656323e+006
2.332539e+002, 2.655732e+006
2.337360e+002, 2.655321e+006
2.342181e+002, 2.654939e+006
2.347002e+002, 2.654201e+006
2.351823e+002, 2.652824e+006
2.356644e+002, 2.651460e+006
2.361466e+002, 2.650414e+006
2.366287e+002, 2.649979e+006
2.371108e+002, 2.648997e+006
2.375929e+002, 2.647262e+006
2.380750e+002, 2.645074e+006
2.385571e+002, 2.643139e+006
2.390393e+002, 2.641905e+006
2.395214e+002, 2.640252e+006
2.400035e+002, 2.637745e+006
2.404856e+002, 2.634109e+006
2.409677e+002, 2.630485e+006
2.414498e+002, 2.626762e+006
2.419320e+002, 2.623203e+006
2.424141e+002, 2.620227e+006
2.428962e+002, 2.618259e+006
2.433783e+002, 2.616302e+006
2.438604e+002, 2.614009e+006
2.443425e+002, 2.611267e+006
2.448247e+002, 2.608787e+006
2.453068e+002, 2.606670e+006
2.457889e+002, 2.604791e+006
2.462710e+002, 2.602852e+006
2.467531e+002, 2.600629e+006
2.472352e+002, 2.598700e+006
2.477174e+002, 2.597248e+006
2.481995e+002, 2.596345e+006
2.486816e+002, 2.595491e+006
2.491637e+002, 2.594644e+006
2.496458e+002, 2.593820e+006
2.501279e+002, 2.593093e+006
2.506101e+002, 2.592558e+006
2.510922e+002, 2.591880e+006
2.515743e+002, 2.590976e+006
2.520564e+002, 2.589845e+006
2.525385e+002, 2.588421e+006
2.530206e+002, 2.586548e+006
2.535028e+002, 2.584516e+006
2.539849e+002, 2.582750e+006
2.544670e+002, 2.581347e+006
2.549491e+002, 2.579968e+006
2.554312e+002, 2.578515e+006
2.559133e+002, 2.576993e+006
2.563955e+002, 2.575673e+006
2.568776e+002, 2.574750e+006
2.573597e+002, 2.573804e+006
2.578418e+002, 2.572330e+006
2.583239e+002, 2.570033e+006
2.588061e+002, 2.567828e+006
2.592882e+002, 2.565823e+006
2.597703e+002, 2.564003e+006
2.602524e+002, 2.562625e+006
2.607345e+002, 2.561969e+006
2.612166e+002, 2.561341e+006
2.616988e+002, 2.560036e+006
2.621809e+002, 2.557809e+006
2.626630e+002, 2.555703e+006
2.631451e+002, 2.553981e+006
2.636272e+002, 2.552578e+006
2.641093e+002, 2.551006e+006
2.645915e+002, 2.549128e+006
2.650736e+002, 2.547350e+006
2.655557e+002, 2.546235e+006
2.660378e+002, 2.546357e+006
2.665199e+002, 2.545152e+006
2.670020e+002, 2.541792e+006
2.674842e+002, 2.536833e+006
2.679663e+002, 2.533317e+006
2.684484e+002, 2.531587e+006
2.689305e+002, 2.530478e+006
2.694126e+002, 2.529251e+006
2.698947e+002, 2.527810e+006
2.703769e+002, 2.526512e+006
2.708590e+002, 2.525409e+006
2.713411e+002, 2.524425e+006
2.718232e+002, 2.523406e+006
2.723053e+002, 2.522399e+006
2.727874e+002, 2.521199e+006
2.732696e+002, 2.519520e+006
2.737517e+002, 2.517218e+006
2.742338e+002, 2.515399e+006
2.747159e+002, 2.514230e+006
2.751980e+002, 2.513470e+006
2.756801e+002, 2.512646e+006
2.761623e+002, 2.511794e+006
2.766444e+002, 2.510808e+006
2.771265e+002, 2.509617e+006
2.776086e+002, 2.508198e+006
2.780907e+002, 2.506930e+006
2.785728e+002, 2.505968e+006
2.790550e+002, 2.504943e+006
2.795371e+002, 2.503013e+006
2.800192e+002, 2.500038e+006
2.805013e+002, 2.497258e+006
2.809834e+002, 2.495134e+006
2.814655e+002, 2.493652e+006
2.819477e+002, 2.492881e+006
2.824298e+002, 2.492986e+006
2.829119e+002, 2.493285e+006
2.833940e+002, 2.492723e+006
2.838761e+002, 2.491244e+006
2.843582e+002, 2.489784e+006
2.848404e+002, 2.488723e+006
2.853225e+002, 2.487948e+006
2.858046e+002, 2.486924e+006
2.862867e+002, 2.485635e+006
2.867688e+002, 2.484131e+006
2.872509e+002, 2.482540e+006
2.877331e+002, 2.480847e+006
2.882152e+002, 2.478796e+006
2.886973e+002, 2.476195e+006
2.891794e+002, 2.473239e+006
2.896615e+002, 2.470672e+006
2.901436e+002, 2.468544e+006
2.906258e+002, 2.466383e+006
2.911079e+002, 2.463695e+006
2.915900e+002, 2.460586e+006
2.920721e+002, 2.457434e+006
2.925542e+002, 2.454215e+006
2.930363e+002, 2.451227e+006
2.935185e+002, 2.449212e+006
2.940006e+002, 2.448159e+006
2.944827e+002, 2.447418e+006
2.949648e+002, 2.446541e+006
2.954469e+002, 2.445548e+006
2.959290e+002, 2.444529e+006
2.964112e+002, 2.443487e+006
2.968933e+002, 2.442374e+006
2.973754e+002, 2.440900e+006
2.978575e+002, 2.439157e+006
2.983396e+002, 2.437796e+006
2.988217e+002, 2.437508e+006
2.993039e+002, 2.437845e+006
2.997860e+002, 2.437956e+006
3.002681e+002, 2.437696e+006
3.007502e+002, 2.437231e+006
3.012323e+002, 2.436768e+006
3.017144e+002, 2.436257e+006
3.021966e+002, 2.435591e+006
3.026787e+002, 2.434674e+006
3.031608e+002, 2.433569e+006
3.036429e+002, 2.432302e+006
3.041250e+002, 2.430868e+006
3.046071e+002, 2.429442e+006
3.050893e+002, 2.428303e+006
3.055714e+002, 2.427296e+006
3.060535e+002, 2.426140e+006
3.065356e+002, 2.424645e+006
3.070177e+002, 2.422961e+006
3.074998e+002, 2.421196e+006
3.079820e+002, 2.419347e+006
3.084641e+002, 2.417574e+006
3.089462e+002, 2.416052e+006
3.094283e+002, 2.414683e+006
3.099104e+002, 2.413346e+006
3.103925e+002, 2.411950e+006
3.108747e+002, 2.410667e+006
3.113568e+002, 2.409618e+006
3.118389e+002, 2.408820e+006
3.123210e+002, 2.408280e+006
3.128031e+002, 2.408095e+006
3.132852e+002, 2.408142e+006
3.137674e+002, 2.408301e+006
3.142495e+002, 2.408562e+006
3.147316e+002, 2.408893e+006
3.152137e+002, 2.409444e+006
3.156958e+002, 2.410080e+006
3.161779e+002, 2.410377e+006
3.166601e+002, 2.409809e+006
3.171422e+002, 2.409025e+006
3.176243e+002, 2.408384e+006
3.181064e+002, 2.407823e+006
3.185885e+002, 2.407626e+006
3.190706e+002, 2.408294e+006
3.195528e+002, 2.409340e+006
3.200349e+002, 2.409841e+006
3.205170e+002, 2.409285e+006
3.209991e+002, 2.408308e+006
3.214812e+002, 2.407136e+006
3.219633e+002, 2.405760e+006
3.224455e+002, 2.404282e+006
3.229276e+002, 2.402685e+006
3.234097e+002, 2.401015e+006
3.238918e+002, 2.399331e+006
3.243739e+002, 2.397998e+006
3.248560e+002, 2.396346e+006
3.253382e+002, 2.394008e+006
3.258203e+002, 2.390863e+006
3.263024e+002, 2.388288e+006
3.267845e+002, 2.386762e+006
3.272666e+002, 2.385653e+006
3.277487e+002, 2.384461e+006
3.282309e+002, 2.383468e+006
3.287130e+002, 2.382082e+006
3.291951e+002, 2.379869e+006
3.296772e+002, 2.376984e+006
3.301593e+002, 2.374989e+006
3.306414e+002, 2.374431e+006
3.311236e+002, 2.374242e+006
3.316057e+002, 2.373792e+006
3.320878e+002, 2.372585e+006
3.325699e+002, 2.371981e+006
3.330520e+002, 2.372454e+006
3.335341e+002, 2.373440e+006
3.340163e+002, 2.373313e+006
3.344984e+002, 2.371409e+006
3.349805e+002, 2.369472e+006
3.354626e+002, 2.368261e+006
3.359447e+002, 2.368032e+006
3.364268e+002, 2.367587e+006
3.369090e+002, 2.366938e+006
3.373911e+002, 2.366095e+006
3.378732e+002, 2.365039e+006
3.383553e+002, 2.363732e+006
3.388374e+002, 2.362446e+006
3.393195e+002, 2.361242e+006
3.398017e+002, 2.360151e+006
3.402838e+002, 2.359387e+006
3.407659e+002, 2.359161e+006
3.412480e+002, 2.358807e+006
3.417301e+002, 2.357341e+006
3.422122e+002, 2.354650e+006
3.426944e+002, 2.352617e+006
3.431765e+002, 2.351757e+006
3.436586e+002, 2.351786e+006
3.441407e+002, 2.351950e+006
3.446228e+002, 2.352268e+006
3.451049e+002, 2.352421e+006
3.455871e+002, 2.351967e+006
3.460692e+002, 2.351020e+006
3.465513e+002, 2.350491e+006
3.470334e+002, 2.350589e+006
3.475155e+002, 2.350923e+006
3.479977e+002, 2.350869e+006
3.484798e+002, 2.350449e+006
3.489619e+002, 2.349892e+006
3.494440e+002, 2.349225e+006
3.499261e+002, 2.348524e+006
3.504082e+002, 2.347967e+006
3.508904e+002, 2.347574e+006
3.513725e+002, 2.347308e+006
3.518546e+002, 2.347123e+006
3.523367e+002, 2.347038e+006
3.528188e+002, 2.347079e+006
3.533009e+002, 2.347802e+006
3.537831e+002, 2.348367e+006
3.542652e+002, 2.347386e+006
3.547473e+002, 2.344937e+006
3.552294e+002, 2.342745e+006
3.557115e+002, 2.342470e+006
3.561936e+002, 2.343085e+006
3.566758e+002, 2.343227e+006
3.571579e+002, 2.342181e+006
3.576400e+002, 2.340964e+006
3.581221e+002, 2.340225e+006
3.586042e+002, 2.339919e+006
3.590863e+002, 2.339847e+006
3.595685e+002, 2.340220e+006
3.600506e+002, 2.340620e+006
3.605327e+002, 2.340744e+006
3.610148e+002, 2.340517e+006
3.614969e+002, 2.340116e+006
3.619790e+002, 2.339208e+006
3.624612e+002, 2.338240e+006
3.629433e+002, 2.337942e+006
3.634254e+002, 2.339038e+006
3.639075e+002, 2.340382e+006
3.643896e+002, 2.341572e+006
3.648717e+002, 2.342570e+006
3.653539e+002, 2.343340e+006
3.658360e+002, 2.343914e+006
3.663181e+002, 2.344198e+006
3.668002e+002, 2.344121e+006
3.672823e+002, 2.342885e+006
3.677644e+002, 2.342112e+006
3.682466e+002, 2.342288e+006
3.687287e+002, 2.343300e+006
3.692108e+002, 2.343927e+006
3.696929e+002, 2.344149e+006
3.701750e+002, 2.344018e+006
3.706571e+002, 2.343534e+006
3.711393e+002, 2.342297e+006
3.716214e+002, 2.341453e+006
3.721035e+002, 2.341153e+006
3.725856e+002, 2.341223e+006
3.730677e+002, 2.341221e+006
3.735498e+002, 2.341031e+006
3.740320e+002, 2.341038e+006
3.745141e+002, 2.341451e+006
3.749962e+002, 2.342338e+006
3.754783e+002, 2.343103e+006
3.759604e+002, 2.343789e+006
3.764425e+002, 2.344277e+006
3.769247e+002, 2.344311e+006
3.774068e+002, 2.343783e+006
3.778889e+002, 2.343458e+006
3.783710e+002, 2.343589e+006
3.788531e+002, 2.344050e+006
3.793352e+002, 2.344340e+006
3.798174e+002, 2.344445e+006
3.802995e+002, 2.344445e+006
3.807816e+002, 2.344305e+006
3.812637e+002, 2.344068e+006
3.817458e+002, 2.344098e+006
3.822279e+002, 2.344494e+006
3.827101e+002, 2.345088e+006
3.831922e+002, 2.345606e+006
3.836743e+002, 2.346075e+006
3.841564e+002, 2.346637e+006
3.846385e+002, 2.347422e+006
3.851206e+002, 2.348353e+006
3.856028e+002, 2.349303e+006
3.860849e+002, 2.350269e+006
3.865670e+002, 2.351233e+006
3.870491e+002, 2.352175e+006
3.875312e+002, 2.353106e+006
3.880133e+002, 2.354052e+006
3.884955e+002, 2.354868e+006
3.889776e+002, 2.355818e+006
3.894597e+002, 2.357373e+006
3.899418e+002, 2.359391e+006
3.904239e+002, 2.361030e+006
3.909060e+002, 2.361406e+006
3.913882e+002, 2.361367e+006
3.918703e+002, 2.361681e+006
3.923524e+002, 2.362608e+006
3.928345e+002, 2.363697e+006
3.933166e+002, 2.364595e+006
3.937987e+002, 2.365510e+006
3.942809e+002, 2.366842e+006
3.947630e+002, 2.369381e+006
3.952451e+002, 2.371790e+006
3.957272e+002, 2.373378e+006
3.962093e+002, 2.373905e+006
3.966914e+002, 2.374656e+006
3.971736e+002, 2.376165e+006
3.976557e+002, 2.377845e+006
3.981378e+002, 2.379164e+006
3.986199e+002, 2.379482e+006
3.991020e+002, 2.380037e+006
3.995841e+002, 2.381136e+006
4.000663e+002, 2.382656e+006
4.005484e+002, 2.383832e+006
4.010305e+002, 2.384593e+006
4.015126e+002, 2.385100e+006
4.019947e+002, 2.385451e+006
4.024768e+002, 2.385736e+006
4.029590e+002, 2.385715e+006
4.034411e+002, 2.385291e+006
4.039232e+002, 2.384700e+006
4.044053e+002, 2.384306e+006
4.048874e+002, 2.384118e+006
4.053695e+002, 2.384222e+006
4.058517e+002, 2.384657e+006
4.063338e+002, 2.385441e+006
4.068159e+002, 2.386662e+006
4.072980e+002, 2.388431e+006
4.077801e+002, 2.390322e+006
4.082622e+002, 2.391814e+006
4.087444e+002, 2.392932e+006
4.092265e+002, 2.394257e+006
4.097086e+002, 2.395872e+006
4.101907e+002, 2.397727e+006
4.106728e+002, 2.399847e+006
4.111549e+002, 2.402182e+006
4.116371e+002, 2.404350e+006
4.121192e+002, 2.405896e+006
4.126013e+002, 2.407087e+006
4.130834e+002, 2.408564e+006
4.135655e+002, 2.410383e+006
4.140476e+002, 2.412209e+006
4.145298e+002, 2.413865e+006
4.150119e+002, 2.415286e+006
4.154940e+002, 2.416384e+006
4.159761e+002, 2.416752e+006
4.164582e+002, 2.417061e+006
4.169403e+002, 2.417936e+006
4.174225e+002, 2.419322e+006
4.179046e+002, 2.420807e+006
4.183867e+002, 2.422253e+006
4.188688e+002, 2.423660e+006
4.193509e+002, 2.425021e+006
4.198330e+002, 2.426435e+006
4.203152e+002, 2.427690e+006
4.207973e+002, 2.428721e+006
4.212794e+002, 2.429576e+006
4.217615e+002, 2.430346e+006
4.222436e+002, 2.430748e+006
4.227257e+002, 2.431398e+006
4.232079e+002, 2.432508e+006
4.236900e+002, 2.434103e+006
4.241721e+002, 2.436088e+006
4.246542e+002, 2.438784e+006
4.251363e+002, 2.441670e+006
4.256184e+002, 2.444398e+006
4.261006e+002, 2.446670e+006
4.265827e+002, 2.449126e+006
4.270648e+002, 2.451912e+006
4.275469e+002, 2.454866e+006
4.280290e+002, 2.457381e+006
4.285111e+002, 2.459273e+006
4.289933e+002, 2.460949e+006
4.294754e+002, 2.462427e+006
4.299575e+002, 2.463584e+006
4.304396e+002, 2.465299e+006
4.309217e+002, 2.467700e+006
4.314038e+002, 2.470312e+006
4.318860e+002, 2.472535e+006
4.323681e+002, 2.474364e+006
4.328502e+002, 2.476069e+006
4.333323e+002, 2.477816e+006
4.338144e+002, 2.479481e+006
4.342965e+002, 2.480538e+006
4.347787e+002, 2.481032e+006
4.352608e+002, 2.481675e+006
4.357429e+002, 2.483172e+006
4.362250e+002, 2.485239e+006
4.367071e+002, 2.487059e+006
4.371892e+002, 2.488480e+006
4.376714e+002, 2.490049e+006
4.381535e+002, 2.492363e+006
4.386356e+002, 2.495265e+006
4.391177e+002, 2.498382e+006
4.395998e+002, 2.502199e+006
4.400819e+002, 2.505671e+006
4.405641e+002, 2.507392e+006
4.410462e+002, 2.507536e+006
4.415283e+002, 2.508214e+006
4.420104e+002, 2.510861e+006
4.424925e+002, 2.514321e+006
4.429746e+002, 2.517587e+006
4.434568e+002, 2.520254e+006
4.439389e+002, 2.523020e+006
4.444210e+002, 2.526173e+006
4.449031e+002, 2.529541e+006
4.453852e+002, 2.532819e+006
4.458673e+002, 2.536075e+006
4.463495e+002, 2.539087e+006
4.468316e+002, 2.541756e+006
4.473137e+002, 2.544043e+006
4.477958e+002, 2.546448e+006
4.482779e+002, 2.549124e+006
4.487600e+002, 2.551831e+006
4.492422e+002, 2.554362e+006
4.497243e+002, 2.556569e+006
4.502064e+002, 2.559022e+006
4.506885e+002, 2.561921e+006
4.511706e+002, 2.565071e+006
4.516527e+002, 2.567823e+006
4.521349e+002, 2.570048e+006
4.526170e+002, 2.572341e+006
4.530991e+002, 2.574859e+006
4.535812e+002, 2.577620e+006
4.540633e+002, 2.580845e+006
4.545454e+002, 2.584641e+006
4.550276e+002, 2.588414e+006
4.555097e+002, 2.591291e+006
4.559918e+002, 2.593460e+006
4.564739e+002, 2.595990e+006
4.569560e+002, 2.599381e+006
4.574381e+002, 2.602915e+006
4.579203e+002, 2.605290e+006
4.584024e+002, 2.606727e+006
4.588845e+002, 2.608318e+006
4.593666e+002, 2.610917e+006
4.598488e+002, 2.613946e+006
4.603309e+002, 2.616731e+006
4.608130e+002, 2.619217e+006
4.612951e+002, 2.621453e+006
4.617772e+002, 2.623320e+006
4.622593e+002, 2.624984e+006
4.627415e+002, 2.626595e+006
4.632236e+002, 2.628098e+006
4.637057e+002, 2.629691e+006
4.641878e+002, 2.631534e+006
4.646699e+002, 2.633551e+006
4.651520e+002, 2.635489e+006
4.656342e+002, 2.636963e+006
4.661163e+002, 2.638594e+006
4.665984e+002, 2.640706e+006
4.670805e+002, 2.643507e+006
4.675626e+002, 2.646272e+006
4.680447e+002, 2.648915e+006
4.685269e+002, 2.651558e+006
4.690090e+002, 2.654351e+006
4.694911e+002, 2.657335e+006
4.699732e+002, 2.660356e+006
4.704553e+002, 2.663348e+006
4.709374e+002, 2.666341e+006
4.714196e+002, 2.669725e+006
4.719017e+002, 2.673629e+006
4.723838e+002, 2.677351e+006
4.728659e+002, 2.680346e+006
4.733480e+002, 2.682602e+006
4.738301e+002, 2.685196e+006
4.743123e+002, 2.688188e+006
4.747944e+002, 2.691291e+006
4.752765e+002, 2.694272e+006
4.757586e+002, 2.697091e+006
4.762407e+002, 2.699573e+006
4.767228e+002, 2.701557e+006
4.772050e+002, 2.703330e+006
4.776871e+002, 2.705324e+006
4.781692e+002, 2.707523e+006
4.786513e+002, 2.709739e+006
4.791334e+002, 2.711884e+006
4.796155e+002, 2.714020e+006
4.800977e+002, 2.716232e+006
4.805798e+002, 2.718565e+006
4.810619e+002, 2.720958e+006
4.815440e+002, 2.723221e+006
4.820261e+002, 2.725585e+006
4.825082e+002, 2.728336e+006
4.829904e+002, 2.731875e+006
4.834725e+002, 2.735490e+006
4.839546e+002, 2.738938e+006
4.844367e+002, 2.742276e+006
4.849188e+002, 2.745722e+006
4.854009e+002, 2.749163e+006
4.858831e+002, 2.752815e+006
4.863652e+002, 2.756842e+006
4.868473e+002, 2.761341e+006
4.873294e+002, 2.765527e+006
4.878115e+002, 2.769265e+006
4.882936e+002, 2.772718e+006
4.887758e+002, 2.776086e+006
4.892579e+002, 2.779350e+006
4.897400e+002, 2.782476e+006
4.902221e+002, 2.785391e+006
4.907042e+002, 2.788183e+006
4.911863e+002, 2.791185e+006
4.916685e+002, 2.794475e+006
4.921506e+002, 2.797439e+006
4.926327e+002, 2.799625e+006
4.931148e+002, 2.801219e+006
4.935969e+002, 2.802756e+006
4.940790e+002, 2.804283e+006
4.945612e+002, 2.806088e+006
4.950433e+002, 2.808745e+006
4.955254e+002, 2.811930e+006
4.960075e+002, 2.814927e+006
4.964896e+002, 2.817388e+006
4.969717e+002, 2.819858e+006
4.974539e+002, 2.822706e+006
4.979360e+002, 2.825930e+006
4.984181e+002, 2.829399e+006
4.989002e+002, 2.833166e+006
4.993823e+002, 2.837071e+006
4.998644e+002, 2.841032e+006
5.003466e+002, 2.845050e+006
5.008287e+002, 2.848907e+006
5.013108e+002, 2.852287e+006
5.017929e+002, 2.855542e+006
5.022750e+002, 2.858923e+006
5.027571e+002, 2.862722e+006
5.032393e+002, 2.866259e+006
5.037214e+002, 2.869383e+006
5.042035e+002, 2.872199e+006
5.046856e+002, 2.875011e+006
5.051677e+002, 2.877885e+006
5.056498e+002, 2.880593e+006
5.061320e+002, 2.883046e+006
5.066141e+002, 2.885297e+006
5.070962e+002, 2.887753e+006
5.075783e+002, 2.890531e+006
5.080604e+002, 2.893304e+006
5.085425e+002, 2.895880e+006
5.090247e+002, 2.898292e+006
5.095068e+002, 2.900429e+006
5.099889e+002, 2.902239e+006
5.104710e+002, 2.904027e+006
5.109531e+002, 2.906100e+006
5.114352e+002, 2.908492e+006
5.119174e+002, 2.911292e+006
5.123995e+002, 2.914947e+006
5.128816e+002, 2.918738e+006
5.133637e+002, 2.921759e+006
5.138458e+002, 2.924106e+006
5.143279e+002, 2.926466e+006
5.148101e+002, 2.929154e+006
5.152922e+002, 2.931998e+006
5.157743e+002, 2.934838e+006
5.162564e+002, 2.937596e+006
5.167385e+002, 2.940386e+006
5.172206e+002, 2.943444e+006
5.177028e+002, 2.946423e+006
5.181849e+002, 2.948920e+006
5.186670e+002, 2.950220e+006
5.191491e+002, 2.951816e+006
5.196312e+002, 2.954218e+006
5.201133e+002, 2.957178e+006
5.205955e+002, 2.959670e+006
5.210776e+002, 2.961659e+006
5.215597e+002, 2.963345e+006
5.220418e+002, 2.964689e+006
5.225239e+002, 2.965661e+006
5.230060e+002, 2.967351e+006
5.234882e+002, 2.969888e+006
5.239703e+002, 2.972975e+006
5.244524e+002, 2.976640e+006
5.249345e+002, 2.980791e+006
5.254166e+002, 2.984135e+006
5.258987e+002, 2.986236e+006
5.263809e+002, 2.987817e+006
5.268630e+002, 2.989722e+006
5.273451e+002, 2.992018e+006
5.278272e+002, 2.995009e+006
5.283093e+002, 2.999216e+006
5.287914e+002, 3.003927e+006
5.292736e+002, 3.008471e+006
5.297557e+002, 3.012816e+006
5.302378e+002, 3.016828e+006
5.307199e+002, 3.020399e+006
5.312020e+002, 3.023622e+006
5.316841e+002, 3.026520e+006
5.321663e+002, 3.029076e+006
5.326484e+002, 3.031425e+006
5.331305e+002, 3.033737e+006
5.336126e+002, 3.035885e+006
5.340947e+002, 3.037730e+006
5.345768e+002, 3.039032e+006
5.350590e+002, 3.040393e+006
5.355411e+002, 3.041931e+006
5.360232e+002, 3.043676e+006
5.365053e+002, 3.045582e+006
5.369874e+002, 3.047770e+006
5.374695e+002, 3.049956e+006
5.379517e+002, 3.051971e+006
5.384338e+002, 3.053842e+006
5.389159e+002, 3.055704e+006
5.393980e+002, 3.057514e+006
5.398801e+002, 3.059440e+006
5.403622e+002, 3.061596e+006
5.408444e+002, 3.063956e+006
5.413265e+002, 3.066617e+006
5.418086e+002, 3.069718e+006
5.422907e+002, 3.072860e+006
5.427728e+002, 3.075332e+006
5.432549e+002, 3.077399e+006
5.437371e+002, 3.079792e+006
5.442192e+002, 3.083443e+006
5.447013e+002, 3.087126e+006
5.451834e+002, 3.089782e+006
5.456655e+002, 3.091480e+006
5.461476e+002, 3.093289e+006
5.466298e+002, 3.095788e+006
5.471119e+002, 3.098519e+006
5.475940e+002, 3.101251e+006
5.480761e+002, 3.104210e+006
5.485582e+002, 3.106702e+006
5.490403e+002, 3.108204e+006
5.495225e+002, 3.109498e+006
5.500046e+002, 3.111484e+006
5.504867e+002, 3.114359e+006
5.509688e+002, 3.117556e+006
5.514509e+002, 3.121187e+006
5.519330e+002, 3.124993e+006
5.524152e+002, 3.127795e+006
5.528973e+002, 3.129374e+006
5.533794e+002, 3.131127e+006
5.538615e+002, 3.133818e+006
5.543436e+002, 3.137274e+006
5.548257e+002, 3.140811e+006
5.553079e+002, 3.144396e+006
5.557900e+002, 3.147763e+006
5.562721e+002, 3.150679e+006
5.567542e+002, 3.153177e+006
5.572363e+002, 3.155209e+006
5.577184e+002, 3.156622e+006
5.582006e+002, 3.158054e+006
5.586827e+002, 3.160138e+006
5.591648e+002, 3.162584e+006
5.596469e+002, 3.164934e+006
5.601290e+002, 3.167197e+006
5.606111e+002, 3.169178e+006
5.610933e+002, 3.170486e+006
5.615754e+002, 3.171302e+006
5.620575e+002, 3.172736e+006
5.625396e+002, 3.175478e+006
5.630217e+002, 3.178372e+006
5.635038e+002, 3.180969e+006
5.639860e+002, 3.183181e+006
5.644681e+002, 3.185518e+006
5.649502e+002, 3.187947e+006
5.654323e+002, 3.190531e+006
5.659144e+002, 3.193381e+006
5.663965e+002, 3.196551e+006
5.668787e+002, 3.199463e+006
5.673608e+002, 3.201923e+006
5.678429e+002, 3.204300e+006
5.683250e+002, 3.207251e+006
5.688071e+002, 3.210689e+006
5.692892e+002, 3.213979e+006
5.697714e+002, 3.216568e+006
5.702535e+002, 3.219015e+006
5.707356e+002, 3.222115e+006
5.712177e+002, 3.225795e+006
5.716998e+002, 3.229382e+006
5.721819e+002, 3.232391e+006
5.726641e+002, 3.235265e+006
5.731462e+002, 3.238335e+006
5.736283e+002, 3.241680e+006
5.741104e+002, 3.244994e+006
5.745925e+002, 3.248465e+006
5.750746e+002, 3.251693e+006
5.755568e+002, 3.254363e+006
5.760389e+002, 3.255237e+006
5.765210e+002, 3.257188e+006
5.770031e+002, 3.260952e+006
5.774852e+002, 3.265620e+006
5.779673e+002, 3.269358e+006
5.784495e+002, 3.272119e+006
5.789316e+002, 3.274268e+006
5.794137e+002, 3.275639e+006
5.798958e+002, 3.276577e+006
5.803779e+002, 3.278831e+006
5.808600e+002, 3.282478e+006
5.813422e+002, 3.286089e+006
5.818243e+002, 3.288239e+006
5.823064e+002, 3.289726e+006
5.827885e+002, 3.292269e+006
5.832706e+002, 3.296016e+006
5.837527e+002, 3.300536e+006
5.842349e+002, 3.306896e+006
5.847170e+002, 3.313286e+006
5.851991e+002, 3.317198e+006
5.856812e+002, 3.316261e+006
5.861633e+002, 3.315717e+006
5.866454e+002, 3.317997e+006
5.871276e+002, 3.322104e+006
5.876097e+002, 3.326217e+006
5.880918e+002, 3.330523e+006
5.885739e+002, 3.334189e+006
5.890560e+002, 3.336778e+006
5.895381e+002, 3.338470e+006
5.900203e+002, 3.340626e+006
5.905024e+002, 3.343459e+006
5.909845e+002, 3.346411e+006
5.914666e+002, 3.349260e+006
5.919487e+002, 3.352055e+006
5.924308e+002, 3.354815e+006
5.929130e+002, 3.357611e+006
5.933951e+002, 3.360261e+006
5.938772e+002, 3.362310e+006
5.943593e+002, 3.364049e+006
5.948414e+002, 3.366310e+006
5.953235e+002, 3.369199e+006
5.958057e+002, 3.372764e+006
5.962878e+002, 3.377582e+006
5.967699e+002, 3.383035e+006
5.972520e+002, 3.387890e+006
5.977341e+002, 3.390982e+006
5.982162e+002, 3.394010e+006
5.986984e+002, 3.397924e+006
5.991805e+002, 3.402415e+006
5.996626e+002, 3.406611e+006
6.001447e+002, 3.409883e+006
6.006268e+002, 3.413169e+006
6.011089e+002, 3.416843e+006
6.015911e+002, 3.420978e+006
6.020732e+002, 3.424698e+006
6.025553e+002, 3.427813e+006
6.030374e+002, 3.430780e+006
6.035195e+002, 3.433757e+006
6.040016e+002, 3.436688e+006
6.044838e+002, 3.440571e+006
6.049659e+002, 3.445731e+006
6.054480e+002, 3.450885e+006
6.059301e+002, 3.453858e+006
6.064122e+002, 3.455260e+006
6.068943e+002, 3.457720e+006
6.073765e+002, 3.462473e+006
6.078586e+002, 3.467666e+006
6.083407e+002, 3.470975e+006
6.088228e+002, 3.473053e+006
6.093049e+002, 3.475395e+006
6.097870e+002, 3.478992e+006
6.102692e+002, 3.482781e+006
6.107513e+002, 3.486212e+006
6.112334e+002, 3.489279e+006
6.117155e+002, 3.492298e+006
6.121976e+002, 3.495382e+006
6.126797e+002, 3.498437e+006
6.131619e+002, 3.501383e+006
6.136440e+002, 3.504181e+006
6.141261e+002, 3.507280e+006
6.146082e+002, 3.510944e+006
6.150903e+002, 3.514607e+006
6.155724e+002, 3.517673e+006
6.160546e+002, 3.520105e+006
6.165367e+002, 3.522993e+006
6.170188e+002, 3.526541e+006
6.175009e+002, 3.530340e+006
6.179830e+002, 3.533814e+006
6.184651e+002, 3.537035e+006
6.189473e+002, 3.540248e+006
6.194294e+002, 3.543634e+006
6.199115e+002, 3.546889e+006
6.203936e+002, 3.549610e+006
6.208757e+002, 3.551943e+006
6.213578e+002, 3.554375e+006
6.218400e+002, 3.556942e+006
6.223221e+002, 3.559847e+006
6.228042e+002, 3.563503e+006
6.232863e+002, 3.567953e+006
6.237684e+002, 3.571528e+006
6.242505e+002, 3.573341e+006
6.247327e+002, 3.574978e+006
6.252148e+002, 3.577177e+006
6.256969e+002, 3.580051e+006
6.261790e+002, 3.583160e+006
6.266611e+002, 3.586583e+006
6.271432e+002, 3.590062e+006
6.276254e+002, 3.593353e+006
6.281075e+002, 3.596453e+006
6.285896e+002, 3.599289e+006
6.290717e+002, 3.601708e+006
6.295538e+002, 3.604117e+006
6.300359e+002, 3.607173e+006
6.305181e+002, 3.610607e+006
6.310002e+002, 3.613873e+006
6.314823e+002, 3.616808e+006
6.319644e+002, 3.619386e+006
6.324465e+002, 3.621481e+006
6.329286e+002, 3.623178e+006
6.334108e+002, 3.624739e+006
6.338929e+002, 3.626187e+006
6.343750e+002, 3.627577e+006
6.348571e+002, 3.628996e+006
6.353392e+002, 3.630479e+006
6.358214e+002, 3.631636e+006
6.363035e+002, 3.632389e+006
6.367856e+002, 3.633030e+006
6.372677e+002, 3.633763e+006
6.377498e+002, 3.634650e+006
6.382319e+002, 3.635423e+006
6.387141e+002, 3.636069e+006
6.391962e+002, 3.636821e+006
6.396783e+002, 3.637959e+006
6.401604e+002, 3.639440e+006
6.406425e+002, 3.641052e+006
6.411246e+002, 3.642809e+006
6.416068e+002, 3.644603e+006
6.420889e+002, 3.646216e+006
6.425710e+002, 3.647809e+006
6.430531e+002, 3.649611e+006
6.435352e+002, 3.652281e+006
6.440173e+002, 3.654558e+006
6.444995e+002, 3.655434e+006
6.449816e+002, 3.655442e+006
6.454637e+002, 3.656194e+006
6.459458e+002, 3.658877e+006
6.464279e+002, 3.661199e+006
6.469100e+002, 3.662411e+006
6.473922e+002, 3.662623e+006
6.478743e+002, 3.663307e+006
6.483564e+002, 3.664520e+006
6.488385e+002, 3.665996e+006
6.493206e+002, 3.667761e+006
6.498027e+002, 3.669742e+006
6.502849e+002, 3.671086e+006
6.507670e+002, 3.671759e+006
6.512491e+002, 3.672269e+006
6.517312e+002, 3.673329e+006
6.522133e+002, 3.674438e+006
6.526954e+002, 3.674724e+006
6.531776e+002, 3.673901e+006
6.536597e+002, 3.672807e+006
6.541418e+002, 3.671664e+006
6.546239e+002, 3.670653e+006
6.551060e+002, 3.669986e+006
6.555881e+002, 3.670131e+006
6.560703e+002, 3.670124e+006
6.565524e+002, 3.669886e+006
6.570345e+002, 3.669404e+006
6.575166e+002, 3.668676e+006
6.579987e+002, 3.667735e+006
6.584808e+002, 3.666396e+006
6.589630e+002, 3.664430e+006
6.594451e+002, 3.662094e+006
6.599272e+002, 3.660211e+006
6.604093e+002, 3.658784e+006
6.608914e+002, 3.657671e+006
6.613735e+002, 3.657256e+006
6.618557e+002, 3.656957e+006
6.623378e+002, 3.655489e+006
6.628199e+002, 3.652987e+006
6.633020e+002, 3.650534e+006
6.637841e+002, 3.648855e+006
6.642662e+002, 3.647538e+006
6.647484e+002, 3.646157e+006
6.652305e+002, 3.644597e+006
6.657126e+002, 3.643619e+006
6.661947e+002, 3.643736e+006
6.666768e+002, 3.644285e+006
6.671589e+002, 3.644882e+006
6.676411e+002, 3.646267e+006
6.681232e+002, 3.645798e+006
6.686053e+002, 3.642611e+006
6.690874e+002, 3.638624e+006
6.695695e+002, 3.636280e+006
6.700516e+002, 3.635517e+006
6.705338e+002, 3.635115e+006
6.710159e+002, 3.635020e+006
6.714980e+002, 3.634681e+006
6.719801e+002, 3.633026e+006
6.724622e+002, 3.630449e+006
6.729443e+002, 3.628087e+006
6.734265e+002, 3.626713e+006
6.739086e+002, 3.625450e+006
6.743907e+002, 3.623743e+006
6.748728e+002, 3.621687e+006
6.753549e+002, 3.619563e+006
6.758370e+002, 3.617376e+006
6.763192e+002, 3.615254e+006
6.768013e+002, 3.613225e+006
6.772834e+002, 3.611316e+006
6.777655e+002, 3.609836e+006
6.782476e+002, 3.608984e+006
6.787297e+002, 3.608223e+006
6.792119e+002, 3.607475e+006
6.796940e+002, 3.606691e+006
6.801761e+002, 3.604825e+006
6.806582e+002, 3.601772e+006
6.811403e+002, 3.598676e+006
6.816224e+002, 3.596473e+006
6.821046e+002, 3.594879e+006
6.825867e+002, 3.593461e+006
6.830688e+002, 3.592144e+006
6.835509e+002, 3.590910e+006
6.840330e+002, 3.589768e+006
6.845151e+002, 3.588655e+006
6.849973e+002, 3.587494e+006
6.854794e+002, 3.586233e+006
6.859615e+002, 3.584961e+006
6.864436e+002, 3.583774e+006
6.869257e+002, 3.582546e+006
6.874078e+002, 3.581131e+006
6.878900e+002, 3.579528e+006
6.883721e+002, 3.577749e+006
6.888542e+002, 3.575764e+006
6.893363e+002, 3.573716e+006
6.898184e+002, 3.572166e+006
6.903005e+002, 3.571050e+006
6.907827e+002, 3.569232e+006
6.912648e+002, 3.565814e+006
6.917469e+002, 3.561946e+006
6.922290e+002, 3.559201e+006
6.927111e+002, 3.557389e+006
6.931932e+002, 3.556059e+006
6.936754e+002, 3.555081e+006
6.941575e+002, 3.554378e+006
6.946396e+002, 3.554121e+006
6.951217e+002, 3.554216e+006
6.956038e+002, 3.553765e+006
6.960859e+002, 3.552420e+006
6.965681e+002, 3.550664e+006
6.970502e+002, 3.548596e+006
6.975323e+002, 3.546206e+006
6.980144e+002, 3.543907e+006
6.984965e+002, 3.541795e+006
6.989786e+002, 3.539508e+006
6.994608e+002, 3.536691e+006
6.999429e+002, 3.533465e+006
7.004250e+002, 3.530352e+006
7.009071e+002, 3.527382e+006
7.013892e+002, 3.524650e+006
7.018713e+002, 3.522429e+006
7.023535e+002, 3.520431e+006
7.028356e+002, 3.518212e+006
7.033177e+002, 3.515485e+006
7.037998e+002, 3.513174e+006
7.042819e+002, 3.511978e+006
7.047640e+002, 3.511174e+006
7.052462e+002, 3.509961e+006
7.057283e+002, 3.507919e+006
7.062104e+002, 3.506090e+006
7.066925e+002, 3.504633e+006
7.071746e+002, 3.503260e+006
7.076567e+002, 3.501418e+006
7.081389e+002, 3.499066e+006
7.086210e+002, 3.496977e+006
7.091031e+002, 3.495438e+006
7.095852e+002, 3.494026e+006
7.100673e+002, 3.491947e+006
7.105494e+002, 3.489419e+006
7.110316e+002, 3.487004e+006
7.115137e+002, 3.485117e+006
7.119958e+002, 3.483352e+006
7.124779e+002, 3.481282e+006
7.129600e+002, 3.479094e+006
7.134421e+002, 3.477361e+006
7.139243e+002, 3.476939e+006
7.144064e+002, 3.476224e+006
7.148885e+002, 3.474568e+006
7.153706e+002, 3.472118e+006
7.158527e+002, 3.470206e+006
7.163348e+002, 3.469025e+006
7.168170e+002, 3.467788e+006
7.172991e+002, 3.466126e+006
7.177812e+002, 3.464075e+006
7.182633e+002, 3.461872e+006
7.187454e+002, 3.459485e+006
7.192275e+002, 3.457234e+006
7.197097e+002, 3.455277e+006
7.201918e+002, 3.453570e+006
7.206739e+002, 3.452135e+006
7.211560e+002, 3.451000e+006
7.216381e+002, 3.449699e+006
7.221202e+002, 3.447909e+006
7.226024e+002, 3.445996e+006
7.230845e+002, 3.444190e+006
7.235666e+002, 3.442493e+006
7.240487e+002, 3.441050e+006
7.245308e+002, 3.439984e+006
7.250129e+002, 3.439014e+006
7.254951e+002, 3.438019e+006
7.259772e+002, 3.437026e+006
7.264593e+002, 3.435330e+006
7.269414e+002, 3.432758e+006
7.274235e+002, 3.429992e+006
7.279056e+002, 3.427746e+006
7.283878e+002, 3.425882e+006
7.288699e+002, 3.424131e+006
7.293520e+002, 3.422360e+006
7.298341e+002, 3.420757e+006
7.303162e+002, 3.419769e+006
7.307983e+002, 3.418894e+006
7.312805e+002, 3.417507e+006
7.317626e+002, 3.414780e+006
7.322447e+002, 3.412444e+006
7.327268e+002, 3.410956e+006
7.332089e+002, 3.409824e+006
7.336910e+002, 3.408154e+006
7.341732e+002, 3.405768e+006
7.346553e+002, 3.403812e+006
7.351374e+002, 3.402668e+006
7.356195e+002, 3.401939e+006
7.361016e+002, 3.400842e+006
7.365837e+002, 3.399461e+006
7.370659e+002, 3.398216e+006
7.375480e+002, 3.397796e+006
7.380301e+002, 3.396980e+006
7.385122e+002, 3.394028e+006
7.389943e+002, 3.389764e+006
7.394764e+002, 3.386362e+006
7.399586e+002, 3.385765e+006
7.404407e+002, 3.384847e+006
7.409228e+002, 3.382166e+006
7.414049e+002, 3.378202e+006
7.418870e+002, 3.375091e+006
7.423691e+002, 3.373205e+006
7.428513e+002, 3.371388e+006
7.433334e+002, 3.369333e+006
7.438155e+002, 3.367031e+006
7.442976e+002, 3.364311e+006
7.447797e+002, 3.361207e+006
7.452618e+002, 3.358119e+006
7.457440e+002, 3.355419e+006
7.462261e+002, 3.352792e+006
7.467082e+002, 3.349615e+006
7.471903e+002, 3.346000e+006
7.476724e+002, 3.342786e+006
7.481545e+002, 3.340211e+006
7.486367e+002, 3.338238e+006
7.491188e+002, 3.337403e+006
7.496009e+002, 3.337982e+006
7.500830e+002, 3.336046e+006
7.505651e+002, 3.330449e+006
7.510472e+002, 3.324315e+006
7.515294e+002, 3.319361e+006
7.520115e+002, 3.315521e+006
7.524936e+002, 3.312619e+006
7.529757e+002, 3.310705e+006
7.534578e+002, 3.308607e+006
7.539399e+002, 3.305123e+006
7.544221e+002, 3.300975e+006
7.549042e+002, 3.297463e+006
7.553863e+002, 3.294790e+006
7.558684e+002, 3.291776e+006
7.563505e+002, 3.287298e+006
7.568326e+002, 3.282573e+006
7.573148e+002, 3.278563e+006
7.577969e+002, 3.275681e+006
7.582790e+002, 3.272729e+006
7.587611e+002, 3.269548e+006
7.592432e+002, 3.266463e+006
7.597253e+002, 3.263806e+006
7.602075e+002, 3.261553e+006
7.606896e+002, 3.259208e+006
7.611717e+002, 3.256698e+006
7.616538e+002, 3.253916e+006
7.621359e+002, 3.250469e+006
7.626180e+002, 3.246660e+006
7.631002e+002, 3.243164e+006
7.635823e+002, 3.240219e+006
7.640644e+002, 3.237239e+006
7.645465e+002, 3.233918e+006
7.650286e+002, 3.230389e+006
7.655107e+002, 3.226827e+006
7.659929e+002, 3.223286e+006
7.664750e+002, 3.219722e+006
7.669571e+002, 3.216160e+006
7.674392e+002, 3.212565e+006
7.679213e+002, 3.208694e+006
7.684034e+002, 3.204522e+006
7.688856e+002, 3.201090e+006
7.693677e+002, 3.198677e+006
7.698498e+002, 3.196744e+006
7.703319e+002, 3.194884e+006
7.708140e+002, 3.192897e+006
7.712961e+002, 3.190334e+006
7.717783e+002, 3.186757e+006
7.722604e+002, 3.183032e+006
7.727425e+002, 3.179541e+006
7.732246e+002, 3.176190e+006
7.737067e+002, 3.172790e+006
7.741888e+002, 3.169381e+006
7.746710e+002, 3.165845e+006
7.751531e+002, 3.162135e+006
7.756352e+002, 3.158370e+006
7.761173e+002, 3.154658e+006
7.765994e+002, 3.151026e+006
7.770815e+002, 3.147792e+006
7.775637e+002, 3.145185e+006
7.780458e+002, 3.142653e+006
7.785279e+002, 3.139234e+006
7.790100e+002, 3.135274e+006
7.794921e+002, 3.131549e+006
7.799742e+002, 3.128717e+006
7.804564e+002, 3.125805e+006
7.809385e+002, 3.122377e+006
7.814206e+002, 3.118527e+006
7.819027e+002, 3.114419e+006
7.823848e+002, 3.109676e+006
7.828669e+002, 3.105504e+006
7.833491e+002, 3.102551e+006
7.838312e+002, 3.099967e+006
7.843133e+002, 3.095344e+006
7.847954e+002, 3.088782e+006
7.852775e+002, 3.082856e+006
7.857596e+002, 3.078689e+006
7.862418e+002, 3.075386e+006
7.867239e+002, 3.071813e+006
7.872060e+002, 3.068163e+006
7.876881e+002, 3.064779e+006
7.881702e+002, 3.061956e+006
7.886523e+002, 3.059376e+006
7.891345e+002, 3.056873e+006
7.896166e+002, 3.054521e+006
7.900987e+002, 3.052469e+006
7.905808e+002, 3.050871e+006
7.910629e+002, 3.049225e+006
7.915450e+002, 3.047389e+006
7.920272e+002, 3.045423e+006
7.925093e+002, 3.043522e+006
7.929914e+002, 3.041678e+006
7.934735e+002, 3.040212e+006
7.939556e+002, 3.039383e+006
7.944377e+002, 3.038836e+006
7.949199e+002, 3.038058e+006
7.954020e+002, 3.037215e+006
7.958841e+002, 3.036765e+006
7.963662e+002, 3.036803e+006
7.968483e+002, 3.037343e+006
7.973304e+002, 3.038517e+006
7.978126e+002, 3.040218e+006
7.982947e+002, 3.042117e+006
7.987768e+002, 3.044227e+006
7.992589e+002, 3.046530e+006
7.997410e+002, 3.048999e+006
8.002231e+002, 3.051699e+006
8.007053e+002, 3.054645e+006
8.011874e+002, 3.057901e+006
8.016695e+002, 3.061875e+006
8.021516e+002, 3.066783e+006
8.026337e+002, 3.072461e+006
8.031158e+002, 3.079091e+006
8.035980e+002, 3.086338e+006
8.040801e+002, 3.093569e+006
8.045622e+002, 3.099670e+006
8.050443e+002, 3.106722e+006
8.055264e+002, 3.115886e+006
8.060085e+002, 3.126244e+006
8.064907e+002, 3.134981e+006
8.069728e+002, 3.142025e+006
8.074549e+002, 3.147773e+006
8.079370e+002, 3.152348e+006
8.084191e+002, 3.155772e+006
8.089012e+002, 3.158522e+006
8.093834e+002, 3.160256e+006
8.098655e+002, 3.159764e+006
8.103476e+002, 3.156080e+006
8.108297e+002, 3.150336e+006
8.113118e+002, 3.143060e+006
8.117939e+002, 3.134317e+006
8.122761e+002, 3.124231e+006
8.127582e+002, 3.111661e+006
8.132403e+002, 3.099417e+006
8.137224e+002, 3.088101e+006
8.142045e+002, 3.077472e+006
8.146866e+002, 3.066638e+006
8.151688e+002, 3.055764e+006
8.156509e+002, 3.045482e+006
8.161330e+002, 3.036425e+006
8.166151e+002, 3.027611e+006
8.170972e+002, 3.017642e+006
8.175793e+002, 3.006771e+006
8.180615e+002, 2.995381e+006
8.185436e+002, 2.985172e+006
8.190257e+002, 2.972923e+006
8.195078e+002, 2.956814e+006
8.199899e+002, 2.937723e+006
8.204720e+002, 2.918394e+006
8.209542e+002, 2.898836e+006
8.214363e+002, 2.879374e+006
8.219184e+002, 2.859808e+006
8.224005e+002, 2.840625e+006
8.228826e+002, 2.822781e+006
8.233647e+002, 2.806101e+006
8.238469e+002, 2.790488e+006
8.243290e+002, 2.775934e+006
8.248111e+002, 2.762168e+006
8.252932e+002, 2.748471e+006
8.257753e+002, 2.735203e+006
8.262574e+002, 2.723455e+006
8.267396e+002, 2.714305e+006
8.272217e+002, 2.705513e+006
8.277038e+002, 2.696557e+006
8.281859e+002, 2.687717e+006
8.286681e+002, 2.679235e+006
8.291502e+002, 2.671151e+006
8.296323e+002, 2.663689e+006
8.301144e+002, 2.657096e+006
8.305966e+002, 2.650841e+006
8.310787e+002, 2.643511e+006
8.315608e+002, 2.635754e+006
8.320429e+002, 2.629035e+006
8.325250e+002, 2.624635e+006
8.330071e+002, 2.620243e+006
8.334893e+002, 2.614445e+006
8.339714e+002, 2.607968e+006
8.344535e+002, 2.601828e+006
8.349356e+002, 2.596211e+006
8.354177e+002, 2.590628e+006
8.358998e+002, 2.584865e+006
8.363820e+002, 2.579446e+006
8.368641e+002, 2.575457e+006
8.373462e+002, 2.572692e+006
8.378283e+002, 2.569108e+006
8.383104e+002, 2.564156e+006
8.387925e+002, 2.558894e+006
8.392747e+002, 2.554385e+006
8.397568e+002, 2.550166e+006
8.402389e+002, 2.545560e+006
8.407210e+002, 2.540160e+006
8.412031e+002, 2.534767e+006
8.416852e+002, 2.529629e+006
8.421674e+002, 2.524578e+006
8.426495e+002, 2.519456e+006
8.431316e+002, 2.514222e+006
8.436137e+002, 2.509404e+006
8.440958e+002, 2.505102e+006
8.445779e+002, 2.500910e+006
8.450601e+002, 2.496239e+006
8.455422e+002, 2.491354e+006
8.460243e+002, 2.486657e+006
8.465064e+002, 2.482184e+006
8.469885e+002, 2.478027e+006
8.474706e+002, 2.474310e+006
8.479528e+002, 2.470802e+006
8.484349e+002, 2.467288e+006
8.489170e+002, 2.463647e+006
8.493991e+002, 2.460158e+006
8.498812e+002, 2.456890e+006
8.503633e+002, 2.453476e+006
8.508455e+002, 2.449569e+006
8.513276e+002, 2.445188e+006
8.518097e+002, 2.440658e+006
8.522918e+002, 2.435960e+006
8.527739e+002, 2.431345e+006
8.532560e+002, 2.427022e+006
8.537382e+002, 2.422868e+006
8.542203e+002, 2.418814e+006
8.547024e+002, 2.414914e+006
8.551845e+002, 2.410711e+006
8.556666e+002, 2.405770e+006
8.561487e+002, 2.400983e+006
8.566309e+002, 2.396761e+006
8.571130e+002, 2.393172e+006
8.575951e+002, 2.389716e+006
8.580772e+002, 2.386382e+006
8.585593e+002, 2.383086e+006
8.590414e+002, 2.379643e+006
8.595236e+002, 2.376181e+006
8.600057e+002, 2.372931e+006
8.604878e+002, 2.369879e+006
8.609699e+002, 2.366949e+006
8.614520e+002, 2.364423e+006
8.619341e+002, 2.361666e+006
8.624163e+002, 2.358067e+006
8.628984e+002, 2.353810e+006
8.633805e+002, 2.350445e+006
8.638626e+002, 2.348292e+006
8.643447e+002, 2.345787e+006
8.648268e+002, 2.342104e+006
8.653090e+002, 2.337772e+006
8.657911e+002, 2.334054e+006
8.662732e+002, 2.330883e+006
8.667553e+002, 2.328160e+006
8.672374e+002, 2.326180e+006
8.677195e+002, 2.324184e+006
8.682017e+002, 2.321924e+006
8.686838e+002, 2.319260e+006
8.691659e+002, 2.315862e+006
8.696480e+002, 2.311207e+006
8.701301e+002, 2.306790e+006
8.706122e+002, 2.303036e+006
8.710944e+002, 2.299559e+006
8.715765e+002, 2.295485e+006
8.720586e+002, 2.290913e+006
8.725407e+002, 2.286476e+006
8.730228e+002, 2.282507e+006
8.735049e+002, 2.278571e+006
8.739871e+002, 2.274064e+006
8.744692e+002, 2.269385e+006
8.749513e+002, 2.265099e+006
8.754334e+002, 2.261496e+006
8.759155e+002, 2.258213e+006
8.763976e+002, 2.255339e+006
8.768798e+002, 2.252631e+006
8.773619e+002, 2.249597e+006
8.778440e+002, 2.246178e+006
8.783261e+002, 2.243733e+006
8.788082e+002, 2.242558e+006
8.792903e+002, 2.241415e+006
8.797725e+002, 2.238591e+006
8.802546e+002, 2.235026e+006
8.807367e+002, 2.232134e+006
8.812188e+002, 2.230261e+006
8.817009e+002, 2.228409e+006
8.821830e+002, 2.226452e+006
8.826652e+002, 2.224144e+006
8.831473e+002, 2.221320e+006
8.836294e+002, 2.217884e+006
8.841115e+002, 2.214512e+006
8.845936e+002, 2.211221e+006
8.850757e+002, 2.207992e+006
8.855579e+002, 2.204844e+006
8.860400e+002, 2.201742e+006
8.865221e+002, 2.198740e+006
8.870042e+002, 2.195842e+006
8.874863e+002, 2.192482e+006
8.879684e+002, 2.187680e+006
8.884506e+002, 2.182998e+006
8.889327e+002, 2.179409e+006
8.894148e+002, 2.176857e+006
8.898969e+002, 2.174168e+006
8.903790e+002, 2.171304e+006
8.908611e+002, 2.168409e+006
8.913433e+002, 2.165337e+006
8.918254e+002, 2.162337e+006
8.923075e+002, 2.160222e+006
8.927896e+002, 2.158758e+006
8.932717e+002, 2.157063e+006
8.937538e+002, 2.154409e+006
8.942360e+002, 2.151571e+006
8.947181e+002, 2.148874e+006
8.952002e+002, 2.146353e+006
8.956823e+002, 2.144216e+006
8.961644e+002, 2.142901e+006
8.966465e+002, 2.141022e+006
8.971287e+002, 2.138194e+006
8.976108e+002, 2.134973e+006
8.980929e+002, 2.132720e+006
8.985750e+002, 2.131118e+006
8.990571e+002, 2.128490e+006
8.995392e+002, 2.124069e+006
9.000214e+002, 2.119521e+006
9.005035e+002, 2.116288e+006
9.009856e+002, 2.113613e+006
9.014677e+002, 2.110535e+006
9.019498e+002, 2.106570e+006
9.024319e+002, 2.102887e+006
9.029141e+002, 2.099679e+006
9.033962e+002, 2.096450e+006
9.038783e+002, 2.092580e+006
9.043604e+002, 2.088158e+006
9.048425e+002, 2.083917e+006
9.053246e+002, 2.079839e+006
9.058068e+002, 2.076166e+006
9.062889e+002, 2.073403e+006
9.067710e+002, 2.070849e+006
9.072531e+002, 2.067862e+006
9.077352e+002, 2.064374e+006
9.082173e+002, 2.060565e+006
9.086995e+002, 2.056078e+006
9.091816e+002, 2.051806e+006
9.096637e+002, 2.048317e+006
9.101458e+002, 2.045450e+006
9.106279e+002, 2.042184e+006
9.111100e+002, 2.038542e+006
9.115922e+002, 2.034932e+006
9.120743e+002, 2.031481e+006
9.125564e+002, 2.028230e+006
9.130385e+002, 2.025344e+006
9.135206e+002, 2.022720e+006
9.140027e+002, 2.019935e+006
9.144849e+002, 2.016553e+006
9.149670e+002, 2.013451e+006
9.154491e+002, 2.010977e+006
9.159312e+002, 2.008746e+006
9.164133e+002, 2.005771e+006
9.168954e+002, 2.002061e+006
9.173776e+002, 1.998959e+006
9.178597e+002, 1.996935e+006
9.183418e+002, 1.995059e+006
9.188239e+002, 1.992177e+006
9.193060e+002, 1.988824e+006
9.197881e+002, 1.985732e+006
9.202703e+002, 1.982984e+006
9.207524e+002, 1.980694e+006
9.212345e+002, 1.979259e+006
9.217166e+002, 1.977841e+006
9.221987e+002, 1.975680e+006
9.226808e+002, 1.972736e+006
9.231630e+002, 1.970067e+006
9.236451e+002, 1.967721e+006
9.241272e+002, 1.965336e+006
9.246093e+002, 1.962345e+006
9.250914e+002, 1.959293e+006
9.255735e+002, 1.957010e+006
9.260557e+002, 1.955540e+006
9.265378e+002, 1.953588e+006
9.270199e+002, 1.950292e+006
9.275020e+002, 1.946983e+006
9.279841e+002, 1.944101e+006
9.284662e+002, 1.941588e+006
9.289484e+002, 1.939072e+006
9.294305e+002, 1.936549e+006
9.299126e+002, 1.933860e+006
9.303947e+002, 1.930850e+006
9.308768e+002, 1.927772e+006
9.313589e+002, 1.925145e+006
9.318411e+002, 1.922696e+006
9.323232e+002, 1.919880e+006
9.328053e+002, 1.916185e+006
9.332874e+002, 1.912587e+006
9.337695e+002, 1.909211e+006
9.342516e+002, 1.906087e+006
9.347338e+002, 1.903410e+006
9.352159e+002, 1.901160e+006
9.356980e+002, 1.898759e+006
9.361801e+002, 1.896079e+006
9.366622e+002, 1.893413e+006
9.371443e+002, 1.891124e+006
9.376265e+002, 1.888968e+006
9.381086e+002, 1.886640e+006
9.385907e+002, 1.883937e+006
9.390728e+002, 1.881510e+006
9.395549e+002, 1.879608e+006
9.400370e+002, 1.877806e+006
9.405192e+002, 1.875931e+006
9.410013e+002, 1.873966e+006
9.414834e+002, 1.871735e+006
9.419655e+002, 1.869222e+006
9.424476e+002, 1.866803e+006
9.429297e+002, 1.865014e+006
9.434119e+002, 1.863217e+006
9.438940e+002, 1.860791e+006
9.443761e+002, 1.857806e+006
9.448582e+002, 1.854627e+006
9.453403e+002, 1.851081e+006
9.458224e+002, 1.847725e+006
9.463046e+002, 1.844732e+006
9.467867e+002, 1.841990e+006
9.472688e+002, 1.839327e+006
9.477509e+002, 1.836729e+006
9.482330e+002, 1.834058e+006
9.487151e+002, 1.831251e+006
9.491973e+002, 1.828485e+006
9.496794e+002, 1.825993e+006
9.501615e+002, 1.823625e+006
9.506436e+002, 1.821189e+006
9.511257e+002, 1.818662e+006
9.516078e+002, 1.816109e+006
9.520900e+002, 1.813438e+006
9.525721e+002, 1.810920e+006
9.530542e+002, 1.808808e+006
9.535363e+002, 1.807054e+006
9.540184e+002, 1.805468e+006
9.545005e+002, 1.804038e+006
9.549827e+002, 1.802431e+006
9.554648e+002, 1.800200e+006
9.559469e+002, 1.797864e+006
9.564290e+002, 1.795692e+006
9.569111e+002, 1.793702e+006
9.573932e+002, 1.792118e+006
9.578754e+002, 1.791233e+006
9.583575e+002, 1.789917e+006
9.588396e+002, 1.787624e+006
9.593217e+002, 1.784861e+006
9.598038e+002, 1.783015e+006
9.602859e+002, 1.781821e+006
9.607681e+002, 1.780419e+006
9.612502e+002, 1.778500e+006
9.617323e+002, 1.776252e+006
9.622144e+002, 1.773706e+006
9.626965e+002, 1.770950e+006
9.631786e+002, 1.768105e+006
9.636608e+002, 1.765276e+006
9.641429e+002, 1.762137e+006
9.646250e+002, 1.758555e+006
9.651071e+002, 1.755282e+006
9.655892e+002, 1.753612e+006
9.660714e+002, 1.752727e+006
9.665535e+002, 1.750594e+006
9.670356e+002, 1.747113e+006
9.675177e+002, 1.743633e+006
9.679998e+002, 1.740747e+006
9.684819e+002, 1.738160e+006
9.689641e+002, 1.735650e+006
9.694462e+002, 1.733247e+006
9.699283e+002, 1.731229e+006
9.704104e+002, 1.729613e+006
9.708925e+002, 1.728150e+006
9.713746e+002, 1.726785e+006
9.718568e+002, 1.725393e+006
9.723389e+002, 1.723702e+006
9.728210e+002, 1.721805e+006
9.733031e+002, 1.719911e+006
9.737852e+002, 1.717823e+006
9.742673e+002, 1.716093e+006
9.747495e+002, 1.715094e+006
9.752316e+002, 1.714234e+006
9.757137e+002, 1.712843e+006
9.761958e+002, 1.710887e+006
9.766779e+002, 1.709233e+006
9.771600e+002, 1.708004e+006
9.776422e+002, 1.706516e+006
9.781243e+002, 1.703920e+006
9.786064e+002, 1.700895e+006
9.790885e+002, 1.698101e+006
9.795706e+002, 1.695622e+006
9.800527e+002, 1.693283e+006
9.805349e+002, 1.691055e+006
9.810170e+002, 1.688988e+006
9.814991e+002, 1.687153e+006
9.819812e+002, 1.685432e+006
9.824633e+002, 1.683275e+006
9.829454e+002, 1.680785e+006
9.834276e+002, 1.678688e+006
9.839097e+002, 1.677526e+006
9.843918e+002, 1.676444e+006
9.848739e+002, 1.674839e+006
9.853560e+002, 1.672886e+006
9.858381e+002, 1.670828e+006
9.863203e+002, 1.668517e+006
9.868024e+002, 1.666578e+006
9.872845e+002, 1.665190e+006
9.877666e+002, 1.663835e+006
9.882487e+002, 1.661967e+006
9.887308e+002, 1.659733e+006
9.892130e+002, 1.657404e+006
9.896951e+002, 1.655029e+006
9.901772e+002, 1.652646e+006
9.906593e+002, 1.650021e+006
9.911414e+002, 1.647625e+006
9.916235e+002, 1.645887e+006
9.921057e+002, 1.644631e+006
9.925878e+002, 1.642770e+006
9.930699e+002, 1.640176e+006
9.935520e+002, 1.637726e+006
9.940341e+002, 1.635763e+006
9.945162e+002, 1.633968e+006
9.949984e+002, 1.631892e+006
9.954805e+002, 1.629649e+006
9.959626e+002, 1.627453e+006
9.964447e+002, 1.625377e+006
9.969268e+002, 1.623354e+006
9.974089e+002, 1.621476e+006
9.978911e+002, 1.619630e+006
9.983732e+002, 1.617787e+006
9.988553e+002, 1.615972e+006
9.993374e+002, 1.613702e+006
9.998195e+002, 1.610978e+006
1.000302e+003, 1.608453e+006
1.000784e+003, 1.606663e+006
1.001266e+003, 1.605214e+006
1.001748e+003, 1.603798e+006
1.002230e+003, 1.602379e+006
1.002712e+003, 1.600963e+006
1.003194e+003, 1.599491e+006
1.003676e+003, 1.598045e+006
1.004159e+003, 1.596587e+006
1.004641e+003, 1.595172e+006
1.005123e+003, 1.594049e+006
1.005605e+003, 1.593053e+006
1.006087e+003, 1.591639e+006
1.006569e+003, 1.589459e+006
1.007051e+003, 1.587343e+006
1.007533e+003, 1.585851e+006
1.008016e+003, 1.584510e+006
1.008498e+003, 1.582849e+006
1.008980e+003, 1.580812e+006
1.009462e+003, 1.578977e+006
1.009944e+003, 1.577366e+006
1.010426e+003, 1.575781e+006
1.010908e+003, 1.573908e+006
1.011390e+003, 1.572089e+006
1.011872e+003, 1.570920e+006
1.012355e+003, 1.570238e+006
1.012837e+003, 1.569315e+006
1.013319e+003, 1.567640e+006
1.013801e+003, 1.565971e+006
1.014283e+003, 1.564432e+006
1.014765e+003, 1.562970e+006
1.015247e+003, 1.561542e+006
1.015729e+003, 1.560107e+006
1.016211e+003, 1.558451e+006
1.016694e+003, 1.556510e+006
1.017176e+003, 1.554502e+006
1.017658e+003, 1.552696e+006
1.018140e+003, 1.550881e+006
1.018622e+003, 1.548797e+006
1.019104e+003, 1.546385e+006
1.019586e+003, 1.544211e+006
1.020068e+003, 1.542356e+006
1.020551e+003, 1.540570e+006
1.021033e+003, 1.538737e+006
1.021515e+003, 1.536876e+006
1.021997e+003, 1.535051e+006
1.022479e+003, 1.533244e+006
1.022961e+003, 1.531417e+006
1.023443e+003, 1.529130e+006
1.023925e+003, 1.527345e+006
1.024407e+003, 1.526690e+006
1.024890e+003, 1.526406e+006
1.025372e+003, 1.525545e+006
1.025854e+003, 1.524092e+006
1.026336e+003, 1.522633e+006
1.026818e+003, 1.521211e+006
1.027300e+003, 1.519736e+006
1.027782e+003, 1.517980e+006
1.028264e+003, 1.516216e+006
1.028746e+003, 1.514789e+006
1.029229e+003, 1.513732e+006
1.029711e+003, 1.512335e+006
1.030193e+003, 1.510396e+006
1.030675e+003, 1.508435e+006
1.031157e+003, 1.506511e+006
1.031639e+003, 1.504802e+006
1.032121e+003, 1.504077e+006
1.032603e+003, 1.503895e+006
1.033086e+003, 1.502852e+006
1.033568e+003, 1.500065e+006
1.034050e+003, 1.497305e+006
1.034532e+003, 1.495531e+006
1.035014e+003, 1.494079e+006
1.035496e+003, 1.492369e+006
1.035978e+003, 1.490390e+006
1.036460e+003, 1.488347e+006
1.036943e+003, 1.486259e+006
1.037425e+003, 1.484377e+006
1.037907e+003, 1.483044e+006
1.038389e+003, 1.481918e+006
1.038871e+003, 1.480609e+006
1.039353e+003, 1.479169e+006
1.039835e+003, 1.477907e+006
1.040317e+003, 1.476944e+006
1.040799e+003, 1.476024e+006
1.041281e+003, 1.475113e+006
1.041764e+003, 1.474170e+006
1.042246e+003, 1.473048e+006
1.042728e+003, 1.471834e+006
1.043210e+003, 1.471029e+006
1.043692e+003, 1.470824e+006
1.044174e+003, 1.470044e+006
1.044656e+003, 1.467356e+006
1.045138e+003, 1.464468e+006
1.045621e+003, 1.462543e+006
1.046103e+003, 1.461523e+006
1.046585e+003, 1.460432e+006
1.047067e+003, 1.459281e+006
1.047549e+003, 1.457949e+006
1.048031e+003, 1.456308e+006
1.048513e+003, 1.454589e+006
1.048995e+003, 1.453106e+006
1.049478e+003, 1.451754e+006
1.049960e+003, 1.450347e+006
1.050442e+003, 1.448811e+006
1.050924e+003, 1.447284e+006
1.051406e+003, 1.445794e+006
1.051888e+003, 1.444251e+006
1.052370e+003, 1.442442e+006
1.052852e+003, 1.440505e+006
1.053334e+003, 1.438987e+006
1.053817e+003, 1.437862e+006
1.054299e+003, 1.436614e+006
1.054781e+003, 1.434812e+006
1.055263e+003, 1.432978e+006
1.055745e+003, 1.431291e+006
1.056227e+003, 1.429742e+006
1.056709e+003, 1.428354e+006
1.057191e+003, 1.427131e+006
1.057673e+003, 1.425810e+006
1.058156e+003, 1.424275e+006
1.058638e+003, 1.422850e+006
1.059120e+003, 1.421963e+006
1.059602e+003, 1.421288e+006
1.060084e+003, 1.420487e+006
1.060566e+003, 1.419497e+006
1.061048e+003, 1.418424e+006
1.061530e+003, 1.417365e+006
1.062013e+003, 1.415989e+006
1.062495e+003, 1.413980e+006
1.062977e+003, 1.411680e+006
1.063459e+003, 1.409875e+006
1.063941e+003, 1.408459e+006
1.064423e+003, 1.407069e+006
1.064905e+003, 1.405684e+006
1.065387e+003, 1.404132e+006
1.065870e+003, 1.402105e+006
1.066352e+003, 1.400111e+006
1.066834e+003, 1.398648e+006
1.067316e+003, 1.397735e+006
1.067798e+003, 1.396758e+006
1.068280e+003, 1.395694e+006
1.068762e+003, 1.394494e+006
1.069244e+003, 1.393032e+006
1.069726e+003, 1.391475e+006
1.070208e+003, 1.389949e+006
1.070691e+003, 1.388455e+006
1.071173e+003, 1.387033e+006
1.071655e+003, 1.385662e+006
1.072137e+003, 1.384375e+006
1.072619e+003, 1.383155e+006
1.073101e+003, 1.382035e+006
1.073583e+003, 1.381185e+006
1.074065e+003, 1.380406e+006
1.074548e+003, 1.379353e+006
1.075030e+003, 1.377957e+006
1.075512e+003, 1.376441e+006
1.075994e+003, 1.374758e+006
1.076476e+003, 1.373121e+006
1.076958e+003, 1.371668e+006
1.077440e+003, 1.370326e+006
1.077922e+003, 1.368800e+006
1.078405e+003, 1.367134e+006
1.078887e+003, 1.365523e+006
1.079369e+003, 1.364014e+006
1.079851e+003, 1.362625e+006
1.080333e+003, 1.361497e+006
1.080815e+003, 1.360419e+006
1.081297e+003, 1.359174e+006
1.081779e+003, 1.357709e+006
1.082261e+003, 1.356396e+006
1.082744e+003, 1.355230e+006
1.083226e+003, 1.354118e+006
1.083708e+003, 1.352929e+006
1.084190e+003, 1.351787e+006
1.084672e+003, 1.350883e+006
1.085154e+003, 1.350137e+006
1.085636e+003, 1.349286e+006
1.086118e+003, 1.348251e+006
1.086601e+003, 1.347190e+006
1.087083e+003, 1.346128e+006
1.087565e+003, 1.345024e+006
1.088047e+003, 1.343736e+006
1.088529e+003, 1.342392e+006
1.089011e+003, 1.341309e+006
1.089493e+003, 1.340520e+006
1.089975e+003, 1.339535e+006
1.090458e+003, 1.337849e+006
1.090940e+003, 1.336289e+006
1.091422e+003, 1.335260e+006
1.091904e+003, 1.334519e+006
1.092386e+003, 1.333381e+006
1.092868e+003, 1.331879e+006
1.093350e+003, 1.330231e+006
1.093832e+003, 1.328394e+006
1.094314e+003, 1.326771e+006
1.094797e+003, 1.325923e+006
1.095279e+003, 1.325230e+006
1.095761e+003, 1.324068e+006
1.096243e+003, 1.322424e+006
1.096725e+003, 1.320950e+006
1.097207e+003, 1.319659e+006
1.097689e+003, 1.318529e+006
1.098171e+003, 1.317688e+006
1.098653e+003, 1.316871e+006
1.099136e+003, 1.315722e+006
1.099618e+003, 1.314362e+006
1.100100e+003, 1.312987e+006
1.100582e+003, 1.311527e+006
1.101064e+003, 1.310265e+006
1.101546e+003, 1.309231e+006
1.102028e+003, 1.308278e+006
1.102510e+003, 1.307170e+006
1.102993e+003, 1.306050e+006
1.103475e+003, 1.305439e+006
1.103957e+003, 1.305206e+006
1.104439e+003, 1.304494e+006
1.104921e+003, 1.302536e+006
1.105403e+003, 1.300583e+006
1.105885e+003, 1.298903e+006
1.106367e+003, 1.297485e+006
1.106849e+003, 1.296413e+006
1.107332e+003, 1.295634e+006
1.107814e+003, 1.294783e+006
1.108296e+003, 1.293789e+006
1.108778e+003, 1.292963e+006
1.109260e+003, 1.292906e+006
1.109742e+003, 1.292699e+006
1.110224e+003, 1.291553e+006
1.110706e+003, 1.289711e+006
1.111188e+003, 1.288445e+006
1.111671e+003, 1.287748e+006
1.112153e+003, 1.286944e+006
1.112635e+003, 1.285710e+006
1.113117e+003, 1.284493e+006
1.113599e+003, 1.283812e+006
1.114081e+003, 1.283338e+006
1.114563e+003, 1.282712e+006
1.115045e+003, 1.281881e+006
1.115528e+003, 1.280943e+006
1.116010e+003, 1.279881e+006
1.116492e+003, 1.278751e+006
1.116974e+003, 1.277556e+006
1.117456e+003, 1.276356e+006
1.117938e+003, 1.275309e+006
1.118420e+003, 1.274342e+006
1.118902e+003, 1.273281e+006
1.119385e+003, 1.271913e+006
1.119867e+003, 1.270770e+006
1.120349e+003, 1.270058e+006
1.120831e+003, 1.269260e+006
1.121313e+003, 1.267734e+006
1.121795e+003, 1.265799e+006
1.122277e+003, 1.264292e+006
1.122759e+003, 1.263215e+006
1.123241e+003, 1.262407e+006
1.123724e+003, 1.261967e+006
1.124206e+003, 1.261549e+006
1.124688e+003, 1.261016e+006
1.125170e+003, 1.260452e+006
1.125652e+003, 1.260079e+006
1.126134e+003, 1.259828e+006
1.126616e+003, 1.259223e+006
1.127098e+003, 1.258202e+006
1.127580e+003, 1.257044e+006
1.128063e+003, 1.255877e+006
1.128545e+003, 1.254698e+006
1.129027e+003, 1.253522e+006
1.129509e+003, 1.252368e+006
1.129991e+003, 1.251315e+006
1.130473e+003, 1.250376e+006
1.130955e+003, 1.249456e+006
1.131437e+003, 1.248507e+006
1.131920e+003, 1.247693e+006
1.132402e+003, 1.247213e+006
1.132884e+003, 1.246904e+006
1.133366e+003, 1.246670e+006
1.133848e+003, 1.246522e+006
1.134330e+003, 1.245926e+006
1.134812e+003, 1.244754e+006
1.135294e+003, 1.243804e+006
1.135776e+003, 1.243492e+006
1.136259e+003, 1.243442e+006
1.136741e+003, 1.243249e+006
1.137223e+003, 1.242924e+006
1.137705e+003, 1.242474e+006
1.138187e+003, 1.241763e+006
1.138669e+003, 1.241236e+006
1.139151e+003, 1.240974e+006
1.139633e+003, 1.240654e+006
1.140115e+003, 1.240036e+006
1.140598e+003, 1.239220e+006
1.141080e+003, 1.238405e+006
1.141562e+003, 1.237568e+006
1.142044e+003, 1.236630e+006
1.142526e+003, 1.235368e+006
1.143008e+003, 1.234351e+006
1.143490e+003, 1.233809e+006
1.143972e+003, 1.233288e+006
1.144455e+003, 1.232206e+006
1.144937e+003, 1.230800e+006
1.145419e+003, 1.229855e+006
1.145901e+003, 1.229359e+006
1.146383e+003, 1.228859e+006
1.146865e+003, 1.228080e+006
1.147347e+003, 1.227347e+006
1.147829e+003, 1.226812e+006
1.148312e+003, 1.226313e+006
1.148794e+003, 1.225461e+006
1.149276e+003, 1.224353e+006
1.149758e+003, 1.223740e+006
1.150240e+003, 1.223712e+006
1.150722e+003, 1.223746e+006
1.151204e+003, 1.223583e+006
1.151686e+003, 1.223286e+006
1.152168e+003, 1.222850e+006
1.152651e+003, 1.222319e+006
1.153133e+003, 1.221834e+006
1.153615e+003, 1.221389e+006
1.154097e+003, 1.220818e+006
1.154579e+003, 1.220063e+006
1.155061e+003, 1.219307e+006
1.155543e+003, 1.218645e+006
1.156025e+003, 1.218080e+006
1.156507e+003, 1.217654e+006
1.156990e+003, 1.217348e+006
1.157472e+003, 1.217082e+006
1.157954e+003, 1.216873e+006
1.158436e+003, 1.216484e+006
1.158918e+003, 1.215721e+006
1.159400e+003, 1.215035e+006
1.159882e+003, 1.215002e+006
1.160364e+003, 1.215231e+006
1.160847e+003, 1.215289e+006
1.161329e+003, 1.215132e+006
1.161811e+003, 1.214808e+006
1.162293e+003, 1.214308e+006
1.162775e+003, 1.213666e+006
1.163257e+003, 1.212710e+006
1.163739e+003, 1.211829e+006
1.164221e+003, 1.211704e+006
1.164703e+003, 1.211913e+006
1.165186e+003, 1.211729e+006
1.165668e+003, 1.210713e+006
1.166150e+003, 1.210013e+006
1.166632e+003, 1.209714e+006
1.167114e+003, 1.209403e+006
1.167596e+003, 1.208661e+006
1.168078e+003, 1.207792e+006
1.168560e+003, 1.207412e+006
1.169042e+003, 1.207323e+006
1.169525e+003, 1.207003e+006
1.170007e+003, 1.206221e+006
1.170489e+003, 1.205334e+006
1.170971e+003, 1.204268e+006
1.171453e+003, 1.203353e+006
1.171935e+003, 1.203104e+006
1.172417e+003, 1.203137e+006
1.172899e+003, 1.202535e+006
1.173382e+003, 1.201444e+006
1.173864e+003, 1.200738e+006
1.174346e+003, 1.201293e+006
1.174828e+003, 1.201369e+006
1.175310e+003, 1.200562e+006
1.175792e+003, 1.199500e+006
1.176274e+003, 1.198965e+006
1.176756e+003, 1.198797e+006
1.177239e+003, 1.198588e+006
1.177721e+003, 1.198307e+006
1.178203e+003, 1.198144e+006
1.178685e+003, 1.198285e+006
1.179167e+003, 1.198404e+006
1.179649e+003, 1.198489e+006
1.180131e+003, 1.198413e+006
1.180613e+003, 1.197781e+006
1.181095e+003, 1.196820e+006
1.181578e+003, 1.196259e+006
1.182060e+003, 1.196222e+006
1.182542e+003, 1.196166e+006
1.183024e+003, 1.195800e+006
1.183506e+003, 1.195442e+006
1.183988e+003, 1.195191e+006
1.184470e+003, 1.195054e+006
1.184952e+003, 1.195140e+006
1.185434e+003, 1.195362e+006
1.185917e+003, 1.195433e+006
1.186399e+003, 1.195312e+006
1.186881e+003, 1.194903e+006
1.187363e+003, 1.193524e+006
1.187845e+003, 1.192553e+006
1.188327e+003, 1.192752e+006
1.188809e+003, 1.193796e+006
1.189291e+003, 1.194664e+006
1.189774e+003, 1.195301e+006
1.190256e+003, 1.195454e+006
1.190738e+003, 1.194850e+006
1.191220e+003, 1.194273e+006
1.191702e+003, 1.194151e+006
1.192184e+003, 1.194126e+006
1.192666e+003, 1.193943e+006
1.193148e+003, 1.193651e+006
1.193630e+003, 1.193670e+006
1.194113e+003, 1.193936e+006
1.194595e+003, 1.194061e+006
1.195077e+003, 1.193838e+006
1.195559e+003, 1.193535e+006
1.196041e+003, 1.193410e+006
1.196523e+003, 1.193155e+006
1.197005e+003, 1.192443e+006
1.197487e+003, 1.191322e+006
1.197969e+003, 1.190626e+006
1.198452e+003, 1.190329e+006
1.198934e+003, 1.190174e+006
1.199416e+003, 1.190231e+006
1.199898e+003, 1.190156e+006
1.200380e+003, 1.189590e+006
1.200862e+003, 1.188955e+006
1.201344e+003, 1.188704e+006
1.201826e+003, 1.188831e+006
1.202309e+003, 1.188752e+006
1.202791e+003, 1.188492e+006
1.203273e+003, 1.188418e+006
1.203755e+003, 1.189118e+006
1.204237e+003, 1.189632e+006
1.204719e+003, 1.189223e+006
1.205201e+003, 1.188497e+006
1.205683e+003, 1.188166e+006
1.206166e+003, 1.188221e+006
1.206648e+003, 1.188191e+006
1.207130e+003, 1.188059e+006
1.207612e+003, 1.187969e+006
1.208094e+003, 1.187995e+006
1.208576e+003, 1.188095e+006
1.209058e+003, 1.188375e+006
1.209540e+003, 1.188647e+006
1.210022e+003, 1.188623e+006
1.210505e+003, 1.188313e+006
1.210987e+003, 1.188017e+006
1.211469e+003, 1.187759e+006
1.211951e+003, 1.187520e+006
1.212433e+003, 1.187188e+006
1.212915e+003, 1.186990e+006
1.213397e+003, 1.187188e+006
1.213879e+003, 1.187547e+006
1.214361e+003, 1.187693e+006
1.214844e+003, 1.187639e+006
1.215326e+003, 1.187438e+006
1.215808e+003, 1.187095e+006
1.216290e+003, 1.186836e+006
1.216772e+003, 1.186733e+006
1.217254e+003, 1.186845e+006
1.217736e+003, 1.187347e+006
1.218218e+003, 1.187997e+006
1.218701e+003, 1.188294e+006
1.219183e+003, 1.188260e+006
1.219665e+003, 1.188232e+006
1.220147e+003, 1.188247e+006
1.220629e+003, 1.188310e+006
1.221111e+003, 1.188385e+006
1.221593e+003, 1.188531e+006
1.222075e+003, 1.188835e+006
1.222557e+003, 1.189193e+006
1.223040e+003, 1.189363e+006
1.223522e+003, 1.189350e+006
1.224004e+003, 1.189106e+006
1.224486e+003, 1.188603e+006
1.224968e+003, 1.188192e+006
1.225450e+003, 1.188281e+006
1.225932e+003, 1.188324e+006
1.226414e+003, 1.187965e+006
1.226896e+003, 1.187420e+006
1.227379e+003, 1.187370e+006
1.227861e+003, 1.187741e+006
1.228343e+003, 1.188126e+006
1.228825e+003, 1.188457e+006
1.229307e+003, 1.188663e+006
1.229789e+003, 1.188618e+006
1.230271e+003, 1.188505e+006
1.230753e+003, 1.188365e+006
1.231236e+003, 1.188244e+006
1.231718e+003, 1.188375e+006
1.232200e+003, 1.188682e+006
1.232682e+003, 1.188859e+006
1.233164e+003, 1.188795e+006
1.233646e+003, 1.188753e+006
1.234128e+003, 1.188905e+006
1.234610e+003, 1.189072e+006
1.235093e+003, 1.189204e+006
1.235575e+003, 1.189284e+006
1.236057e+003, 1.189151e+006
1.236539e+003, 1.188916e+006
1.237021e+003, 1.188969e+006
1.237503e+003, 1.189513e+006
1.237985e+003, 1.190018e+006
1.238467e+003, 1.190247e+006
1.238949e+003, 1.190444e+006
1.239432e+003, 1.190736e+006
1.239914e+003, 1.191049e+006
1.240396e+003, 1.191039e+006
1.240878e+003, 1.190866e+006
1.241360e+003, 1.191024e+006
1.241842e+003, 1.191805e+006
1.242324e+003, 1.192406e+006
1.242806e+003, 1.192529e+006
1.243288e+003, 1.192643e+006
1.243771e+003, 1.193018e+006
1.244253e+003, 1.193516e+006
1.244735e+003, 1.193748e+006
1.245217e+003, 1.193831e+006
1.245699e+003, 1.194031e+006
1.246181e+003, 1.194414e+006
1.246663e+003, 1.194988e+006
1.247145e+003, 1.195853e+006
1.247628e+003, 1.196659e+006
1.248110e+003, 1.197145e+006
1.248592e+003, 1.197523e+006
1.249074e+003, 1.198463e+006
1.249556e+003, 1.199559e+006
1.250038e+003, 1.199976e+006
1.250520e+003, 1.199014e+006
1.251002e+003, 1.198614e+006
1.251484e+003, 1.198947e+006
1.251967e+003, 1.199539e+006
1.252449e+003, 1.200214e+006
1.252931e+003, 1.200865e+006
1.253413e+003, 1.201275e+006
1.253895e+003, 1.201562e+006
1.254377e+003, 1.201911e+006
1.254859e+003, 1.202306e+006
1.255341e+003, 1.202983e+006
1.255823e+003, 1.204036e+006
1.256306e+003, 1.204885e+006
1.256788e+003, 1.205113e+006
1.257270e+003, 1.205033e+006
1.257752e+003, 1.204813e+006
1.258234e+003, 1.204636e+006
1.258716e+003, 1.204843e+006
1.259198e+003, 1.205574e+006
1.259680e+003, 1.206336e+006
1.260163e+003, 1.207196e+006
1.260645e+003, 1.207640e+006
1.261127e+003, 1.207084e+006
1.261609e+003, 1.206392e+006
1.262091e+003, 1.206353e+006
1.262573e+003, 1.206664e+006
1.263055e+003, 1.206852e+006
1.263537e+003, 1.206836e+006
1.264020e+003, 1.207199e+006
1.264502e+003, 1.207931e+006
1.264984e+003, 1.208766e+006
1.265466e+003, 1.209483e+006
1.265948e+003, 1.210291e+006
1.266430e+003, 1.211616e+006
1.266912e+003, 1.212869e+006
1.267394e+003, 1.213328e+006
1.267876e+003, 1.212966e+006
1.268359e+003, 1.212906e+006
1.268841e+003, 1.213125e+006
1.269323e+003, 1.213431e+006
1.269805e+003, 1.213842e+006
1.270287e+003, 1.214167e+006
1.270769e+003, 1.214203e+006
1.271251e+003, 1.214238e+006
1.271733e+003, 1.214518e+006
1.272215e+003, 1.215029e+006
1.272698e+003, 1.215714e+006
1.273180e+003, 1.216485e+006
1.273662e+003, 1.216869e+006
1.274144e+003, 1.216213e+006
1.274626e+003, 1.215785e+006
1.275108e+003, 1.215772e+006
1.275590e+003, 1.216156e+006
1.276072e+003, 1.217169e+006
1.276555e+003, 1.218526e+006
1.277037e+003, 1.219135e+006
1.277519e+003, 1.219226e+006
1.278001e+003, 1.219490e+006
1.278483e+003, 1.220336e+006
1.278965e+003, 1.221085e+006
1.279447e+003, 1.221625e+006
1.279929e+003, 1.222167e+006
1.280411e+003, 1.222930e+006
1.280894e+003, 1.223747e+006
1.281376e+003, 1.224280e+006
1.281858e+003, 1.224641e+006
1.282340e+003, 1.225104e+006
1.282822e+003, 1.225769e+006
1.283304e+003, 1.226506e+006
1.283786e+003, 1.227350e+006
1.284268e+003, 1.228131e+006
1.284750e+003, 1.228680e+006
1.285233e+003, 1.229170e+006
1.285715e+003, 1.229740e+006
1.286197e+003, 1.230409e+006
1.286679e+003, 1.231240e+006
1.287161e+003, 1.232297e+006
1.287643e+003, 1.233168e+006
1.288125e+003, 1.233836e+006
1.288607e+003, 1.234466e+006
1.289090e+003, 1.235283e+006
1.289572e+003, 1.235924e+006
1.290054e+003, 1.235763e+006
1.290536e+003, 1.235500e+006
1.291018e+003, 1.236095e+006
1.291500e+003, 1.237595e+006
1.291982e+003, 1.238429e+006
1.292464e+003, 1.238642e+006
1.292947e+003, 1.238716e+006
1.293429e+003, 1.238966e+006
1.293911e+003, 1.239072e+006
1.294393e+003, 1.238723e+006
1.294875e+003, 1.238406e+006
1.295357e+003, 1.238515e+006
1.295839e+003, 1.238960e+006
1.296321e+003, 1.239421e+006
1.296803e+003, 1.239925e+006
1.297286e+003, 1.240444e+006
1.297768e+003, 1.240939e+006
1.298250e+003, 1.241536e+006
1.298732e+003, 1.242321e+006
1.299214e+003, 1.243134e+006
1.299696e+003, 1.243639e+006
1.300178e+003, 1.244105e+006
1.300660e+003, 1.245524e+006
##END=



