##NAMES=Moorhouseite
##RRUFFID=R130745
##IDEAL CHEMISTRY=Co^2+^S^6+^O_4_&#183;6H_2_O
##LOCALITY=Bou Azer, Tazenakht, Ouarzazate Province, Souss-Massa-Dra√¢ Region, Morocco
##OWNER=RRUFF
##SOURCE=Donald Doell
##DESCRIPTION=Light-pinkish fine grains, associated with pink or dark pink spherocobaltite.
##STATUS=The identification of this mineral has been confirmed by single-crystal X-ray diffraction.
##URL=rruff.info/R130745
8.806445e+001, 3.947227e+003
8.854657e+001, 3.825234e+003
8.902869e+001, 3.783030e+003
8.951080e+001, 3.859565e+003
8.999292e+001, 3.998207e+003
9.047504e+001, 4.147516e+003
9.095715e+001, 4.297429e+003
9.143927e+001, 4.445259e+003
9.192139e+001, 4.588265e+003
9.240350e+001, 4.726369e+003
9.288562e+001, 4.861657e+003
9.336774e+001, 4.962385e+003
9.384985e+001, 4.995836e+003
9.433197e+001, 4.961339e+003
9.481409e+001, 4.927272e+003
9.529620e+001, 4.878010e+003
9.577832e+001, 4.829897e+003
9.626044e+001, 4.785817e+003
9.674255e+001, 4.747550e+003
9.722467e+001, 4.716639e+003
9.770679e+001, 4.693268e+003
9.818890e+001, 4.672549e+003
9.867102e+001, 4.652564e+003
9.915314e+001, 4.633933e+003
9.963525e+001, 4.616915e+003
1.001174e+002, 4.601424e+003
1.005995e+002, 4.587063e+003
1.010816e+002, 4.572959e+003
1.015637e+002, 4.555671e+003
1.020458e+002, 4.541575e+003
1.025280e+002, 4.530994e+003
1.030101e+002, 4.522818e+003
1.034922e+002, 4.515378e+003
1.039743e+002, 4.507382e+003
1.044564e+002, 4.498640e+003
1.049385e+002, 4.493162e+003
1.054207e+002, 4.492183e+003
1.059028e+002, 4.491944e+003
1.063849e+002, 4.490743e+003
1.068670e+002, 4.488305e+003
1.073491e+002, 4.484703e+003
1.078312e+002, 4.479509e+003
1.083134e+002, 4.472733e+003
1.087955e+002, 4.466514e+003
1.092776e+002, 4.460669e+003
1.097597e+002, 4.455601e+003
1.102418e+002, 4.452075e+003
1.107239e+002, 4.450494e+003
1.112061e+002, 4.449724e+003
1.116882e+002, 4.448959e+003
1.121703e+002, 4.448155e+003
1.126524e+002, 4.447106e+003
1.131345e+002, 4.445268e+003
1.136166e+002, 4.442733e+003
1.140988e+002, 4.441242e+003
1.145809e+002, 4.442476e+003
1.150630e+002, 4.443548e+003
1.155451e+002, 4.442537e+003
1.160272e+002, 4.439442e+003
1.165093e+002, 4.435889e+003
1.169915e+002, 4.434123e+003
1.174736e+002, 4.435346e+003
1.179557e+002, 4.434971e+003
1.184378e+002, 4.430869e+003
1.189199e+002, 4.426345e+003
1.194020e+002, 4.423722e+003
1.198842e+002, 4.423732e+003
1.203663e+002, 4.425430e+003
1.208484e+002, 4.426720e+003
1.213305e+002, 4.426375e+003
1.218126e+002, 4.426919e+003
1.222947e+002, 4.429702e+003
1.227769e+002, 4.433070e+003
1.232590e+002, 4.434648e+003
1.237411e+002, 4.433032e+003
1.242232e+002, 4.429125e+003
1.247053e+002, 4.427194e+003
1.251874e+002, 4.428300e+003
1.256696e+002, 4.429739e+003
1.261517e+002, 4.430933e+003
1.266338e+002, 4.431797e+003
1.271159e+002, 4.431979e+003
1.275980e+002, 4.431197e+003
1.280801e+002, 4.429495e+003
1.285623e+002, 4.427396e+003
1.290444e+002, 4.424437e+003
1.295265e+002, 4.421443e+003
1.300086e+002, 4.418929e+003
1.304907e+002, 4.416764e+003
1.309728e+002, 4.415860e+003
1.314550e+002, 4.418479e+003
1.319371e+002, 4.422497e+003
1.324192e+002, 4.424883e+003
1.329013e+002, 4.423575e+003
1.333834e+002, 4.419912e+003
1.338655e+002, 4.417867e+003
1.343477e+002, 4.418084e+003
1.348298e+002, 4.419184e+003
1.353119e+002, 4.421393e+003
1.357940e+002, 4.423947e+003
1.362761e+002, 4.425428e+003
1.367582e+002, 4.424494e+003
1.372404e+002, 4.421076e+003
1.377225e+002, 4.418542e+003
1.382046e+002, 4.417011e+003
1.386867e+002, 4.416393e+003
1.391688e+002, 4.417524e+003
1.396509e+002, 4.419845e+003
1.401331e+002, 4.421779e+003
1.406152e+002, 4.421552e+003
1.410973e+002, 4.418204e+003
1.415794e+002, 4.416226e+003
1.420615e+002, 4.416500e+003
1.425436e+002, 4.417210e+003
1.430258e+002, 4.416849e+003
1.435079e+002, 4.415309e+003
1.439900e+002, 4.414085e+003
1.444721e+002, 4.415397e+003
1.449542e+002, 4.420867e+003
1.454363e+002, 4.424669e+003
1.459185e+002, 4.425781e+003
1.464006e+002, 4.425408e+003
1.468827e+002, 4.424492e+003
1.473648e+002, 4.423069e+003
1.478469e+002, 4.422081e+003
1.483290e+002, 4.423739e+003
1.488112e+002, 4.428232e+003
1.492933e+002, 4.432168e+003
1.497754e+002, 4.434095e+003
1.502575e+002, 4.434463e+003
1.507396e+002, 4.434658e+003
1.512217e+002, 4.435134e+003
1.517039e+002, 4.435472e+003
1.521860e+002, 4.435037e+003
1.526681e+002, 4.433704e+003
1.531502e+002, 4.432636e+003
1.536323e+002, 4.433330e+003
1.541144e+002, 4.435903e+003
1.545966e+002, 4.437138e+003
1.550787e+002, 4.434803e+003
1.555608e+002, 4.431561e+003
1.560429e+002, 4.429233e+003
1.565250e+002, 4.428201e+003
1.570071e+002, 4.427601e+003
1.574893e+002, 4.426002e+003
1.579714e+002, 4.422625e+003
1.584535e+002, 4.420396e+003
1.589356e+002, 4.419868e+003
1.594177e+002, 4.420443e+003
1.598998e+002, 4.422207e+003
1.603820e+002, 4.425148e+003
1.608641e+002, 4.428282e+003
1.613462e+002, 4.429171e+003
1.618283e+002, 4.425892e+003
1.623104e+002, 4.422829e+003
1.627925e+002, 4.419896e+003
1.632747e+002, 4.417552e+003
1.637568e+002, 4.416431e+003
1.642389e+002, 4.416890e+003
1.647210e+002, 4.418504e+003
1.652031e+002, 4.419484e+003
1.656852e+002, 4.420311e+003
1.661674e+002, 4.420033e+003
1.666495e+002, 4.417532e+003
1.671316e+002, 4.413904e+003
1.676137e+002, 4.411034e+003
1.680958e+002, 4.410041e+003
1.685779e+002, 4.410678e+003
1.690601e+002, 4.411245e+003
1.695422e+002, 4.411854e+003
1.700243e+002, 4.412308e+003
1.705064e+002, 4.412354e+003
1.709885e+002, 4.412106e+003
1.714706e+002, 4.411996e+003
1.719528e+002, 4.412205e+003
1.724349e+002, 4.412813e+003
1.729170e+002, 4.413883e+003
1.733991e+002, 4.416232e+003
1.738812e+002, 4.418368e+003
1.743633e+002, 4.418808e+003
1.748455e+002, 4.417500e+003
1.753276e+002, 4.416380e+003
1.758097e+002, 4.417355e+003
1.762918e+002, 4.419174e+003
1.767739e+002, 4.419525e+003
1.772560e+002, 4.416996e+003
1.777382e+002, 4.413468e+003
1.782203e+002, 4.411518e+003
1.787024e+002, 4.411370e+003
1.791845e+002, 4.412175e+003
1.796666e+002, 4.414287e+003
1.801487e+002, 4.416858e+003
1.806309e+002, 4.418805e+003
1.811130e+002, 4.419685e+003
1.815951e+002, 4.419647e+003
1.820772e+002, 4.418958e+003
1.825593e+002, 4.417020e+003
1.830414e+002, 4.415417e+003
1.835236e+002, 4.414694e+003
1.840057e+002, 4.414577e+003
1.844878e+002, 4.414688e+003
1.849699e+002, 4.414799e+003
1.854520e+002, 4.414938e+003
1.859341e+002, 4.415382e+003
1.864163e+002, 4.416949e+003
1.868984e+002, 4.417839e+003
1.873805e+002, 4.416694e+003
1.878626e+002, 4.414665e+003
1.883447e+002, 4.413839e+003
1.888268e+002, 4.415909e+003
1.893090e+002, 4.420740e+003
1.897911e+002, 4.423603e+003
1.902732e+002, 4.423440e+003
1.907553e+002, 4.422450e+003
1.912374e+002, 4.420285e+003
1.917195e+002, 4.417698e+003
1.922017e+002, 4.416190e+003
1.926838e+002, 4.417097e+003
1.931659e+002, 4.420596e+003
1.936480e+002, 4.422359e+003
1.941301e+002, 4.421667e+003
1.946122e+002, 4.420399e+003
1.950944e+002, 4.419134e+003
1.955765e+002, 4.417953e+003
1.960586e+002, 4.416797e+003
1.965407e+002, 4.415596e+003
1.970228e+002, 4.414336e+003
1.975049e+002, 4.413319e+003
1.979871e+002, 4.411964e+003
1.984692e+002, 4.411215e+003
1.989513e+002, 4.411967e+003
1.994334e+002, 4.414106e+003
1.999155e+002, 4.416471e+003
2.003976e+002, 4.418285e+003
2.008798e+002, 4.419461e+003
2.013619e+002, 4.420072e+003
2.018440e+002, 4.419617e+003
2.023261e+002, 4.418919e+003
2.028082e+002, 4.418938e+003
2.032903e+002, 4.419779e+003
2.037725e+002, 4.420267e+003
2.042546e+002, 4.419052e+003
2.047367e+002, 4.416745e+003
2.052188e+002, 4.415062e+003
2.057009e+002, 4.414699e+003
2.061830e+002, 4.414991e+003
2.066652e+002, 4.415057e+003
2.071473e+002, 4.414831e+003
2.076294e+002, 4.414673e+003
2.081115e+002, 4.414943e+003
2.085936e+002, 4.415437e+003
2.090757e+002, 4.415819e+003
2.095579e+002, 4.415685e+003
2.100400e+002, 4.415461e+003
2.105221e+002, 4.416244e+003
2.110042e+002, 4.418679e+003
2.114863e+002, 4.420584e+003
2.119685e+002, 4.419831e+003
2.124506e+002, 4.418064e+003
2.129327e+002, 4.417943e+003
2.134148e+002, 4.421694e+003
2.138969e+002, 4.427487e+003
2.143790e+002, 4.429157e+003
2.148612e+002, 4.423271e+003
2.153433e+002, 4.418905e+003
2.158254e+002, 4.420401e+003
2.163075e+002, 4.424894e+003
2.167896e+002, 4.428469e+003
2.172717e+002, 4.428875e+003
2.177539e+002, 4.426766e+003
2.182360e+002, 4.424951e+003
2.187181e+002, 4.422922e+003
2.192002e+002, 4.422025e+003
2.196823e+002, 4.423044e+003
2.201644e+002, 4.425203e+003
2.206466e+002, 4.427625e+003
2.211287e+002, 4.429894e+003
2.216108e+002, 4.431832e+003
2.220929e+002, 4.432336e+003
2.225750e+002, 4.429839e+003
2.230571e+002, 4.427502e+003
2.235393e+002, 4.426017e+003
2.240214e+002, 4.424994e+003
2.245035e+002, 4.423607e+003
2.249856e+002, 4.421266e+003
2.254677e+002, 4.418391e+003
2.259498e+002, 4.417723e+003
2.264320e+002, 4.422655e+003
2.269141e+002, 4.426153e+003
2.273962e+002, 4.426505e+003
2.278783e+002, 4.424769e+003
2.283604e+002, 4.422513e+003
2.288425e+002, 4.420562e+003
2.293247e+002, 4.418974e+003
2.298068e+002, 4.418104e+003
2.302889e+002, 4.418896e+003
2.307710e+002, 4.419268e+003
2.312531e+002, 4.418780e+003
2.317352e+002, 4.417570e+003
2.322174e+002, 4.415655e+003
2.326995e+002, 4.412862e+003
2.331816e+002, 4.409692e+003
2.336637e+002, 4.408548e+003
2.341458e+002, 4.411316e+003
2.346279e+002, 4.413498e+003
2.351101e+002, 4.413714e+003
2.355922e+002, 4.412558e+003
2.360743e+002, 4.411311e+003
2.365564e+002, 4.410716e+003
2.370385e+002, 4.410234e+003
2.375206e+002, 4.407889e+003
2.380028e+002, 4.401517e+003
2.384849e+002, 4.396965e+003
2.389670e+002, 4.397513e+003
2.394491e+002, 4.401380e+003
2.399312e+002, 4.404806e+003
2.404133e+002, 4.406517e+003
2.408955e+002, 4.406369e+003
2.413776e+002, 4.403578e+003
2.418597e+002, 4.396531e+003
2.423418e+002, 4.391228e+003
2.428239e+002, 4.391472e+003
2.433060e+002, 4.395557e+003
2.437882e+002, 4.398697e+003
2.442703e+002, 4.398906e+003
2.447524e+002, 4.397854e+003
2.452345e+002, 4.398791e+003
2.457166e+002, 4.402415e+003
2.461987e+002, 4.404436e+003
2.466809e+002, 4.401514e+003
2.471630e+002, 4.395066e+003
2.476451e+002, 4.389558e+003
2.481272e+002, 4.385734e+003
2.486093e+002, 4.384181e+003
2.490914e+002, 4.386490e+003
2.495736e+002, 4.392794e+003
2.500557e+002, 4.397374e+003
2.505378e+002, 4.395567e+003
2.510199e+002, 4.388986e+003
2.515020e+002, 4.384361e+003
2.519841e+002, 4.383650e+003
2.524663e+002, 4.384317e+003
2.529484e+002, 4.383778e+003
2.534305e+002, 4.382206e+003
2.539126e+002, 4.381167e+003
2.543947e+002, 4.382192e+003
2.548768e+002, 4.384726e+003
2.553590e+002, 4.385957e+003
2.558411e+002, 4.384632e+003
2.563232e+002, 4.383302e+003
2.568053e+002, 4.384157e+003
2.572874e+002, 4.386620e+003
2.577695e+002, 4.388600e+003
2.582516e+002, 4.388444e+003
2.587338e+002, 4.386584e+003
2.592159e+002, 4.385336e+003
2.596980e+002, 4.384901e+003
2.601801e+002, 4.384948e+003
2.606622e+002, 4.385811e+003
2.611443e+002, 4.386970e+003
2.616265e+002, 4.387225e+003
2.621086e+002, 4.385191e+003
2.625907e+002, 4.381596e+003
2.630728e+002, 4.379979e+003
2.635549e+002, 4.381522e+003
2.640370e+002, 4.383302e+003
2.645192e+002, 4.384256e+003
2.650013e+002, 4.384571e+003
2.654834e+002, 4.384567e+003
2.659655e+002, 4.384402e+003
2.664476e+002, 4.384054e+003
2.669297e+002, 4.383499e+003
2.674119e+002, 4.383080e+003
2.678940e+002, 4.381814e+003
2.683761e+002, 4.378331e+003
2.688582e+002, 4.374330e+003
2.693403e+002, 4.372187e+003
2.698224e+002, 4.373365e+003
2.703046e+002, 4.376356e+003
2.707867e+002, 4.376771e+003
2.712688e+002, 4.372623e+003
2.717509e+002, 4.369436e+003
2.722330e+002, 4.368250e+003
2.727151e+002, 4.368472e+003
2.731973e+002, 4.369905e+003
2.736794e+002, 4.372519e+003
2.741615e+002, 4.375333e+003
2.746436e+002, 4.375995e+003
2.751257e+002, 4.372490e+003
2.756078e+002, 4.370772e+003
2.760900e+002, 4.373577e+003
2.765721e+002, 4.376964e+003
2.770542e+002, 4.376956e+003
2.775363e+002, 4.372586e+003
2.780184e+002, 4.367006e+003
2.785005e+002, 4.366137e+003
2.789827e+002, 4.373948e+003
2.794648e+002, 4.377479e+003
2.799469e+002, 4.373948e+003
2.804290e+002, 4.368226e+003
2.809111e+002, 4.362483e+003
2.813932e+002, 4.357618e+003
2.818754e+002, 4.354527e+003
2.823575e+002, 4.355140e+003
2.828396e+002, 4.362206e+003
2.833217e+002, 4.364918e+003
2.838038e+002, 4.360021e+003
2.842859e+002, 4.354105e+003
2.847681e+002, 4.350475e+003
2.852502e+002, 4.349366e+003
2.857323e+002, 4.349290e+003
2.862144e+002, 4.348729e+003
2.866965e+002, 4.347520e+003
2.871786e+002, 4.346782e+003
2.876608e+002, 4.347471e+003
2.881429e+002, 4.347697e+003
2.886250e+002, 4.346583e+003
2.891071e+002, 4.344304e+003
2.895892e+002, 4.341448e+003
2.900714e+002, 4.338329e+003
2.905535e+002, 4.334939e+003
2.910356e+002, 4.332900e+003
2.915177e+002, 4.332912e+003
2.919998e+002, 4.333557e+003
2.924819e+002, 4.335456e+003
2.929641e+002, 4.337667e+003
2.934462e+002, 4.338333e+003
2.939283e+002, 4.336053e+003
2.944104e+002, 4.331515e+003
2.948925e+002, 4.329364e+003
2.953746e+002, 4.332666e+003
2.958568e+002, 4.335039e+003
2.963389e+002, 4.335437e+003
2.968210e+002, 4.334409e+003
2.973031e+002, 4.332567e+003
2.977852e+002, 4.330175e+003
2.982673e+002, 4.327546e+003
2.987495e+002, 4.325667e+003
2.992316e+002, 4.325420e+003
2.997137e+002, 4.324785e+003
3.001958e+002, 4.323114e+003
3.006779e+002, 4.321254e+003
3.011600e+002, 4.320121e+003
3.016422e+002, 4.319991e+003
3.021243e+002, 4.320386e+003
3.026064e+002, 4.320455e+003
3.030885e+002, 4.319975e+003
3.035706e+002, 4.319524e+003
3.040527e+002, 4.318890e+003
3.045349e+002, 4.318423e+003
3.050170e+002, 4.318657e+003
3.054991e+002, 4.319552e+003
3.059812e+002, 4.320351e+003
3.064633e+002, 4.320086e+003
3.069454e+002, 4.318422e+003
3.074276e+002, 4.316848e+003
3.079097e+002, 4.315304e+003
3.083918e+002, 4.313931e+003
3.088739e+002, 4.312940e+003
3.093560e+002, 4.312258e+003
3.098381e+002, 4.311560e+003
3.103203e+002, 4.310506e+003
3.108024e+002, 4.309061e+003
3.112845e+002, 4.308183e+003
3.117666e+002, 4.308383e+003
3.122487e+002, 4.308560e+003
3.127308e+002, 4.308901e+003
3.132130e+002, 4.308915e+003
3.136951e+002, 4.307385e+003
3.141772e+002, 4.303313e+003
3.146593e+002, 4.297310e+003
3.151414e+002, 4.293841e+003
3.156235e+002, 4.294680e+003
3.161057e+002, 4.295951e+003
3.165878e+002, 4.297352e+003
3.170699e+002, 4.298711e+003
3.175520e+002, 4.299974e+003
3.180341e+002, 4.301112e+003
3.185162e+002, 4.301931e+003
3.189984e+002, 4.301911e+003
3.194805e+002, 4.300103e+003
3.199626e+002, 4.298656e+003
3.204447e+002, 4.297864e+003
3.209268e+002, 4.297316e+003
3.214089e+002, 4.296611e+003
3.218911e+002, 4.295662e+003
3.223732e+002, 4.294737e+003
3.228553e+002, 4.294312e+003
3.233374e+002, 4.295056e+003
3.238195e+002, 4.294611e+003
3.243016e+002, 4.291599e+003
3.247838e+002, 4.288656e+003
3.252659e+002, 4.287383e+003
3.257480e+002, 4.287875e+003
3.262301e+002, 4.289490e+003
3.267122e+002, 4.291912e+003
3.271943e+002, 4.295534e+003
3.276765e+002, 4.296306e+003
3.281586e+002, 4.291254e+003
3.286407e+002, 4.286650e+003
3.291228e+002, 4.285231e+003
3.296049e+002, 4.286117e+003
3.300870e+002, 4.287023e+003
3.305692e+002, 4.286449e+003
3.310513e+002, 4.284502e+003
3.315334e+002, 4.282097e+003
3.320155e+002, 4.276925e+003
3.324976e+002, 4.273939e+003
3.329797e+002, 4.275967e+003
3.334619e+002, 4.279963e+003
3.339440e+002, 4.282045e+003
3.344261e+002, 4.280482e+003
3.349082e+002, 4.276467e+003
3.353904e+002, 4.272701e+003
3.358725e+002, 4.269014e+003
3.363546e+002, 4.266053e+003
3.368367e+002, 4.263988e+003
3.373188e+002, 4.262530e+003
3.378009e+002, 4.261818e+003
3.382831e+002, 4.261719e+003
3.387652e+002, 4.261446e+003
3.392473e+002, 4.259816e+003
3.397294e+002, 4.256104e+003
3.402115e+002, 4.253274e+003
3.406936e+002, 4.250906e+003
3.411758e+002, 4.249604e+003
3.416579e+002, 4.250396e+003
3.421400e+002, 4.252685e+003
3.426221e+002, 4.254583e+003
3.431042e+002, 4.254224e+003
3.435863e+002, 4.251598e+003
3.440685e+002, 4.250965e+003
3.445506e+002, 4.255184e+003
3.450327e+002, 4.258548e+003
3.455148e+002, 4.259777e+003
3.459969e+002, 4.259306e+003
3.464790e+002, 4.257845e+003
3.469612e+002, 4.255716e+003
3.474433e+002, 4.253110e+003
3.479254e+002, 4.250498e+003
3.484075e+002, 4.247307e+003
3.488896e+002, 4.245167e+003
3.493717e+002, 4.244823e+003
3.498539e+002, 4.245202e+003
3.503360e+002, 4.245693e+003
3.508181e+002, 4.246028e+003
3.513002e+002, 4.245697e+003
3.517823e+002, 4.243481e+003
3.522644e+002, 4.238225e+003
3.527466e+002, 4.234948e+003
3.532287e+002, 4.235647e+003
3.537108e+002, 4.236951e+003
3.541929e+002, 4.237614e+003
3.546750e+002, 4.237351e+003
3.551571e+002, 4.236058e+003
3.556393e+002, 4.233242e+003
3.561214e+002, 4.228916e+003
3.566035e+002, 4.225794e+003
3.570856e+002, 4.224636e+003
3.575677e+002, 4.223931e+003
3.580498e+002, 4.223243e+003
3.585320e+002, 4.222595e+003
3.590141e+002, 4.222146e+003
3.594962e+002, 4.222107e+003
3.599783e+002, 4.222128e+003
3.604604e+002, 4.221149e+003
3.609425e+002, 4.218604e+003
3.614247e+002, 4.216329e+003
3.619068e+002, 4.214192e+003
3.623889e+002, 4.212860e+003
3.628710e+002, 4.213508e+003
3.633531e+002, 4.216523e+003
3.638352e+002, 4.219730e+003
3.643174e+002, 4.220148e+003
3.647995e+002, 4.217414e+003
3.652816e+002, 4.215507e+003
3.657637e+002, 4.215840e+003
3.662458e+002, 4.216563e+003
3.667279e+002, 4.216603e+003
3.672101e+002, 4.215939e+003
3.676922e+002, 4.214916e+003
3.681743e+002, 4.213894e+003
3.686564e+002, 4.212747e+003
3.691385e+002, 4.210794e+003
3.696206e+002, 4.207634e+003
3.701028e+002, 4.204380e+003
3.705849e+002, 4.201353e+003
3.710670e+002, 4.198737e+003
3.715491e+002, 4.196998e+003
3.720312e+002, 4.196490e+003
3.725133e+002, 4.196718e+003
3.729955e+002, 4.197382e+003
3.734776e+002, 4.198635e+003
3.739597e+002, 4.198748e+003
3.744418e+002, 4.196354e+003
3.749239e+002, 4.192721e+003
3.754060e+002, 4.189280e+003
3.758882e+002, 4.186007e+003
3.763703e+002, 4.183489e+003
3.768524e+002, 4.182418e+003
3.773345e+002, 4.182510e+003
3.778166e+002, 4.182513e+003
3.782987e+002, 4.181952e+003
3.787809e+002, 4.181604e+003
3.792630e+002, 4.183110e+003
3.797451e+002, 4.186163e+003
3.802272e+002, 4.187408e+003
3.807093e+002, 4.184090e+003
3.811914e+002, 4.179130e+003
3.816736e+002, 4.176567e+003
3.821557e+002, 4.176792e+003
3.826378e+002, 4.177537e+003
3.831199e+002, 4.177564e+003
3.836020e+002, 4.176744e+003
3.840841e+002, 4.174968e+003
3.845663e+002, 4.170656e+003
3.850484e+002, 4.166969e+003
3.855305e+002, 4.166527e+003
3.860126e+002, 4.168337e+003
3.864947e+002, 4.169140e+003
3.869768e+002, 4.167396e+003
3.874590e+002, 4.164327e+003
3.879411e+002, 4.162544e+003
3.884232e+002, 4.162343e+003
3.889053e+002, 4.162194e+003
3.893874e+002, 4.161259e+003
3.898695e+002, 4.160470e+003
3.903517e+002, 4.161569e+003
3.908338e+002, 4.164747e+003
3.913159e+002, 4.167351e+003
3.917980e+002, 4.166419e+003
3.922801e+002, 4.161357e+003
3.927622e+002, 4.157751e+003
3.932444e+002, 4.156488e+003
3.937265e+002, 4.155704e+003
3.942086e+002, 4.154615e+003
3.946907e+002, 4.153238e+003
3.951728e+002, 4.151753e+003
3.956549e+002, 4.150253e+003
3.961371e+002, 4.148792e+003
3.966192e+002, 4.147627e+003
3.971013e+002, 4.147391e+003
3.975834e+002, 4.146670e+003
3.980655e+002, 4.144329e+003
3.985476e+002, 4.141978e+003
3.990298e+002, 4.141739e+003
3.995119e+002, 4.143968e+003
3.999940e+002, 4.146628e+003
4.004761e+002, 4.146794e+003
4.009582e+002, 4.143315e+003
4.014403e+002, 4.141384e+003
4.019225e+002, 4.141771e+003
4.024046e+002, 4.142753e+003
4.028867e+002, 4.143822e+003
4.033688e+002, 4.144831e+003
4.038509e+002, 4.145757e+003
4.043330e+002, 4.146634e+003
4.048152e+002, 4.147357e+003
4.052973e+002, 4.147328e+003
4.057794e+002, 4.145946e+003
4.062615e+002, 4.144656e+003
4.067436e+002, 4.143749e+003
4.072257e+002, 4.143035e+003
4.077079e+002, 4.142266e+003
4.081900e+002, 4.141371e+003
4.086721e+002, 4.140602e+003
4.091542e+002, 4.140585e+003
4.096363e+002, 4.141653e+003
4.101184e+002, 4.141558e+003
4.106006e+002, 4.138633e+003
4.110827e+002, 4.135783e+003
4.115648e+002, 4.134709e+003
4.120469e+002, 4.135072e+003
4.125290e+002, 4.135447e+003
4.130111e+002, 4.134866e+003
4.134933e+002, 4.133625e+003
4.139754e+002, 4.132510e+003
4.144575e+002, 4.131283e+003
4.149396e+002, 4.130880e+003
4.154217e+002, 4.132446e+003
4.159038e+002, 4.134848e+003
4.163860e+002, 4.136682e+003
4.168681e+002, 4.137379e+003
4.173502e+002, 4.138291e+003
4.178323e+002, 4.141317e+003
4.183144e+002, 4.146095e+003
4.187965e+002, 4.149461e+003
4.192787e+002, 4.150571e+003
4.197608e+002, 4.150022e+003
4.202429e+002, 4.147680e+003
4.207250e+002, 4.143747e+003
4.212071e+002, 4.141316e+003
4.216892e+002, 4.142942e+003
4.221714e+002, 4.145943e+003
4.226535e+002, 4.146673e+003
4.231356e+002, 4.144856e+003
4.236177e+002, 4.142207e+003
4.240998e+002, 4.139618e+003
4.245819e+002, 4.137134e+003
4.250641e+002, 4.134871e+003
4.255462e+002, 4.132097e+003
4.260283e+002, 4.130456e+003
4.265104e+002, 4.132493e+003
4.269925e+002, 4.135940e+003
4.274746e+002, 4.135835e+003
4.279568e+002, 4.130274e+003
4.284389e+002, 4.122672e+003
4.289210e+002, 4.118206e+003
4.294031e+002, 4.118600e+003
4.298852e+002, 4.117441e+003
4.303673e+002, 4.112386e+003
4.308495e+002, 4.107631e+003
4.313316e+002, 4.106791e+003
4.318137e+002, 4.109232e+003
4.322958e+002, 4.111437e+003
4.327779e+002, 4.110797e+003
4.332600e+002, 4.107714e+003
4.337422e+002, 4.105523e+003
4.342243e+002, 4.105281e+003
4.347064e+002, 4.104657e+003
4.351885e+002, 4.103092e+003
4.356706e+002, 4.101109e+003
4.361527e+002, 4.098889e+003
4.366349e+002, 4.096620e+003
4.371170e+002, 4.095160e+003
4.375991e+002, 4.096063e+003
4.380812e+002, 4.100268e+003
4.385633e+002, 4.103328e+003
4.390454e+002, 4.104997e+003
4.395276e+002, 4.105691e+003
4.400097e+002, 4.105462e+003
4.404918e+002, 4.104369e+003
4.409739e+002, 4.102350e+003
4.414560e+002, 4.099098e+003
4.419381e+002, 4.095261e+003
4.424203e+002, 4.092797e+003
4.429024e+002, 4.092260e+003
4.433845e+002, 4.091714e+003
4.438666e+002, 4.090948e+003
4.443487e+002, 4.089741e+003
4.448308e+002, 4.087489e+003
4.453130e+002, 4.084114e+003
4.457951e+002, 4.081215e+003
4.462772e+002, 4.080748e+003
4.467593e+002, 4.082122e+003
4.472414e+002, 4.081952e+003
4.477235e+002, 4.079005e+003
4.482057e+002, 4.076298e+003
4.486878e+002, 4.076811e+003
4.491699e+002, 4.079333e+003
4.496520e+002, 4.081080e+003
4.501341e+002, 4.080716e+003
4.506162e+002, 4.079876e+003
4.510984e+002, 4.080298e+003
4.515805e+002, 4.081724e+003
4.520626e+002, 4.082414e+003
4.525447e+002, 4.081306e+003
4.530268e+002, 4.079592e+003
4.535089e+002, 4.079956e+003
4.539911e+002, 4.083023e+003
4.544732e+002, 4.084760e+003
4.549553e+002, 4.082896e+003
4.554374e+002, 4.080040e+003
4.559195e+002, 4.079045e+003
4.564016e+002, 4.080108e+003
4.568838e+002, 4.081700e+003
4.573659e+002, 4.082806e+003
4.578480e+002, 4.083373e+003
4.583301e+002, 4.082444e+003
4.588122e+002, 4.078736e+003
4.592943e+002, 4.075298e+003
4.597765e+002, 4.072856e+003
4.602586e+002, 4.071118e+003
4.607407e+002, 4.069815e+003
4.612228e+002, 4.068825e+003
4.617049e+002, 4.067838e+003
4.621870e+002, 4.066367e+003
4.626692e+002, 4.064293e+003
4.631513e+002, 4.062188e+003
4.636334e+002, 4.059799e+003
4.641155e+002, 4.057691e+003
4.645976e+002, 4.056577e+003
4.650797e+002, 4.055950e+003
4.655619e+002, 4.054430e+003
4.660440e+002, 4.050894e+003
4.665261e+002, 4.046608e+003
4.670082e+002, 4.045490e+003
4.674903e+002, 4.048978e+003
4.679724e+002, 4.051712e+003
4.684546e+002, 4.051935e+003
4.689367e+002, 4.051186e+003
4.694188e+002, 4.050511e+003
4.699009e+002, 4.049992e+003
4.703830e+002, 4.049054e+003
4.708651e+002, 4.046623e+003
4.713473e+002, 4.043315e+003
4.718294e+002, 4.041724e+003
4.723115e+002, 4.042552e+003
4.727936e+002, 4.043254e+003
4.732757e+002, 4.041490e+003
4.737578e+002, 4.038555e+003
4.742400e+002, 4.036975e+003
4.747221e+002, 4.037728e+003
4.752042e+002, 4.038875e+003
4.756863e+002, 4.039086e+003
4.761684e+002, 4.038646e+003
4.766505e+002, 4.038502e+003
4.771327e+002, 4.039043e+003
4.776148e+002, 4.039511e+003
4.780969e+002, 4.038964e+003
4.785790e+002, 4.037323e+003
4.790611e+002, 4.035146e+003
4.795432e+002, 4.031665e+003
4.800254e+002, 4.028413e+003
4.805075e+002, 4.026094e+003
4.809896e+002, 4.024835e+003
4.814717e+002, 4.025055e+003
4.819538e+002, 4.027158e+003
4.824359e+002, 4.030177e+003
4.829181e+002, 4.031310e+003
4.834002e+002, 4.028948e+003
4.838823e+002, 4.026949e+003
4.843644e+002, 4.025331e+003
4.848465e+002, 4.024072e+003
4.853286e+002, 4.023239e+003
4.858108e+002, 4.022764e+003
4.862929e+002, 4.022385e+003
4.867750e+002, 4.021772e+003
4.872571e+002, 4.021032e+003
4.877392e+002, 4.021323e+003
4.882213e+002, 4.023575e+003
4.887035e+002, 4.025273e+003
4.891856e+002, 4.025766e+003
4.896677e+002, 4.025414e+003
4.901498e+002, 4.024448e+003
4.906319e+002, 4.022921e+003
4.911140e+002, 4.021187e+003
4.915962e+002, 4.019379e+003
4.920783e+002, 4.017574e+003
4.925604e+002, 4.016651e+003
4.930425e+002, 4.017284e+003
4.935246e+002, 4.017667e+003
4.940067e+002, 4.016370e+003
4.944889e+002, 4.013852e+003
4.949710e+002, 4.010925e+003
4.954531e+002, 4.007238e+003
4.959352e+002, 4.003843e+003
4.964173e+002, 4.002138e+003
4.968994e+002, 4.001555e+003
4.973816e+002, 3.999717e+003
4.978637e+002, 3.995577e+003
4.983458e+002, 3.990818e+003
4.988279e+002, 3.988100e+003
4.993100e+002, 3.988090e+003
4.997921e+002, 3.986730e+003
5.002743e+002, 3.982389e+003
5.007564e+002, 3.977839e+003
5.012385e+002, 3.975278e+003
5.017206e+002, 3.974143e+003
5.022027e+002, 3.972373e+003
5.026848e+002, 3.968708e+003
5.031670e+002, 3.964035e+003
5.036491e+002, 3.961104e+003
5.041312e+002, 3.961674e+003
5.046133e+002, 3.961123e+003
5.050954e+002, 3.958630e+003
5.055775e+002, 3.955634e+003
5.060597e+002, 3.952939e+003
5.065418e+002, 3.950661e+003
5.070239e+002, 3.948674e+003
5.075060e+002, 3.946894e+003
5.079881e+002, 3.945313e+003
5.084702e+002, 3.944030e+003
5.089524e+002, 3.943518e+003
5.094345e+002, 3.942230e+003
5.099166e+002, 3.938777e+003
5.103987e+002, 3.934859e+003
5.108808e+002, 3.932321e+003
5.113629e+002, 3.931465e+003
5.118451e+002, 3.930198e+003
5.123271e+002, 3.926182e+003
5.128093e+002, 3.920598e+003
5.132914e+002, 3.917165e+003
5.137735e+002, 3.916607e+003
5.142556e+002, 3.916149e+003
5.147377e+002, 3.913584e+003
5.152198e+002, 3.909628e+003
5.157020e+002, 3.906862e+003
5.161841e+002, 3.905966e+003
5.166662e+002, 3.905356e+003
5.171483e+002, 3.904450e+003
5.176304e+002, 3.903327e+003
5.181125e+002, 3.902208e+003
5.185947e+002, 3.901128e+003
5.190768e+002, 3.899667e+003
5.195589e+002, 3.897252e+003
5.200410e+002, 3.893690e+003
5.205231e+002, 3.890903e+003
5.210052e+002, 3.889372e+003
5.214874e+002, 3.887942e+003
5.219695e+002, 3.885654e+003
5.224516e+002, 3.883436e+003
5.229337e+002, 3.883188e+003
5.234158e+002, 3.885493e+003
5.238979e+002, 3.888104e+003
5.243801e+002, 3.887272e+003
5.248622e+002, 3.882122e+003
5.253443e+002, 3.878247e+003
5.258264e+002, 3.876714e+003
5.263085e+002, 3.875539e+003
5.267906e+002, 3.873946e+003
5.272728e+002, 3.872073e+003
5.277549e+002, 3.870203e+003
5.282370e+002, 3.868402e+003
5.287191e+002, 3.866731e+003
5.292012e+002, 3.865276e+003
5.296833e+002, 3.864018e+003
5.301655e+002, 3.862811e+003
5.306476e+002, 3.861475e+003
5.311297e+002, 3.860382e+003
5.316118e+002, 3.860231e+003
5.320939e+002, 3.860859e+003
5.325760e+002, 3.861025e+003
5.330582e+002, 3.860629e+003
5.335403e+002, 3.859569e+003
5.340224e+002, 3.857626e+003
5.345045e+002, 3.854955e+003
5.349866e+002, 3.851624e+003
5.354688e+002, 3.847511e+003
5.359509e+002, 3.843866e+003
5.364330e+002, 3.843267e+003
5.369151e+002, 3.848068e+003
5.373972e+002, 3.850339e+003
5.378793e+002, 3.848620e+003
5.383615e+002, 3.845989e+003
5.388436e+002, 3.843976e+003
5.393257e+002, 3.842450e+003
5.398078e+002, 3.840633e+003
5.402899e+002, 3.838042e+003
5.407720e+002, 3.835109e+003
5.412542e+002, 3.832751e+003
5.417363e+002, 3.830915e+003
5.422184e+002, 3.829783e+003
5.427005e+002, 3.830273e+003
5.431826e+002, 3.830675e+003
5.436647e+002, 3.829885e+003
5.441469e+002, 3.828078e+003
5.446290e+002, 3.826163e+003
5.451111e+002, 3.824795e+003
5.455932e+002, 3.823425e+003
5.460753e+002, 3.820470e+003
5.465574e+002, 3.816060e+003
5.470396e+002, 3.814068e+003
5.475217e+002, 3.817051e+003
5.480038e+002, 3.821663e+003
5.484859e+002, 3.822249e+003
5.489680e+002, 3.818527e+003
5.494501e+002, 3.815414e+003
5.499323e+002, 3.814970e+003
5.504144e+002, 3.814538e+003
5.508965e+002, 3.811712e+003
5.513786e+002, 3.806971e+003
5.518607e+002, 3.802155e+003
5.523428e+002, 3.798183e+003
5.528250e+002, 3.795144e+003
5.533071e+002, 3.793375e+003
5.537892e+002, 3.794301e+003
5.542713e+002, 3.793906e+003
5.547534e+002, 3.790994e+003
5.552355e+002, 3.788041e+003
5.557177e+002, 3.786726e+003
5.561998e+002, 3.786603e+003
5.566819e+002, 3.786150e+003
5.571640e+002, 3.784412e+003
5.576461e+002, 3.781936e+003
5.581282e+002, 3.779769e+003
5.586104e+002, 3.777847e+003
5.590925e+002, 3.776667e+003
5.595746e+002, 3.776943e+003
5.600567e+002, 3.777411e+003
5.605388e+002, 3.776867e+003
5.610209e+002, 3.775435e+003
5.615031e+002, 3.774050e+003
5.619852e+002, 3.772789e+003
5.624673e+002, 3.771927e+003
5.629494e+002, 3.772342e+003
5.634315e+002, 3.773606e+003
5.639136e+002, 3.773521e+003
5.643958e+002, 3.770933e+003
5.648779e+002, 3.767316e+003
5.653600e+002, 3.765200e+003
5.658421e+002, 3.765238e+003
5.663242e+002, 3.765017e+003
5.668063e+002, 3.764645e+003
5.672885e+002, 3.763903e+003
5.677706e+002, 3.762563e+003
5.682527e+002, 3.760762e+003
5.687348e+002, 3.758611e+003
5.692169e+002, 3.756128e+003
5.696990e+002, 3.753885e+003
5.701812e+002, 3.753158e+003
5.706633e+002, 3.754383e+003
5.711454e+002, 3.755408e+003
5.716275e+002, 3.756459e+003
5.721096e+002, 3.756856e+003
5.725917e+002, 3.755707e+003
5.730739e+002, 3.753702e+003
5.735560e+002, 3.752457e+003
5.740381e+002, 3.752828e+003
5.745202e+002, 3.753770e+003
5.750023e+002, 3.754534e+003
5.754844e+002, 3.754976e+003
5.759666e+002, 3.754040e+003
5.764487e+002, 3.751143e+003
5.769308e+002, 3.747862e+003
5.774129e+002, 3.745916e+003
5.778950e+002, 3.745341e+003
5.783771e+002, 3.744292e+003
5.788593e+002, 3.742192e+003
5.793414e+002, 3.740167e+003
5.798235e+002, 3.738111e+003
5.803056e+002, 3.736632e+003
5.807877e+002, 3.737345e+003
5.812698e+002, 3.740526e+003
5.817520e+002, 3.743557e+003
5.822341e+002, 3.742802e+003
5.827162e+002, 3.737662e+003
5.831984e+002, 3.734419e+003
5.836805e+002, 3.734837e+003
5.841626e+002, 3.735014e+003
5.846447e+002, 3.733645e+003
5.851268e+002, 3.731538e+003
5.856089e+002, 3.729704e+003
5.860911e+002, 3.728422e+003
5.865732e+002, 3.727253e+003
5.870553e+002, 3.725551e+003
5.875374e+002, 3.723605e+003
5.880195e+002, 3.722886e+003
5.885016e+002, 3.723880e+003
5.889838e+002, 3.724226e+003
5.894659e+002, 3.722090e+003
5.899480e+002, 3.718289e+003
5.904301e+002, 3.715323e+003
5.909122e+002, 3.713062e+003
5.913943e+002, 3.711877e+003
5.918765e+002, 3.713258e+003
5.923586e+002, 3.714958e+003
5.928407e+002, 3.713876e+003
5.933228e+002, 3.710222e+003
5.938049e+002, 3.707208e+003
5.942870e+002, 3.707308e+003
5.947692e+002, 3.709814e+003
5.952513e+002, 3.711437e+003
5.957334e+002, 3.711932e+003
5.962155e+002, 3.711913e+003
5.966976e+002, 3.711092e+003
5.971797e+002, 3.710125e+003
5.976619e+002, 3.709273e+003
5.981440e+002, 3.708646e+003
5.986261e+002, 3.708409e+003
5.991082e+002, 3.708571e+003
5.995903e+002, 3.709247e+003
6.000724e+002, 3.711217e+003
6.005546e+002, 3.714474e+003
6.010367e+002, 3.716149e+003
6.015188e+002, 3.714850e+003
6.020009e+002, 3.712279e+003
6.024830e+002, 3.710183e+003
6.029651e+002, 3.708496e+003
6.034473e+002, 3.707928e+003
6.039294e+002, 3.709908e+003
6.044115e+002, 3.711740e+003
6.048936e+002, 3.711532e+003
6.053757e+002, 3.709987e+003
6.058578e+002, 3.708786e+003
6.063400e+002, 3.708537e+003
6.068221e+002, 3.708153e+003
6.073042e+002, 3.705936e+003
6.077863e+002, 3.701521e+003
6.082684e+002, 3.697892e+003
6.087505e+002, 3.696245e+003
6.092327e+002, 3.694076e+003
6.097148e+002, 3.690233e+003
6.101969e+002, 3.685716e+003
6.106790e+002, 3.681608e+003
6.111611e+002, 3.678201e+003
6.116432e+002, 3.675642e+003
6.121254e+002, 3.674176e+003
6.126075e+002, 3.673635e+003
6.130896e+002, 3.673774e+003
6.135717e+002, 3.674705e+003
6.140538e+002, 3.675073e+003
6.145359e+002, 3.673749e+003
6.150181e+002, 3.671396e+003
6.155002e+002, 3.670074e+003
6.159823e+002, 3.670265e+003
6.164644e+002, 3.670166e+003
6.169465e+002, 3.669458e+003
6.174286e+002, 3.668251e+003
6.179108e+002, 3.666218e+003
6.183929e+002, 3.663705e+003
6.188750e+002, 3.661877e+003
6.193571e+002, 3.661552e+003
6.198392e+002, 3.661987e+003
6.203214e+002, 3.661133e+003
6.208035e+002, 3.658560e+003
6.212856e+002, 3.656071e+003
6.217677e+002, 3.653359e+003
6.222498e+002, 3.651324e+003
6.227319e+002, 3.650913e+003
6.232141e+002, 3.651561e+003
6.236962e+002, 3.651923e+003
6.241783e+002, 3.651942e+003
6.246604e+002, 3.650749e+003
6.251425e+002, 3.646510e+003
6.256246e+002, 3.640262e+003
6.261068e+002, 3.635538e+003
6.265889e+002, 3.633138e+003
6.270710e+002, 3.632001e+003
6.275531e+002, 3.631578e+003
6.280352e+002, 3.631769e+003
6.285173e+002, 3.629988e+003
6.289995e+002, 3.622783e+003
6.294816e+002, 3.618289e+003
6.299637e+002, 3.620452e+003
6.304458e+002, 3.624634e+003
6.309279e+002, 3.626640e+003
6.314100e+002, 3.625764e+003
6.318922e+002, 3.623232e+003
6.323743e+002, 3.619606e+003
6.328564e+002, 3.615408e+003
6.333385e+002, 3.612747e+003
6.338206e+002, 3.611940e+003
6.343027e+002, 3.611301e+003
6.347849e+002, 3.610591e+003
6.352670e+002, 3.609615e+003
6.357491e+002, 3.607863e+003
6.362312e+002, 3.605469e+003
6.367133e+002, 3.603958e+003
6.371954e+002, 3.605522e+003
6.376776e+002, 3.606613e+003
6.381597e+002, 3.603457e+003
6.386418e+002, 3.597649e+003
6.391239e+002, 3.593426e+003
6.396060e+002, 3.592201e+003
6.400881e+002, 3.591757e+003
6.405703e+002, 3.589245e+003
6.410524e+002, 3.584444e+003
6.415345e+002, 3.580511e+003
6.420166e+002, 3.577266e+003
6.424987e+002, 3.575288e+003
6.429808e+002, 3.576286e+003
6.434630e+002, 3.577721e+003
6.439451e+002, 3.576688e+003
6.444272e+002, 3.572833e+003
6.449093e+002, 3.568616e+003
6.453914e+002, 3.565936e+003
6.458735e+002, 3.564304e+003
6.463557e+002, 3.562385e+003
6.468378e+002, 3.560105e+003
6.473199e+002, 3.558833e+003
6.478020e+002, 3.559640e+003
6.482841e+002, 3.560994e+003
6.487662e+002, 3.560262e+003
6.492484e+002, 3.557021e+003
6.497305e+002, 3.554089e+003
6.502126e+002, 3.551752e+003
6.506947e+002, 3.549687e+003
6.511768e+002, 3.547454e+003
6.516589e+002, 3.545424e+003
6.521411e+002, 3.544520e+003
6.526232e+002, 3.544992e+003
6.531053e+002, 3.545765e+003
6.535874e+002, 3.545414e+003
6.540695e+002, 3.543930e+003
6.545516e+002, 3.542380e+003
6.550338e+002, 3.540346e+003
6.555159e+002, 3.539104e+003
6.559980e+002, 3.540469e+003
6.564801e+002, 3.542286e+003
6.569622e+002, 3.541974e+003
6.574443e+002, 3.539114e+003
6.579265e+002, 3.536120e+003
6.584086e+002, 3.534046e+003
6.588907e+002, 3.532395e+003
6.593728e+002, 3.530352e+003
6.598549e+002, 3.528158e+003
6.603370e+002, 3.527318e+003
6.608192e+002, 3.528671e+003
6.613013e+002, 3.530287e+003
6.617834e+002, 3.528498e+003
6.622655e+002, 3.521789e+003
6.627476e+002, 3.517335e+003
6.632297e+002, 3.516162e+003
6.637119e+002, 3.516175e+003
6.641940e+002, 3.518218e+003
6.646761e+002, 3.520477e+003
6.651582e+002, 3.520416e+003
6.656403e+002, 3.517368e+003
6.661224e+002, 3.513503e+003
6.666046e+002, 3.510414e+003
6.670867e+002, 3.507893e+003
6.675688e+002, 3.505413e+003
6.680509e+002, 3.502968e+003
6.685330e+002, 3.500669e+003
6.690151e+002, 3.498470e+003
6.694973e+002, 3.496631e+003
6.699794e+002, 3.495837e+003
6.704615e+002, 3.496972e+003
6.709436e+002, 3.496690e+003
6.714257e+002, 3.493577e+003
6.719078e+002, 3.490413e+003
6.723900e+002, 3.488923e+003
6.728721e+002, 3.488269e+003
6.733542e+002, 3.486624e+003
6.738363e+002, 3.483379e+003
6.743184e+002, 3.480173e+003
6.748005e+002, 3.479121e+003
6.752827e+002, 3.480002e+003
6.757648e+002, 3.480872e+003
6.762469e+002, 3.481857e+003
6.767290e+002, 3.482192e+003
6.772111e+002, 3.481785e+003
6.776932e+002, 3.480279e+003
6.781754e+002, 3.476683e+003
6.786575e+002, 3.470323e+003
6.791396e+002, 3.465650e+003
6.796217e+002, 3.465082e+003
6.801038e+002, 3.465340e+003
6.805859e+002, 3.463839e+003
6.810681e+002, 3.461195e+003
6.815502e+002, 3.459235e+003
6.820323e+002, 3.458681e+003
6.825144e+002, 3.458692e+003
6.829965e+002, 3.458160e+003
6.834786e+002, 3.457083e+003
6.839608e+002, 3.455530e+003
6.844429e+002, 3.453077e+003
6.849250e+002, 3.450900e+003
6.854071e+002, 3.449306e+003
6.858892e+002, 3.448308e+003
6.863713e+002, 3.448191e+003
6.868535e+002, 3.449019e+003
6.873356e+002, 3.449535e+003
6.878177e+002, 3.448883e+003
6.882998e+002, 3.447864e+003
6.887819e+002, 3.447259e+003
6.892640e+002, 3.447002e+003
6.897462e+002, 3.446910e+003
6.902283e+002, 3.446917e+003
6.907104e+002, 3.446589e+003
6.911925e+002, 3.445220e+003
6.916746e+002, 3.442656e+003
6.921567e+002, 3.440499e+003
6.926389e+002, 3.439397e+003
6.931210e+002, 3.437816e+003
6.936031e+002, 3.435063e+003
6.940852e+002, 3.431871e+003
6.945673e+002, 3.428843e+003
6.950494e+002, 3.426093e+003
6.955316e+002, 3.423773e+003
6.960137e+002, 3.422198e+003
6.964958e+002, 3.420973e+003
6.969779e+002, 3.419960e+003
6.974600e+002, 3.418927e+003
6.979421e+002, 3.416519e+003
6.984243e+002, 3.412127e+003
6.989064e+002, 3.407534e+003
6.993885e+002, 3.405158e+003
6.998706e+002, 3.405281e+003
7.003527e+002, 3.403988e+003
7.008348e+002, 3.398800e+003
7.013170e+002, 3.395266e+003
7.017991e+002, 3.395496e+003
7.022812e+002, 3.397067e+003
7.027633e+002, 3.398237e+003
7.032454e+002, 3.398565e+003
7.037275e+002, 3.397649e+003
7.042097e+002, 3.394095e+003
7.046918e+002, 3.390125e+003
7.051739e+002, 3.389855e+003
7.056560e+002, 3.392621e+003
7.061381e+002, 3.394039e+003
7.066202e+002, 3.392741e+003
7.071024e+002, 3.390678e+003
7.075845e+002, 3.389902e+003
7.080666e+002, 3.390354e+003
7.085487e+002, 3.389824e+003
7.090308e+002, 3.388199e+003
7.095129e+002, 3.385747e+003
7.099951e+002, 3.381127e+003
7.104772e+002, 3.376698e+003
7.109593e+002, 3.374552e+003
7.114414e+002, 3.374552e+003
7.119235e+002, 3.375427e+003
7.124056e+002, 3.377030e+003
7.128878e+002, 3.377967e+003
7.133699e+002, 3.374702e+003
7.138520e+002, 3.368164e+003
7.143341e+002, 3.365926e+003
7.148162e+002, 3.370315e+003
7.152983e+002, 3.374445e+003
7.157805e+002, 3.372444e+003
7.162626e+002, 3.365469e+003
7.167447e+002, 3.360077e+003
7.172268e+002, 3.356340e+003
7.177089e+002, 3.354005e+003
7.181910e+002, 3.353822e+003
7.186732e+002, 3.354408e+003
7.191553e+002, 3.355757e+003
7.196374e+002, 3.356964e+003
7.201195e+002, 3.355880e+003
7.206016e+002, 3.351188e+003
7.210837e+002, 3.345737e+003
7.215659e+002, 3.343532e+003
7.220480e+002, 3.344011e+003
7.225301e+002, 3.344205e+003
7.230122e+002, 3.343812e+003
7.234943e+002, 3.343065e+003
7.239764e+002, 3.342062e+003
7.244586e+002, 3.340804e+003
7.249407e+002, 3.339242e+003
7.254228e+002, 3.337069e+003
7.259049e+002, 3.335308e+003
7.263870e+002, 3.333549e+003
7.268691e+002, 3.332673e+003
7.273513e+002, 3.334525e+003
7.278334e+002, 3.337179e+003
7.283155e+002, 3.337093e+003
7.287976e+002, 3.333204e+003
7.292797e+002, 3.328495e+003
7.297618e+002, 3.326365e+003
7.302440e+002, 3.326011e+003
7.307261e+002, 3.324329e+003
7.312082e+002, 3.321167e+003
7.316903e+002, 3.317925e+003
7.321724e+002, 3.314750e+003
7.326545e+002, 3.312582e+003
7.331367e+002, 3.313406e+003
7.336188e+002, 3.318275e+003
7.341009e+002, 3.319932e+003
7.345830e+002, 3.315760e+003
7.350651e+002, 3.311551e+003
7.355472e+002, 3.309183e+003
7.360294e+002, 3.307867e+003
7.365115e+002, 3.306737e+003
7.369936e+002, 3.305582e+003
7.374757e+002, 3.304503e+003
7.379578e+002, 3.303680e+003
7.384399e+002, 3.302874e+003
7.389221e+002, 3.301352e+003
7.394042e+002, 3.299198e+003
7.398863e+002, 3.297731e+003
7.403684e+002, 3.297330e+003
7.408505e+002, 3.297551e+003
7.413326e+002, 3.298490e+003
7.418148e+002, 3.299885e+003
7.422969e+002, 3.298670e+003
7.427790e+002, 3.291735e+003
7.432611e+002, 3.286716e+003
7.437432e+002, 3.285092e+003
7.442253e+002, 3.285193e+003
7.447075e+002, 3.286987e+003
7.451896e+002, 3.289358e+003
7.456717e+002, 3.289749e+003
7.461538e+002, 3.286631e+003
7.466359e+002, 3.282575e+003
7.471180e+002, 3.281054e+003
7.476002e+002, 3.281207e+003
7.480823e+002, 3.279452e+003
7.485644e+002, 3.275289e+003
7.490465e+002, 3.271905e+003
7.495286e+002, 3.271501e+003
7.500107e+002, 3.272580e+003
7.504929e+002, 3.271490e+003
7.509750e+002, 3.266843e+003
7.514571e+002, 3.263442e+003
7.519392e+002, 3.261864e+003
7.524213e+002, 3.260781e+003
7.529034e+002, 3.259556e+003
7.533856e+002, 3.258548e+003
7.538677e+002, 3.258515e+003
7.543498e+002, 3.259564e+003
7.548319e+002, 3.260452e+003
7.553140e+002, 3.260312e+003
7.557961e+002, 3.259395e+003
7.562783e+002, 3.257802e+003
7.567604e+002, 3.255709e+003
7.572425e+002, 3.254051e+003
7.577246e+002, 3.253156e+003
7.582067e+002, 3.252641e+003
7.586888e+002, 3.252127e+003
7.591710e+002, 3.251601e+003
7.596531e+002, 3.250796e+003
7.601352e+002, 3.249061e+003
7.606173e+002, 3.248025e+003
7.610994e+002, 3.249027e+003
7.615815e+002, 3.249818e+003
7.620637e+002, 3.248112e+003
7.625458e+002, 3.244635e+003
7.630279e+002, 3.242415e+003
7.635100e+002, 3.243535e+003
7.639921e+002, 3.244580e+003
7.644742e+002, 3.242211e+003
7.649564e+002, 3.238003e+003
7.654385e+002, 3.234724e+003
7.659206e+002, 3.232715e+003
7.664027e+002, 3.231336e+003
7.668848e+002, 3.230235e+003
7.673669e+002, 3.229314e+003
7.678491e+002, 3.228304e+003
7.683312e+002, 3.227127e+003
7.688133e+002, 3.226222e+003
7.692954e+002, 3.225923e+003
7.697775e+002, 3.225453e+003
7.702596e+002, 3.224583e+003
7.707418e+002, 3.223293e+003
7.712239e+002, 3.221351e+003
7.717060e+002, 3.218622e+003
7.721881e+002, 3.216346e+003
7.726702e+002, 3.215012e+003
7.731523e+002, 3.214284e+003
7.736345e+002, 3.214402e+003
7.741166e+002, 3.214801e+003
7.745987e+002, 3.214289e+003
7.750808e+002, 3.212599e+003
7.755629e+002, 3.210622e+003
7.760450e+002, 3.209228e+003
7.765272e+002, 3.208311e+003
7.770093e+002, 3.207306e+003
7.774914e+002, 3.206153e+003
7.779735e+002, 3.205359e+003
7.784556e+002, 3.205371e+003
7.789377e+002, 3.205261e+003
7.794199e+002, 3.203788e+003
7.799020e+002, 3.201388e+003
7.803841e+002, 3.200240e+003
7.808662e+002, 3.201841e+003
7.813483e+002, 3.202557e+003
7.818304e+002, 3.200990e+003
7.823126e+002, 3.198618e+003
7.827947e+002, 3.196488e+003
7.832768e+002, 3.194610e+003
7.837589e+002, 3.192499e+003
7.842410e+002, 3.189894e+003
7.847231e+002, 3.187737e+003
7.852053e+002, 3.187521e+003
7.856874e+002, 3.188744e+003
7.861695e+002, 3.189605e+003
7.866516e+002, 3.190031e+003
7.871337e+002, 3.189537e+003
7.876158e+002, 3.187716e+003
7.880980e+002, 3.185370e+003
7.885801e+002, 3.183685e+003
7.890622e+002, 3.182789e+003
7.895443e+002, 3.181909e+003
7.900264e+002, 3.180892e+003
7.905085e+002, 3.180128e+003
7.909907e+002, 3.179821e+003
7.914728e+002, 3.179732e+003
7.919549e+002, 3.179622e+003
7.924370e+002, 3.179500e+003
7.929191e+002, 3.179651e+003
7.934012e+002, 3.180915e+003
7.938834e+002, 3.181376e+003
7.943655e+002, 3.177844e+003
7.948476e+002, 3.172427e+003
7.953297e+002, 3.170117e+003
7.958118e+002, 3.171295e+003
7.962939e+002, 3.172298e+003
7.967761e+002, 3.170660e+003
7.972582e+002, 3.167638e+003
7.977403e+002, 3.166713e+003
7.982224e+002, 3.169093e+003
7.987045e+002, 3.168169e+003
7.991866e+002, 3.161425e+003
7.996688e+002, 3.155136e+003
8.001509e+002, 3.152522e+003
8.006330e+002, 3.151775e+003
8.011151e+002, 3.150473e+003
8.015972e+002, 3.148326e+003
8.020793e+002, 3.148277e+003
8.025615e+002, 3.153790e+003
8.030436e+002, 3.158928e+003
8.035257e+002, 3.159448e+003
8.040078e+002, 3.157486e+003
8.044899e+002, 3.156485e+003
8.049720e+002, 3.156920e+003
8.054542e+002, 3.156622e+003
8.059363e+002, 3.153542e+003
8.064184e+002, 3.149262e+003
8.069005e+002, 3.147522e+003
8.073826e+002, 3.148192e+003
8.078647e+002, 3.148817e+003
8.083469e+002, 3.149151e+003
8.088290e+002, 3.148480e+003
8.093111e+002, 3.145800e+003
8.097932e+002, 3.142057e+003
8.102753e+002, 3.140241e+003
8.107574e+002, 3.141550e+003
8.112396e+002, 3.142350e+003
8.117217e+002, 3.142383e+003
8.122038e+002, 3.142235e+003
8.126859e+002, 3.142744e+003
8.131680e+002, 3.142970e+003
8.136501e+002, 3.141382e+003
8.141323e+002, 3.137789e+003
8.146144e+002, 3.134078e+003
8.150965e+002, 3.131587e+003
8.155786e+002, 3.129458e+003
8.160607e+002, 3.126184e+003
8.165428e+002, 3.122520e+003
8.170250e+002, 3.120795e+003
8.175071e+002, 3.121400e+003
8.179892e+002, 3.122224e+003
8.184713e+002, 3.121424e+003
8.189534e+002, 3.119549e+003
8.194355e+002, 3.118723e+003
8.199177e+002, 3.119240e+003
8.203998e+002, 3.119329e+003
8.208819e+002, 3.118616e+003
8.213640e+002, 3.117754e+003
8.218461e+002, 3.117410e+003
8.223282e+002, 3.117090e+003
8.228104e+002, 3.115563e+003
8.232925e+002, 3.112167e+003
8.237746e+002, 3.110125e+003
8.242567e+002, 3.111660e+003
8.247388e+002, 3.113080e+003
8.252209e+002, 3.112246e+003
8.257031e+002, 3.109995e+003
8.261852e+002, 3.107427e+003
8.266673e+002, 3.104918e+003
8.271494e+002, 3.102695e+003
8.276315e+002, 3.101111e+003
8.281136e+002, 3.099734e+003
8.285958e+002, 3.097420e+003
8.290779e+002, 3.094530e+003
8.295600e+002, 3.093125e+003
8.300421e+002, 3.093637e+003
8.305242e+002, 3.093963e+003
8.310063e+002, 3.092322e+003
8.314885e+002, 3.089737e+003
8.319706e+002, 3.089678e+003
8.324527e+002, 3.093975e+003
8.329348e+002, 3.095829e+003
8.334169e+002, 3.093028e+003
8.338990e+002, 3.090483e+003
8.343812e+002, 3.090565e+003
8.348633e+002, 3.091714e+003
8.353454e+002, 3.092130e+003
8.358275e+002, 3.091642e+003
8.363096e+002, 3.090526e+003
8.367917e+002, 3.088086e+003
8.372739e+002, 3.085904e+003
8.377560e+002, 3.085451e+003
8.382381e+002, 3.085624e+003
8.387202e+002, 3.084866e+003
8.392023e+002, 3.082993e+003
8.396844e+002, 3.080649e+003
8.401666e+002, 3.078194e+003
8.406487e+002, 3.075792e+003
8.411308e+002, 3.073525e+003
8.416129e+002, 3.071508e+003
8.420950e+002, 3.071011e+003
8.425771e+002, 3.072339e+003
8.430593e+002, 3.072766e+003
8.435414e+002, 3.070496e+003
8.440235e+002, 3.067181e+003
8.445056e+002, 3.066095e+003
8.449877e+002, 3.068149e+003
8.454698e+002, 3.067864e+003
8.459520e+002, 3.062952e+003
8.464341e+002, 3.058726e+003
8.469162e+002, 3.056621e+003
8.473983e+002, 3.055522e+003
8.478804e+002, 3.054391e+003
8.483625e+002, 3.053305e+003
8.488447e+002, 3.053078e+003
8.493268e+002, 3.054659e+003
8.498089e+002, 3.056062e+003
8.502910e+002, 3.056526e+003
8.507731e+002, 3.055964e+003
8.512552e+002, 3.053789e+003
8.517374e+002, 3.050472e+003
8.522195e+002, 3.047313e+003
8.527016e+002, 3.044903e+003
8.531837e+002, 3.043039e+003
8.536658e+002, 3.041589e+003
8.541479e+002, 3.040469e+003
8.546301e+002, 3.039236e+003
8.551122e+002, 3.037882e+003
8.555943e+002, 3.036820e+003
8.560764e+002, 3.036311e+003
8.565585e+002, 3.035681e+003
8.570406e+002, 3.034028e+003
8.575228e+002, 3.031534e+003
8.580049e+002, 3.030277e+003
8.584870e+002, 3.031294e+003
8.589691e+002, 3.031851e+003
8.594512e+002, 3.032600e+003
8.599333e+002, 3.032013e+003
8.604155e+002, 3.028162e+003
8.608976e+002, 3.022750e+003
8.613797e+002, 3.018798e+003
8.618618e+002, 3.016870e+003
8.623439e+002, 3.016276e+003
8.628260e+002, 3.018489e+003
8.633082e+002, 3.020259e+003
8.637903e+002, 3.018318e+003
8.642724e+002, 3.014352e+003
8.647545e+002, 3.011254e+003
8.652366e+002, 3.009682e+003
8.657188e+002, 3.008708e+003
8.662009e+002, 3.007647e+003
8.666830e+002, 3.006619e+003
8.671651e+002, 3.005934e+003
8.676472e+002, 3.005505e+003
8.681293e+002, 3.004856e+003
8.686115e+002, 3.003893e+003
8.690936e+002, 3.002962e+003
8.695757e+002, 3.002343e+003
8.700578e+002, 3.001664e+003
8.705399e+002, 3.000076e+003
8.710220e+002, 2.997283e+003
8.715042e+002, 2.995018e+003
8.719863e+002, 2.992991e+003
8.724684e+002, 2.991992e+003
8.729505e+002, 2.993648e+003
8.734326e+002, 2.995456e+003
8.739147e+002, 2.995113e+003
8.743969e+002, 2.992867e+003
8.748790e+002, 2.990552e+003
8.753611e+002, 2.988547e+003
8.758432e+002, 2.986542e+003
8.763253e+002, 2.984728e+003
8.768074e+002, 2.982647e+003
8.772896e+002, 2.979556e+003
8.777717e+002, 2.975909e+003
8.782538e+002, 2.972327e+003
8.787359e+002, 2.969059e+003
8.792180e+002, 2.967679e+003
8.797001e+002, 2.971510e+003
8.801823e+002, 2.977253e+003
8.806644e+002, 2.978469e+003
8.811465e+002, 2.975922e+003
8.816286e+002, 2.973009e+003
8.821107e+002, 2.970669e+003
8.825928e+002, 2.969503e+003
8.830750e+002, 2.970346e+003
8.835571e+002, 2.972169e+003
8.840392e+002, 2.971152e+003
8.845213e+002, 2.966626e+003
8.850034e+002, 2.963109e+003
8.854855e+002, 2.961123e+003
8.859677e+002, 2.959922e+003
8.864498e+002, 2.959561e+003
8.869319e+002, 2.959480e+003
8.874140e+002, 2.958790e+003
8.878961e+002, 2.957514e+003
8.883782e+002, 2.955631e+003
8.888604e+002, 2.952240e+003
8.893425e+002, 2.949472e+003
8.898246e+002, 2.948157e+003
8.903067e+002, 2.947543e+003
8.907888e+002, 2.947391e+003
8.912709e+002, 2.947352e+003
8.917531e+002, 2.946654e+003
8.922352e+002, 2.945055e+003
8.927173e+002, 2.942661e+003
8.931994e+002, 2.938433e+003
8.936815e+002, 2.934267e+003
8.941636e+002, 2.933084e+003
8.946458e+002, 2.933817e+003
8.951279e+002, 2.933143e+003
8.956100e+002, 2.930119e+003
8.960921e+002, 2.926977e+003
8.965742e+002, 2.925774e+003
8.970563e+002, 2.926093e+003
8.975385e+002, 2.927414e+003
8.980206e+002, 2.929539e+003
8.985027e+002, 2.929677e+003
8.989848e+002, 2.927144e+003
8.994669e+002, 2.924623e+003
8.999490e+002, 2.923902e+003
9.004312e+002, 2.924187e+003
9.009133e+002, 2.923667e+003
9.013954e+002, 2.922175e+003
9.018775e+002, 2.920573e+003
9.023596e+002, 2.918247e+003
9.028417e+002, 2.916880e+003
9.033239e+002, 2.918271e+003
9.038060e+002, 2.919810e+003
9.042881e+002, 2.918411e+003
9.047702e+002, 2.914694e+003
9.052523e+002, 2.912701e+003
9.057344e+002, 2.914930e+003
9.062166e+002, 2.915953e+003
9.066987e+002, 2.914046e+003
9.071808e+002, 2.910921e+003
9.076629e+002, 2.906582e+003
9.081450e+002, 2.902355e+003
9.086271e+002, 2.900867e+003
9.091093e+002, 2.902663e+003
9.095914e+002, 2.903957e+003
9.100735e+002, 2.901316e+003
9.105556e+002, 2.897566e+003
9.110377e+002, 2.896072e+003
9.115198e+002, 2.895781e+003
9.120020e+002, 2.894087e+003
9.124841e+002, 2.890923e+003
9.129662e+002, 2.888826e+003
9.134483e+002, 2.889497e+003
9.139304e+002, 2.891339e+003
9.144125e+002, 2.891855e+003
9.148947e+002, 2.891110e+003
9.153768e+002, 2.889319e+003
9.158589e+002, 2.886438e+003
9.163410e+002, 2.884040e+003
9.168231e+002, 2.882730e+003
9.173052e+002, 2.882065e+003
9.177874e+002, 2.881702e+003
9.182695e+002, 2.881554e+003
9.187516e+002, 2.880658e+003
9.192337e+002, 2.878611e+003
9.197158e+002, 2.876819e+003
9.201979e+002, 2.875690e+003
9.206801e+002, 2.874477e+003
9.211622e+002, 2.872482e+003
9.216443e+002, 2.870247e+003
9.221264e+002, 2.868477e+003
9.226085e+002, 2.867077e+003
9.230906e+002, 2.866918e+003
9.235728e+002, 2.869512e+003
9.240549e+002, 2.871597e+003
9.245370e+002, 2.871087e+003
9.250191e+002, 2.870159e+003
9.255012e+002, 2.871464e+003
9.259833e+002, 2.874241e+003
9.264655e+002, 2.875511e+003
9.269476e+002, 2.873986e+003
9.274297e+002, 2.871483e+003
9.279118e+002, 2.868499e+003
9.283939e+002, 2.865788e+003
9.288760e+002, 2.864598e+003
9.293582e+002, 2.864296e+003
9.298403e+002, 2.863417e+003
9.303224e+002, 2.861598e+003
9.308045e+002, 2.859363e+003
9.312866e+002, 2.856974e+003
9.317687e+002, 2.854787e+003
9.322509e+002, 2.853611e+003
9.327330e+002, 2.853278e+003
9.332151e+002, 2.853181e+003
9.336972e+002, 2.853228e+003
9.341793e+002, 2.852677e+003
9.346614e+002, 2.851147e+003
9.351436e+002, 2.849070e+003
9.356257e+002, 2.847083e+003
9.361078e+002, 2.845172e+003
9.365899e+002, 2.842627e+003
9.370720e+002, 2.838958e+003
9.375541e+002, 2.836745e+003
9.380363e+002, 2.836805e+003
9.385184e+002, 2.837863e+003
9.390005e+002, 2.839705e+003
9.394826e+002, 2.841493e+003
9.399647e+002, 2.840563e+003
9.404468e+002, 2.834638e+003
9.409290e+002, 2.832183e+003
9.414111e+002, 2.837667e+003
9.418932e+002, 2.840785e+003
9.423753e+002, 2.836382e+003
9.428574e+002, 2.830045e+003
9.433395e+002, 2.826994e+003
9.438217e+002, 2.826892e+003
9.443038e+002, 2.826522e+003
9.447859e+002, 2.824597e+003
9.452680e+002, 2.823463e+003
9.457501e+002, 2.824927e+003
9.462322e+002, 2.826587e+003
9.467144e+002, 2.826509e+003
9.471965e+002, 2.825396e+003
9.476786e+002, 2.824908e+003
9.481607e+002, 2.825219e+003
9.486428e+002, 2.824390e+003
9.491249e+002, 2.819891e+003
9.496071e+002, 2.815398e+003
9.500892e+002, 2.815494e+003
9.505713e+002, 2.817777e+003
9.510534e+002, 2.817938e+003
9.515355e+002, 2.816138e+003
9.520176e+002, 2.815563e+003
9.524998e+002, 2.817597e+003
9.529819e+002, 2.819492e+003
9.534640e+002, 2.817316e+003
9.539461e+002, 2.812688e+003
9.544282e+002, 2.811019e+003
9.549103e+002, 2.811812e+003
9.553925e+002, 2.810703e+003
9.558746e+002, 2.806748e+003
9.563567e+002, 2.804128e+003
9.568388e+002, 2.806066e+003
9.573209e+002, 2.810037e+003
9.578030e+002, 2.810366e+003
9.582852e+002, 2.806683e+003
9.587673e+002, 2.803546e+003
9.592494e+002, 2.801006e+003
9.597315e+002, 2.798877e+003
9.602136e+002, 2.797196e+003
9.606957e+002, 2.795691e+003
9.611779e+002, 2.793949e+003
9.616600e+002, 2.792191e+003
9.621421e+002, 2.791692e+003
9.626242e+002, 2.793914e+003
9.631063e+002, 2.794508e+003
9.635884e+002, 2.791783e+003
9.640706e+002, 2.789539e+003
9.645527e+002, 2.790077e+003
9.650348e+002, 2.791203e+003
9.655169e+002, 2.789936e+003
9.659990e+002, 2.786476e+003
9.664811e+002, 2.784742e+003
9.669633e+002, 2.786245e+003
9.674454e+002, 2.788121e+003
9.679275e+002, 2.790412e+003
9.684096e+002, 2.792191e+003
9.688917e+002, 2.792830e+003
9.693738e+002, 2.792533e+003
9.698560e+002, 2.791622e+003
9.703381e+002, 2.790172e+003
9.708202e+002, 2.788452e+003
9.713023e+002, 2.786550e+003
9.717844e+002, 2.784468e+003
9.722665e+002, 2.781465e+003
9.727487e+002, 2.778813e+003
9.732308e+002, 2.778662e+003
9.737129e+002, 2.780233e+003
9.741950e+002, 2.780763e+003
9.746771e+002, 2.779193e+003
9.751592e+002, 2.777589e+003
9.756414e+002, 2.778069e+003
9.761235e+002, 2.779409e+003
9.766056e+002, 2.779599e+003
9.770877e+002, 2.779306e+003
9.775698e+002, 2.780545e+003
9.780519e+002, 2.783311e+003
9.785341e+002, 2.785357e+003
9.790162e+002, 2.785276e+003
9.794983e+002, 2.784678e+003
9.799804e+002, 2.786215e+003
9.804625e+002, 2.789219e+003
9.809446e+002, 2.791087e+003
9.814268e+002, 2.791860e+003
9.819089e+002, 2.792546e+003
9.823910e+002, 2.793414e+003
9.828731e+002, 2.793967e+003
9.833552e+002, 2.793720e+003
9.838373e+002, 2.793138e+003
9.843195e+002, 2.793311e+003
9.848016e+002, 2.794244e+003
9.852837e+002, 2.795886e+003
9.857658e+002, 2.798311e+003
9.862479e+002, 2.801145e+003
9.867300e+002, 2.804574e+003
9.872122e+002, 2.807377e+003
9.876943e+002, 2.808036e+003
9.881764e+002, 2.807124e+003
9.886585e+002, 2.807825e+003
9.891406e+002, 2.810618e+003
9.896227e+002, 2.813615e+003
9.901049e+002, 2.816591e+003
9.905870e+002, 2.820144e+003
9.910691e+002, 2.825740e+003
9.915512e+002, 2.830849e+003
9.920333e+002, 2.831995e+003
9.925154e+002, 2.829311e+003
9.929976e+002, 2.827371e+003
9.934797e+002, 2.826700e+003
9.939618e+002, 2.825984e+003
9.944439e+002, 2.825250e+003
9.949260e+002, 2.824359e+003
9.954081e+002, 2.822901e+003
9.958903e+002, 2.821439e+003
9.963724e+002, 2.821148e+003
9.968545e+002, 2.822032e+003
9.973366e+002, 2.821465e+003
9.978187e+002, 2.818464e+003
9.983008e+002, 2.814601e+003
9.987830e+002, 2.809091e+003
9.992651e+002, 2.804036e+003
9.997472e+002, 2.801418e+003
1.000229e+003, 2.800145e+003
1.000711e+003, 2.798117e+003
1.001194e+003, 2.794953e+003
1.001676e+003, 2.791933e+003
1.002158e+003, 2.789222e+003
1.002640e+003, 2.787287e+003
1.003122e+003, 2.786903e+003
1.003604e+003, 2.787048e+003
1.004086e+003, 2.786931e+003
1.004568e+003, 2.786374e+003
1.005050e+003, 2.785055e+003
1.005533e+003, 2.782912e+003
1.006015e+003, 2.781197e+003
1.006497e+003, 2.781531e+003
1.006979e+003, 2.781976e+003
1.007461e+003, 2.780135e+003
1.007943e+003, 2.777422e+003
1.008425e+003, 2.775966e+003
1.008907e+003, 2.775839e+003
1.009390e+003, 2.776258e+003
1.009872e+003, 2.776882e+003
1.010354e+003, 2.777573e+003
1.010836e+003, 2.778083e+003
1.011318e+003, 2.778646e+003
1.011800e+003, 2.779654e+003
1.012282e+003, 2.781006e+003
1.012764e+003, 2.782409e+003
1.013246e+003, 2.783868e+003
1.013729e+003, 2.786032e+003
1.014211e+003, 2.789296e+003
1.014693e+003, 2.791908e+003
1.015175e+003, 2.790596e+003
1.015657e+003, 2.787094e+003
1.016139e+003, 2.786753e+003
1.016621e+003, 2.789010e+003
1.017103e+003, 2.791248e+003
1.017586e+003, 2.792881e+003
1.018068e+003, 2.793466e+003
1.018550e+003, 2.792666e+003
1.019032e+003, 2.791336e+003
1.019514e+003, 2.790323e+003
1.019996e+003, 2.789945e+003
1.020478e+003, 2.793291e+003
1.020960e+003, 2.800235e+003
1.021442e+003, 2.805820e+003
1.021925e+003, 2.808949e+003
1.022407e+003, 2.809627e+003
1.022889e+003, 2.807512e+003
1.023371e+003, 2.804167e+003
1.023853e+003, 2.803080e+003
1.024335e+003, 2.804281e+003
1.024817e+003, 2.802748e+003
1.025299e+003, 2.798007e+003
1.025781e+003, 2.793888e+003
1.026264e+003, 2.791183e+003
1.026746e+003, 2.789838e+003
1.027228e+003, 2.790145e+003
1.027710e+003, 2.791193e+003
1.028192e+003, 2.790884e+003
1.028674e+003, 2.789177e+003
1.029156e+003, 2.786225e+003
1.029638e+003, 2.781698e+003
1.030120e+003, 2.777026e+003
1.030603e+003, 2.772441e+003
1.031085e+003, 2.768048e+003
1.031567e+003, 2.763802e+003
1.032049e+003, 2.759969e+003
1.032531e+003, 2.757438e+003
1.033013e+003, 2.756917e+003
1.033495e+003, 2.754438e+003
1.033977e+003, 2.749065e+003
1.034460e+003, 2.743743e+003
1.034942e+003, 2.739007e+003
1.035424e+003, 2.734858e+003
1.035906e+003, 2.731672e+003
1.036388e+003, 2.728978e+003
1.036870e+003, 2.725323e+003
1.037352e+003, 2.720291e+003
1.037834e+003, 2.715851e+003
1.038317e+003, 2.712322e+003
1.038799e+003, 2.708924e+003
1.039281e+003, 2.705512e+003
1.039763e+003, 2.702122e+003
1.040245e+003, 2.698135e+003
1.040727e+003, 2.694246e+003
1.041209e+003, 2.692692e+003
1.041691e+003, 2.694862e+003
1.042173e+003, 2.694944e+003
1.042656e+003, 2.691131e+003
1.043138e+003, 2.687506e+003
1.043620e+003, 2.685028e+003
1.044102e+003, 2.683086e+003
1.044584e+003, 2.681169e+003
1.045066e+003, 2.679417e+003
1.045548e+003, 2.678363e+003
1.046030e+003, 2.678318e+003
1.046512e+003, 2.677836e+003
1.046995e+003, 2.677050e+003
1.047477e+003, 2.675425e+003
1.047959e+003, 2.671609e+003
1.048441e+003, 2.667980e+003
1.048923e+003, 2.666592e+003
1.049405e+003, 2.666828e+003
1.049887e+003, 2.667294e+003
1.050369e+003, 2.668118e+003
1.050852e+003, 2.667621e+003
1.051334e+003, 2.664417e+003
1.051816e+003, 2.661259e+003
1.052298e+003, 2.658749e+003
1.052780e+003, 2.656968e+003
1.053262e+003, 2.656381e+003
1.053744e+003, 2.656430e+003
1.054226e+003, 2.655745e+003
1.054708e+003, 2.653918e+003
1.055191e+003, 2.652899e+003
1.055673e+003, 2.653083e+003
1.056155e+003, 2.654317e+003
1.056637e+003, 2.658379e+003
1.057119e+003, 2.661796e+003
1.057601e+003, 2.661271e+003
1.058083e+003, 2.658009e+003
1.058565e+003, 2.654565e+003
1.059047e+003, 2.651374e+003
1.059530e+003, 2.649023e+003
1.060012e+003, 2.648653e+003
1.060494e+003, 2.647968e+003
1.060976e+003, 2.645101e+003
1.061458e+003, 2.642365e+003
1.061940e+003, 2.642470e+003
1.062422e+003, 2.643881e+003
1.062904e+003, 2.643016e+003
1.063387e+003, 2.639230e+003
1.063869e+003, 2.636495e+003
1.064351e+003, 2.637883e+003
1.064833e+003, 2.638566e+003
1.065315e+003, 2.635128e+003
1.065797e+003, 2.631278e+003
1.066279e+003, 2.630823e+003
1.066761e+003, 2.631973e+003
1.067244e+003, 2.630852e+003
1.067726e+003, 2.626951e+003
1.068208e+003, 2.623995e+003
1.068690e+003, 2.624253e+003
1.069172e+003, 2.624730e+003
1.069654e+003, 2.624350e+003
1.070136e+003, 2.623371e+003
1.070618e+003, 2.621503e+003
1.071100e+003, 2.619412e+003
1.071583e+003, 2.618048e+003
1.072065e+003, 2.617574e+003
1.072547e+003, 2.617835e+003
1.073029e+003, 2.620150e+003
1.073511e+003, 2.620811e+003
1.073993e+003, 2.616088e+003
1.074475e+003, 2.610998e+003
1.074957e+003, 2.609378e+003
1.075439e+003, 2.609968e+003
1.075922e+003, 2.611056e+003
1.076404e+003, 2.612129e+003
1.076886e+003, 2.612466e+003
1.077368e+003, 2.611689e+003
1.077850e+003, 2.610401e+003
1.078332e+003, 2.608099e+003
1.078814e+003, 2.606201e+003
1.079297e+003, 2.606351e+003
1.079779e+003, 2.607150e+003
1.080261e+003, 2.606582e+003
1.080743e+003, 2.604741e+003
1.081225e+003, 2.603224e+003
1.081707e+003, 2.602640e+003
1.082189e+003, 2.602159e+003
1.082671e+003, 2.601577e+003
1.083153e+003, 2.600791e+003
1.083635e+003, 2.599501e+003
1.084118e+003, 2.598142e+003
1.084600e+003, 2.597254e+003
1.085082e+003, 2.596762e+003
1.085564e+003, 2.596353e+003
1.086046e+003, 2.596078e+003
1.086528e+003, 2.595148e+003
1.087010e+003, 2.592595e+003
1.087492e+003, 2.590083e+003
1.087975e+003, 2.588653e+003
1.088457e+003, 2.587629e+003
1.088939e+003, 2.586222e+003
1.089421e+003, 2.584624e+003
1.089903e+003, 2.583776e+003
1.090385e+003, 2.584051e+003
1.090867e+003, 2.582917e+003
1.091349e+003, 2.577476e+003
1.091832e+003, 2.572910e+003
1.092314e+003, 2.572330e+003
1.092796e+003, 2.572969e+003
1.093278e+003, 2.572495e+003
1.093760e+003, 2.571415e+003
1.094242e+003, 2.571253e+003
1.094724e+003, 2.572236e+003
1.095206e+003, 2.572590e+003
1.095688e+003, 2.570757e+003
1.096171e+003, 2.569566e+003
1.096653e+003, 2.571641e+003
1.097135e+003, 2.572989e+003
1.097617e+003, 2.569097e+003
1.098099e+003, 2.563633e+003
1.098581e+003, 2.562995e+003
1.099063e+003, 2.567206e+003
1.099545e+003, 2.568957e+003
1.100027e+003, 2.564274e+003
1.100510e+003, 2.560732e+003
1.100992e+003, 2.561241e+003
1.101474e+003, 2.562223e+003
1.101956e+003, 2.561963e+003
1.102438e+003, 2.560960e+003
1.102920e+003, 2.559607e+003
1.103402e+003, 2.558108e+003
1.103884e+003, 2.557134e+003
1.104367e+003, 2.556960e+003
1.104849e+003, 2.556884e+003
1.105331e+003, 2.557547e+003
1.105813e+003, 2.557328e+003
1.106295e+003, 2.554500e+003
1.106777e+003, 2.551459e+003
1.107259e+003, 2.551075e+003
1.107741e+003, 2.552180e+003
1.108224e+003, 2.550899e+003
1.108706e+003, 2.545853e+003
1.109188e+003, 2.542818e+003
1.109670e+003, 2.543676e+003
1.110152e+003, 2.544686e+003
1.110634e+003, 2.546036e+003
1.111116e+003, 2.546224e+003
1.111598e+003, 2.543191e+003
1.112080e+003, 2.538728e+003
1.112563e+003, 2.536300e+003
1.113045e+003, 2.536176e+003
1.113527e+003, 2.536046e+003
1.114009e+003, 2.535886e+003
1.114491e+003, 2.535800e+003
1.114973e+003, 2.536397e+003
1.115455e+003, 2.536261e+003
1.115937e+003, 2.533821e+003
1.116419e+003, 2.531098e+003
1.116902e+003, 2.531002e+003
1.117384e+003, 2.533259e+003
1.117866e+003, 2.534443e+003
1.118348e+003, 2.534340e+003
1.118830e+003, 2.533539e+003
1.119312e+003, 2.531067e+003
1.119794e+003, 2.530031e+003
1.120276e+003, 2.532750e+003
1.120759e+003, 2.535281e+003
1.121241e+003, 2.533410e+003
1.121723e+003, 2.528614e+003
1.122205e+003, 2.526227e+003
1.122687e+003, 2.526773e+003
1.123169e+003, 2.527183e+003
1.123651e+003, 2.527330e+003
1.124133e+003, 2.527747e+003
1.124615e+003, 2.528702e+003
1.125098e+003, 2.529527e+003
1.125580e+003, 2.529791e+003
1.126062e+003, 2.529570e+003
1.126544e+003, 2.528968e+003
1.127026e+003, 2.528001e+003
1.127508e+003, 2.526962e+003
1.127990e+003, 2.525776e+003
1.128472e+003, 2.525405e+003
1.128954e+003, 2.526169e+003
1.129437e+003, 2.526405e+003
1.129919e+003, 2.525184e+003
1.130401e+003, 2.523750e+003
1.130883e+003, 2.523854e+003
1.131365e+003, 2.524765e+003
1.131847e+003, 2.522902e+003
1.132329e+003, 2.518512e+003
1.132811e+003, 2.517325e+003
1.133294e+003, 2.519633e+003
1.133776e+003, 2.520046e+003
1.134258e+003, 2.516762e+003
1.134740e+003, 2.513077e+003
1.135222e+003, 2.511743e+003
1.135704e+003, 2.511794e+003
1.136186e+003, 2.511500e+003
1.136668e+003, 2.510975e+003
1.137151e+003, 2.510632e+003
1.137633e+003, 2.510485e+003
1.138115e+003, 2.510383e+003
1.138597e+003, 2.510363e+003
1.139079e+003, 2.511255e+003
1.139561e+003, 2.513582e+003
1.140043e+003, 2.514859e+003
1.140525e+003, 2.510946e+003
1.141007e+003, 2.504762e+003
1.141490e+003, 2.501419e+003
1.141972e+003, 2.500390e+003
1.142454e+003, 2.501152e+003
1.142936e+003, 2.503040e+003
1.143418e+003, 2.504530e+003
1.143900e+003, 2.505049e+003
1.144382e+003, 2.504703e+003
1.144864e+003, 2.503327e+003
1.145346e+003, 2.501582e+003
1.145829e+003, 2.499670e+003
1.146311e+003, 2.498210e+003
1.146793e+003, 2.499003e+003
1.147275e+003, 2.500456e+003
1.147757e+003, 2.498852e+003
1.148239e+003, 2.494376e+003
1.148721e+003, 2.490996e+003
1.149203e+003, 2.490510e+003
1.149686e+003, 2.491325e+003
1.150168e+003, 2.493780e+003
1.150650e+003, 2.495689e+003
1.151132e+003, 2.494843e+003
1.151614e+003, 2.493062e+003
1.152096e+003, 2.492532e+003
1.152578e+003, 2.492879e+003
1.153060e+003, 2.492473e+003
1.153542e+003, 2.490913e+003
1.154025e+003, 2.489904e+003
1.154507e+003, 2.490106e+003
1.154989e+003, 2.490829e+003
1.155471e+003, 2.492648e+003
1.155953e+003, 2.493990e+003
1.156435e+003, 2.493997e+003
1.156917e+003, 2.492781e+003
1.157399e+003, 2.489532e+003
1.157881e+003, 2.484790e+003
1.158364e+003, 2.483300e+003
1.158846e+003, 2.488610e+003
1.159328e+003, 2.491257e+003
1.159810e+003, 2.488129e+003
1.160292e+003, 2.485709e+003
1.160774e+003, 2.487094e+003
1.161256e+003, 2.488451e+003
1.161738e+003, 2.485887e+003
1.162221e+003, 2.481568e+003
1.162703e+003, 2.481044e+003
1.163185e+003, 2.485056e+003
1.163667e+003, 2.486762e+003
1.164149e+003, 2.485471e+003
1.164631e+003, 2.483763e+003
1.165113e+003, 2.481625e+003
1.165595e+003, 2.480346e+003
1.166078e+003, 2.480881e+003
1.166560e+003, 2.481754e+003
1.167042e+003, 2.481042e+003
1.167524e+003, 2.479149e+003
1.168006e+003, 2.477792e+003
1.168488e+003, 2.476930e+003
1.168970e+003, 2.478033e+003
1.169452e+003, 2.481284e+003
1.169934e+003, 2.482494e+003
1.170417e+003, 2.480413e+003
1.170899e+003, 2.477636e+003
1.171381e+003, 2.476000e+003
1.171863e+003, 2.475160e+003
1.172345e+003, 2.474561e+003
1.172827e+003, 2.474267e+003
1.173309e+003, 2.475083e+003
1.173791e+003, 2.476410e+003
1.174273e+003, 2.475327e+003
1.174756e+003, 2.472086e+003
1.175238e+003, 2.470246e+003
1.175720e+003, 2.471108e+003
1.176202e+003, 2.472227e+003
1.176684e+003, 2.471362e+003
1.177166e+003, 2.469942e+003
1.177648e+003, 2.470132e+003
1.178130e+003, 2.470644e+003
1.178613e+003, 2.468999e+003
1.179095e+003, 2.466397e+003
1.179577e+003, 2.466109e+003
1.180059e+003, 2.467849e+003
1.180541e+003, 2.467347e+003
1.181023e+003, 2.462152e+003
1.181505e+003, 2.458508e+003
1.181987e+003, 2.462884e+003
1.182469e+003, 2.466892e+003
1.182952e+003, 2.463423e+003
1.183434e+003, 2.458216e+003
1.183916e+003, 2.456993e+003
1.184398e+003, 2.458516e+003
1.184880e+003, 2.459571e+003
1.185362e+003, 2.459663e+003
1.185844e+003, 2.459639e+003
1.186326e+003, 2.460110e+003
1.186808e+003, 2.459829e+003
1.187291e+003, 2.457882e+003
1.187773e+003, 2.455996e+003
1.188255e+003, 2.455270e+003
1.188737e+003, 2.454630e+003
1.189219e+003, 2.452557e+003
1.189701e+003, 2.449838e+003
1.190183e+003, 2.449091e+003
1.190665e+003, 2.451015e+003
1.191148e+003, 2.451095e+003
1.191630e+003, 2.448156e+003
1.192112e+003, 2.446944e+003
1.192594e+003, 2.449187e+003
1.193076e+003, 2.450314e+003
1.193558e+003, 2.447542e+003
1.194040e+003, 2.443740e+003
1.194522e+003, 2.442639e+003
1.195005e+003, 2.443528e+003
1.195487e+003, 2.443501e+003
1.195969e+003, 2.442585e+003
1.196451e+003, 2.441325e+003
1.196933e+003, 2.439789e+003
1.197415e+003, 2.438713e+003
1.197897e+003, 2.438296e+003
1.198379e+003, 2.438807e+003
1.198861e+003, 2.440507e+003
1.199344e+003, 2.442104e+003
1.199826e+003, 2.441748e+003
1.200308e+003, 2.440127e+003
1.200790e+003, 2.438657e+003
1.201272e+003, 2.437048e+003
1.201754e+003, 2.433772e+003
1.202236e+003, 2.429844e+003
1.202718e+003, 2.429081e+003
1.203200e+003, 2.432075e+003
1.203683e+003, 2.434573e+003
1.204165e+003, 2.433989e+003
1.204647e+003, 2.432320e+003
1.205129e+003, 2.430244e+003
1.205611e+003, 2.428588e+003
1.206093e+003, 2.428656e+003
1.206575e+003, 2.429140e+003
1.207057e+003, 2.428222e+003
1.207540e+003, 2.426328e+003
1.208022e+003, 2.425028e+003
1.208504e+003, 2.424671e+003
1.208986e+003, 2.424493e+003
1.209468e+003, 2.424401e+003
1.209950e+003, 2.424323e+003
1.210432e+003, 2.425061e+003
1.210914e+003, 2.424824e+003
1.211396e+003, 2.420904e+003
1.211879e+003, 2.417111e+003
1.212361e+003, 2.418212e+003
1.212843e+003, 2.422637e+003
1.213325e+003, 2.423911e+003
1.213807e+003, 2.421166e+003
1.214289e+003, 2.419636e+003
1.214771e+003, 2.419958e+003
1.215253e+003, 2.418661e+003
1.215735e+003, 2.414556e+003
1.216218e+003, 2.411339e+003
1.216700e+003, 2.411019e+003
1.217182e+003, 2.412599e+003
1.217664e+003, 2.415364e+003
1.218146e+003, 2.418208e+003
1.218628e+003, 2.416623e+003
1.219110e+003, 2.411888e+003
1.219592e+003, 2.411108e+003
1.220075e+003, 2.413819e+003
1.220557e+003, 2.415779e+003
1.221039e+003, 2.415846e+003
1.221521e+003, 2.414032e+003
1.222003e+003, 2.410273e+003
1.222485e+003, 2.406228e+003
1.222967e+003, 2.403142e+003
1.223449e+003, 2.401099e+003
1.223932e+003, 2.400260e+003
1.224414e+003, 2.400477e+003
1.224896e+003, 2.402514e+003
1.225378e+003, 2.405054e+003
1.225860e+003, 2.405317e+003
1.226342e+003, 2.403225e+003
1.226824e+003, 2.401691e+003
1.227306e+003, 2.402388e+003
1.227788e+003, 2.401770e+003
1.228271e+003, 2.396344e+003
1.228753e+003, 2.392346e+003
1.229235e+003, 2.394069e+003
1.229717e+003, 2.396665e+003
1.230199e+003, 2.395775e+003
1.230681e+003, 2.393331e+003
1.231163e+003, 2.393143e+003
1.231645e+003, 2.395147e+003
1.232127e+003, 2.396550e+003
1.232610e+003, 2.397700e+003
1.233092e+003, 2.396868e+003
1.233574e+003, 2.393087e+003
1.234056e+003, 2.390644e+003
1.234538e+003, 2.391146e+003
1.235020e+003, 2.391830e+003
1.235502e+003, 2.390675e+003
1.235984e+003, 2.388457e+003
1.236467e+003, 2.386170e+003
1.236949e+003, 2.384157e+003
1.237431e+003, 2.384423e+003
1.237913e+003, 2.386311e+003
1.238395e+003, 2.386391e+003
1.238877e+003, 2.384949e+003
1.239359e+003, 2.385739e+003
1.239841e+003, 2.389340e+003
1.240323e+003, 2.390900e+003
1.240806e+003, 2.386760e+003
1.241288e+003, 2.382347e+003
1.241770e+003, 2.383732e+003
1.242252e+003, 2.386411e+003
1.242734e+003, 2.386021e+003
1.243216e+003, 2.384209e+003
1.243698e+003, 2.383063e+003
1.244180e+003, 2.382366e+003
1.244662e+003, 2.380985e+003
1.245145e+003, 2.378823e+003
1.245627e+003, 2.377300e+003
1.246109e+003, 2.377470e+003
1.246591e+003, 2.377086e+003
1.247073e+003, 2.374447e+003
1.247555e+003, 2.373086e+003
1.248037e+003, 2.376084e+003
1.248519e+003, 2.378402e+003
1.249002e+003, 2.375608e+003
1.249484e+003, 2.370728e+003
1.249966e+003, 2.369449e+003
1.250448e+003, 2.371509e+003
1.250930e+003, 2.372031e+003
1.251412e+003, 2.370758e+003
1.251894e+003, 2.371048e+003
1.252376e+003, 2.373241e+003
1.252859e+003, 2.374066e+003
1.253341e+003, 2.372540e+003
1.253823e+003, 2.371250e+003
1.254305e+003, 2.372043e+003
1.254787e+003, 2.373096e+003
1.255269e+003, 2.371458e+003
1.255751e+003, 2.368686e+003
1.256233e+003, 2.367614e+003
1.256715e+003, 2.367588e+003
1.257198e+003, 2.367418e+003
1.257680e+003, 2.367180e+003
1.258162e+003, 2.367626e+003
1.258644e+003, 2.368698e+003
1.259126e+003, 2.369056e+003
1.259608e+003, 2.367731e+003
1.260090e+003, 2.367263e+003
1.260572e+003, 2.370714e+003
1.261054e+003, 2.372847e+003
1.261537e+003, 2.369777e+003
1.262019e+003, 2.365866e+003
1.262501e+003, 2.364454e+003
1.262983e+003, 2.364429e+003
1.263465e+003, 2.363724e+003
1.263947e+003, 2.362509e+003
1.264429e+003, 2.362430e+003
1.264911e+003, 2.364535e+003
1.265394e+003, 2.363723e+003
1.265876e+003, 2.358853e+003
1.266358e+003, 2.356294e+003
1.266840e+003, 2.357748e+003
1.267322e+003, 2.359498e+003
1.267804e+003, 2.359453e+003
1.268286e+003, 2.359210e+003
1.268768e+003, 2.360956e+003
1.269250e+003, 2.363363e+003
1.269733e+003, 2.363083e+003
1.270215e+003, 2.361216e+003
1.270697e+003, 2.360731e+003
1.271179e+003, 2.361030e+003
1.271661e+003, 2.359769e+003
1.272143e+003, 2.357104e+003
1.272625e+003, 2.355263e+003
1.273107e+003, 2.355089e+003
1.273589e+003, 2.355531e+003
1.274072e+003, 2.356163e+003
1.274554e+003, 2.356994e+003
1.275036e+003, 2.358559e+003
1.275518e+003, 2.359711e+003
1.276000e+003, 2.360244e+003
1.276482e+003, 2.359452e+003
1.276964e+003, 2.355306e+003
1.277446e+003, 2.349738e+003
1.277929e+003, 2.348335e+003
1.278411e+003, 2.351809e+003
1.278893e+003, 2.352007e+003
1.279375e+003, 2.347828e+003
1.279857e+003, 2.344618e+003
1.280339e+003, 2.342979e+003
1.280821e+003, 2.342119e+003
1.281303e+003, 2.341887e+003
1.281786e+003, 2.343201e+003
1.282268e+003, 2.346484e+003
##END=



