##NAMES=Protochabourneite
##RRUFFID=R140583
##IDEAL CHEMISTRY=Tl^1+^_5-x_Pb^2+^_2x_(Sb^3+^,As^3+^)_21-x_S^2-^_34_ (x~1.2-1.5)
##LOCALITY=Monte Arsiccio mine, Sant'Anna Di Stazzema, Stazzema, Apuan Alps, Lucca Province, Tuscany, Italy
##OWNER=RRUFF
##SOURCE=Stefan Schorn
##DESCRIPTION=Black metallic crystals
##STATUS=The identification of this mineral has been confirmed by single-crystal X-ray diffraction.
##URL=rruff.info/R140583
8.806445e+001, 2.056125e+003
8.854657e+001, 1.990158e+003
8.902869e+001, 1.967332e+003
8.951080e+001, 2.007620e+003
8.999292e+001, 2.081945e+003
9.047504e+001, 2.164100e+003
9.095715e+001, 2.249087e+003
9.143927e+001, 2.334925e+003
9.192139e+001, 2.419999e+003
9.240350e+001, 2.504172e+003
9.288562e+001, 2.586886e+003
9.336774e+001, 2.649564e+003
9.384985e+001, 2.675041e+003
9.433197e+001, 2.665801e+003
9.481409e+001, 2.660962e+003
9.529620e+001, 2.647827e+003
9.577832e+001, 2.632379e+003
9.626044e+001, 2.615962e+003
9.674255e+001, 2.600924e+003
9.722467e+001, 2.589632e+003
9.770679e+001, 2.582315e+003
9.818890e+001, 2.575880e+003
9.867102e+001, 2.569877e+003
9.915314e+001, 2.563930e+003
9.963525e+001, 2.557409e+003
1.001174e+002, 2.549901e+003
1.005995e+002, 2.541735e+003
1.010816e+002, 2.534398e+003
1.015637e+002, 2.526507e+003
1.020458e+002, 2.520586e+003
1.025280e+002, 2.517213e+003
1.030101e+002, 2.515262e+003
1.034922e+002, 2.513078e+003
1.039743e+002, 2.509425e+003
1.044564e+002, 2.504183e+003
1.049385e+002, 2.500076e+003
1.054207e+002, 2.496648e+003
1.059028e+002, 2.494059e+003
1.063849e+002, 2.493219e+003
1.068670e+002, 2.493816e+003
1.073491e+002, 2.493395e+003
1.078312e+002, 2.488879e+003
1.083134e+002, 2.480481e+003
1.087955e+002, 2.473536e+003
1.092776e+002, 2.468973e+003
1.097597e+002, 2.466113e+003
1.102418e+002, 2.464288e+003
1.107239e+002, 2.463832e+003
1.112061e+002, 2.463374e+003
1.116882e+002, 2.461590e+003
1.121703e+002, 2.458716e+003
1.126524e+002, 2.455699e+003
1.131345e+002, 2.452951e+003
1.136166e+002, 2.450467e+003
1.140988e+002, 2.448350e+003
1.145809e+002, 2.447095e+003
1.150630e+002, 2.445785e+003
1.155451e+002, 2.443726e+003
1.160272e+002, 2.440937e+003
1.165093e+002, 2.438143e+003
1.169915e+002, 2.436366e+003
1.174736e+002, 2.436199e+003
1.179557e+002, 2.435392e+003
1.184378e+002, 2.433497e+003
1.189199e+002, 2.431157e+003
1.194020e+002, 2.428794e+003
1.198842e+002, 2.426535e+003
1.203663e+002, 2.424226e+003
1.208484e+002, 2.421519e+003
1.213305e+002, 2.416867e+003
1.218126e+002, 2.413584e+003
1.222947e+002, 2.413045e+003
1.227769e+002, 2.413608e+003
1.232590e+002, 2.413218e+003
1.237411e+002, 2.410794e+003
1.242232e+002, 2.406685e+003
1.247053e+002, 2.402348e+003
1.251874e+002, 2.397134e+003
1.256696e+002, 2.392437e+003
1.261517e+002, 2.388698e+003
1.266338e+002, 2.385894e+003
1.271159e+002, 2.383886e+003
1.275980e+002, 2.383079e+003
1.280801e+002, 2.382943e+003
1.285623e+002, 2.381708e+003
1.290444e+002, 2.378398e+003
1.295265e+002, 2.374622e+003
1.300086e+002, 2.371932e+003
1.304907e+002, 2.370467e+003
1.309728e+002, 2.369469e+003
1.314550e+002, 2.369693e+003
1.319371e+002, 2.369918e+003
1.324192e+002, 2.368139e+003
1.329013e+002, 2.362560e+003
1.333834e+002, 2.354566e+003
1.338655e+002, 2.348234e+003
1.343477e+002, 2.344056e+003
1.348298e+002, 2.341064e+003
1.353119e+002, 2.339246e+003
1.357940e+002, 2.338154e+003
1.362761e+002, 2.336990e+003
1.367582e+002, 2.335018e+003
1.372404e+002, 2.332210e+003
1.377225e+002, 2.330286e+003
1.382046e+002, 2.331493e+003
1.386867e+002, 2.331652e+003
1.391688e+002, 2.328828e+003
1.396509e+002, 2.323495e+003
1.401331e+002, 2.317540e+003
1.406152e+002, 2.312812e+003
1.410973e+002, 2.309646e+003
1.415794e+002, 2.306812e+003
1.420615e+002, 2.304417e+003
1.425436e+002, 2.302206e+003
1.430258e+002, 2.299792e+003
1.435079e+002, 2.297196e+003
1.439900e+002, 2.295009e+003
1.444721e+002, 2.294152e+003
1.449542e+002, 2.295460e+003
1.454363e+002, 2.295940e+003
1.459185e+002, 2.294846e+003
1.464006e+002, 2.293095e+003
1.468827e+002, 2.291968e+003
1.473648e+002, 2.291966e+003
1.478469e+002, 2.291961e+003
1.483290e+002, 2.289441e+003
1.488112e+002, 2.284071e+003
1.492933e+002, 2.279665e+003
1.497754e+002, 2.278003e+003
1.502575e+002, 2.278419e+003
1.507396e+002, 2.279187e+003
1.512217e+002, 2.280573e+003
1.517039e+002, 2.281078e+003
1.521860e+002, 2.278684e+003
1.526681e+002, 2.273005e+003
1.531502e+002, 2.267477e+003
1.536323e+002, 2.265246e+003
1.541144e+002, 2.266463e+003
1.545966e+002, 2.266959e+003
1.550787e+002, 2.264984e+003
1.555608e+002, 2.262178e+003
1.560429e+002, 2.259633e+003
1.565250e+002, 2.257569e+003
1.570071e+002, 2.255525e+003
1.574893e+002, 2.252514e+003
1.579714e+002, 2.247580e+003
1.584535e+002, 2.244358e+003
1.589356e+002, 2.244700e+003
1.594177e+002, 2.246076e+003
1.598998e+002, 2.246618e+003
1.603820e+002, 2.245614e+003
1.608641e+002, 2.243579e+003
1.613462e+002, 2.241712e+003
1.618283e+002, 2.239883e+003
1.623104e+002, 2.238450e+003
1.627925e+002, 2.237836e+003
1.632747e+002, 2.237467e+003
1.637568e+002, 2.236640e+003
1.642389e+002, 2.235000e+003
1.647210e+002, 2.232826e+003
1.652031e+002, 2.231281e+003
1.656852e+002, 2.231175e+003
1.661674e+002, 2.230808e+003
1.666495e+002, 2.229980e+003
1.671316e+002, 2.228718e+003
1.676137e+002, 2.226952e+003
1.680958e+002, 2.224511e+003
1.685779e+002, 2.221648e+003
1.690601e+002, 2.219925e+003
1.695422e+002, 2.220245e+003
1.700243e+002, 2.220527e+003
1.705064e+002, 2.219717e+003
1.709885e+002, 2.218066e+003
1.714706e+002, 2.216603e+003
1.719528e+002, 2.215934e+003
1.724349e+002, 2.216020e+003
1.729170e+002, 2.216302e+003
1.733991e+002, 2.217275e+003
1.738812e+002, 2.218043e+003
1.743633e+002, 2.217882e+003
1.748455e+002, 2.216771e+003
1.753276e+002, 2.215227e+003
1.758097e+002, 2.212999e+003
1.762918e+002, 2.210663e+003
1.767739e+002, 2.209294e+003
1.772560e+002, 2.209430e+003
1.777382e+002, 2.210427e+003
1.782203e+002, 2.211572e+003
1.787024e+002, 2.213020e+003
1.791845e+002, 2.214102e+003
1.796666e+002, 2.214087e+003
1.801487e+002, 2.213597e+003
1.806309e+002, 2.213401e+003
1.811130e+002, 2.213847e+003
1.815951e+002, 2.214783e+003
1.820772e+002, 2.215917e+003
1.825593e+002, 2.217719e+003
1.830414e+002, 2.218859e+003
1.835236e+002, 2.218462e+003
1.840057e+002, 2.217304e+003
1.844878e+002, 2.216463e+003
1.849699e+002, 2.216578e+003
1.854520e+002, 2.217526e+003
1.859341e+002, 2.218579e+003
1.864163e+002, 2.220091e+003
1.868984e+002, 2.221269e+003
1.873805e+002, 2.222195e+003
1.878626e+002, 2.222655e+003
1.883447e+002, 2.222194e+003
1.888268e+002, 2.220332e+003
1.893090e+002, 2.217152e+003
1.897911e+002, 2.215256e+003
1.902732e+002, 2.216769e+003
1.907553e+002, 2.217437e+003
1.912374e+002, 2.215110e+003
1.917195e+002, 2.210924e+003
1.922017e+002, 2.207603e+003
1.926838e+002, 2.207388e+003
1.931659e+002, 2.210465e+003
1.936480e+002, 2.212077e+003
1.941301e+002, 2.211503e+003
1.946122e+002, 2.210547e+003
1.950944e+002, 2.209922e+003
1.955765e+002, 2.209601e+003
1.960586e+002, 2.209132e+003
1.965407e+002, 2.207999e+003
1.970228e+002, 2.206190e+003
1.975049e+002, 2.205688e+003
1.979871e+002, 2.207035e+003
1.984692e+002, 2.209051e+003
1.989513e+002, 2.211313e+003
1.994334e+002, 2.213697e+003
1.999155e+002, 2.215802e+003
2.003976e+002, 2.217310e+003
2.008798e+002, 2.218169e+003
2.013619e+002, 2.218687e+003
2.018440e+002, 2.218294e+003
2.023261e+002, 2.217926e+003
2.028082e+002, 2.218702e+003
2.032903e+002, 2.220734e+003
2.037725e+002, 2.222610e+003
2.042546e+002, 2.223144e+003
2.047367e+002, 2.222633e+003
2.052188e+002, 2.221868e+003
2.057009e+002, 2.220692e+003
2.061830e+002, 2.219476e+003
2.066652e+002, 2.218711e+003
2.071473e+002, 2.218440e+003
2.076294e+002, 2.218510e+003
2.081115e+002, 2.218905e+003
2.085936e+002, 2.219557e+003
2.090757e+002, 2.220441e+003
2.095579e+002, 2.221764e+003
2.100400e+002, 2.223218e+003
2.105221e+002, 2.224192e+003
2.110042e+002, 2.224610e+003
2.114863e+002, 2.224665e+003
2.119685e+002, 2.223909e+003
2.124506e+002, 2.222969e+003
2.129327e+002, 2.222871e+003
2.134148e+002, 2.224423e+003
2.138969e+002, 2.226992e+003
2.143790e+002, 2.228495e+003
2.148612e+002, 2.228058e+003
2.153433e+002, 2.227999e+003
2.158254e+002, 2.229573e+003
2.163075e+002, 2.231874e+003
2.167896e+002, 2.233671e+003
2.172717e+002, 2.234248e+003
2.177539e+002, 2.233819e+003
2.182360e+002, 2.233233e+003
2.187181e+002, 2.231744e+003
2.192002e+002, 2.231182e+003
2.196823e+002, 2.232917e+003
2.201644e+002, 2.235589e+003
2.206466e+002, 2.237171e+003
2.211287e+002, 2.236314e+003
2.216108e+002, 2.233593e+003
2.220929e+002, 2.232333e+003
2.225750e+002, 2.234788e+003
2.230571e+002, 2.236273e+003
2.235393e+002, 2.235390e+003
2.240214e+002, 2.233177e+003
2.245035e+002, 2.231081e+003
2.249856e+002, 2.229948e+003
2.254677e+002, 2.229700e+003
2.259498e+002, 2.229869e+003
2.264320e+002, 2.230830e+003
2.269141e+002, 2.231825e+003
2.273962e+002, 2.232970e+003
2.278783e+002, 2.234039e+003
2.283604e+002, 2.234607e+003
2.288425e+002, 2.234370e+003
2.293247e+002, 2.233569e+003
2.298068e+002, 2.233611e+003
2.302889e+002, 2.236214e+003
2.307710e+002, 2.237652e+003
2.312531e+002, 2.236032e+003
2.317352e+002, 2.232819e+003
2.322174e+002, 2.230630e+003
2.326995e+002, 2.230928e+003
2.331816e+002, 2.233157e+003
2.336637e+002, 2.234920e+003
2.341458e+002, 2.236648e+003
2.346279e+002, 2.237531e+003
2.351101e+002, 2.236840e+003
2.355922e+002, 2.235168e+003
2.360743e+002, 2.233708e+003
2.365564e+002, 2.233085e+003
2.370385e+002, 2.232980e+003
2.375206e+002, 2.232300e+003
2.380028e+002, 2.230146e+003
2.384849e+002, 2.228886e+003
2.389670e+002, 2.230005e+003
2.394491e+002, 2.232626e+003
2.399312e+002, 2.234878e+003
2.404133e+002, 2.236081e+003
2.408955e+002, 2.236262e+003
2.413776e+002, 2.235239e+003
2.418597e+002, 2.232224e+003
2.423418e+002, 2.230124e+003
2.428239e+002, 2.230815e+003
2.433060e+002, 2.233440e+003
2.437882e+002, 2.235719e+003
2.442703e+002, 2.236944e+003
2.447524e+002, 2.237292e+003
2.452345e+002, 2.237196e+003
2.457166e+002, 2.236755e+003
2.461987e+002, 2.235591e+003
2.466809e+002, 2.232343e+003
2.471630e+002, 2.227992e+003
2.476451e+002, 2.226120e+003
2.481272e+002, 2.228785e+003
2.486093e+002, 2.232844e+003
2.490914e+002, 2.234452e+003
2.495736e+002, 2.233594e+003
2.500557e+002, 2.232336e+003
2.505378e+002, 2.231900e+003
2.510199e+002, 2.232026e+003
2.515020e+002, 2.231633e+003
2.519841e+002, 2.230374e+003
2.524663e+002, 2.228701e+003
2.529484e+002, 2.226960e+003
2.534305e+002, 2.225173e+003
2.539126e+002, 2.223474e+003
2.543947e+002, 2.221971e+003
2.548768e+002, 2.220632e+003
2.553590e+002, 2.219359e+003
2.558411e+002, 2.218290e+003
2.563232e+002, 2.217058e+003
2.568053e+002, 2.215256e+003
2.572874e+002, 2.213058e+003
2.577695e+002, 2.211072e+003
2.582516e+002, 2.209645e+003
2.587338e+002, 2.208737e+003
2.592159e+002, 2.208348e+003
2.596980e+002, 2.209458e+003
2.601801e+002, 2.209573e+003
2.606622e+002, 2.206948e+003
2.611443e+002, 2.202477e+003
2.616265e+002, 2.198086e+003
2.621086e+002, 2.194580e+003
2.625907e+002, 2.192055e+003
2.630728e+002, 2.191280e+003
2.635549e+002, 2.193628e+003
2.640370e+002, 2.195637e+003
2.645192e+002, 2.195630e+003
2.650013e+002, 2.194425e+003
2.654834e+002, 2.193451e+003
2.659655e+002, 2.193748e+003
2.664476e+002, 2.194667e+003
2.669297e+002, 2.193707e+003
2.674119e+002, 2.189412e+003
2.678940e+002, 2.185571e+003
2.683761e+002, 2.183610e+003
2.688582e+002, 2.182629e+003
2.693403e+002, 2.181501e+003
2.698224e+002, 2.179679e+003
2.703046e+002, 2.177447e+003
2.707867e+002, 2.175463e+003
2.712688e+002, 2.173278e+003
2.717509e+002, 2.172297e+003
2.722330e+002, 2.173482e+003
2.727151e+002, 2.175479e+003
2.731973e+002, 2.176960e+003
2.736794e+002, 2.177390e+003
2.741615e+002, 2.177155e+003
2.746436e+002, 2.177091e+003
2.751257e+002, 2.177403e+003
2.756078e+002, 2.177435e+003
2.760900e+002, 2.176813e+003
2.765721e+002, 2.176078e+003
2.770542e+002, 2.175675e+003
2.775363e+002, 2.175728e+003
2.780184e+002, 2.176054e+003
2.785005e+002, 2.176498e+003
2.789827e+002, 2.177625e+003
2.794648e+002, 2.177505e+003
2.799469e+002, 2.174457e+003
2.804290e+002, 2.171455e+003
2.809111e+002, 2.170803e+003
2.813932e+002, 2.172745e+003
2.818754e+002, 2.175603e+003
2.823575e+002, 2.177281e+003
2.828396e+002, 2.177582e+003
2.833217e+002, 2.177191e+003
2.838038e+002, 2.174616e+003
2.842859e+002, 2.172663e+003
2.847681e+002, 2.173317e+003
2.852502e+002, 2.176339e+003
2.857323e+002, 2.179861e+003
2.862144e+002, 2.181896e+003
2.866965e+002, 2.182073e+003
2.871786e+002, 2.182908e+003
2.876608e+002, 2.186356e+003
2.881429e+002, 2.188602e+003
2.886250e+002, 2.187041e+003
2.891071e+002, 2.182720e+003
2.895892e+002, 2.178709e+003
2.900714e+002, 2.177495e+003
2.905535e+002, 2.179120e+003
2.910356e+002, 2.181208e+003
2.915177e+002, 2.184610e+003
2.919998e+002, 2.187590e+003
2.924819e+002, 2.189766e+003
2.929641e+002, 2.191173e+003
2.934462e+002, 2.191789e+003
2.939283e+002, 2.191483e+003
2.944104e+002, 2.190539e+003
2.948925e+002, 2.190899e+003
2.953746e+002, 2.194206e+003
2.958568e+002, 2.197043e+003
2.963389e+002, 2.199165e+003
2.968210e+002, 2.200477e+003
2.973031e+002, 2.200655e+003
2.977852e+002, 2.199516e+003
2.982673e+002, 2.197657e+003
2.987495e+002, 2.196874e+003
2.992316e+002, 2.198217e+003
2.997137e+002, 2.199382e+003
3.001958e+002, 2.200221e+003
3.006779e+002, 2.200854e+003
3.011600e+002, 2.201304e+003
3.016422e+002, 2.201602e+003
3.021243e+002, 2.201960e+003
3.026064e+002, 2.202831e+003
3.030885e+002, 2.205067e+003
3.035706e+002, 2.206233e+003
3.040527e+002, 2.206007e+003
3.045349e+002, 2.205033e+003
3.050170e+002, 2.203493e+003
3.054991e+002, 2.201566e+003
3.059812e+002, 2.199748e+003
3.064633e+002, 2.198704e+003
3.069454e+002, 2.198777e+003
3.074276e+002, 2.198473e+003
3.079097e+002, 2.198125e+003
3.083918e+002, 2.197227e+003
3.088739e+002, 2.195031e+003
3.093560e+002, 2.191868e+003
3.098381e+002, 2.189052e+003
3.103203e+002, 2.187843e+003
3.108024e+002, 2.188436e+003
3.112845e+002, 2.187751e+003
3.117666e+002, 2.184273e+003
3.122487e+002, 2.181265e+003
3.127308e+002, 2.180488e+003
3.132130e+002, 2.181066e+003
3.136951e+002, 2.181101e+003
3.141772e+002, 2.179403e+003
3.146593e+002, 2.176075e+003
3.151414e+002, 2.171871e+003
3.156235e+002, 2.164528e+003
3.161057e+002, 2.158867e+003
3.165878e+002, 2.156739e+003
3.170699e+002, 2.156443e+003
3.175520e+002, 2.155981e+003
3.180341e+002, 2.154462e+003
3.185162e+002, 2.151765e+003
3.189984e+002, 2.147540e+003
3.194805e+002, 2.138795e+003
3.199626e+002, 2.132506e+003
3.204447e+002, 2.131063e+003
3.209268e+002, 2.130823e+003
3.214089e+002, 2.128118e+003
3.218911e+002, 2.122100e+003
3.223732e+002, 2.115082e+003
3.228553e+002, 2.110566e+003
3.233374e+002, 2.110424e+003
3.238195e+002, 2.108229e+003
3.243016e+002, 2.102895e+003
3.247838e+002, 2.096689e+003
3.252659e+002, 2.090622e+003
3.257480e+002, 2.084983e+003
3.262301e+002, 2.080041e+003
3.267122e+002, 2.076144e+003
3.271943e+002, 2.073514e+003
3.276765e+002, 2.070100e+003
3.281586e+002, 2.065851e+003
3.286407e+002, 2.060977e+003
3.291228e+002, 2.054872e+003
3.296049e+002, 2.048158e+003
3.300870e+002, 2.042137e+003
3.305692e+002, 2.037749e+003
3.310513e+002, 2.034741e+003
3.315334e+002, 2.031252e+003
3.320155e+002, 2.026290e+003
3.324976e+002, 2.021924e+003
3.329797e+002, 2.019184e+003
3.334619e+002, 2.016994e+003
3.339440e+002, 2.013824e+003
3.344261e+002, 2.008985e+003
3.349082e+002, 2.003311e+003
3.353904e+002, 1.998787e+003
3.358725e+002, 1.996890e+003
3.363546e+002, 1.993912e+003
3.368367e+002, 1.989086e+003
3.373188e+002, 1.983646e+003
3.378009e+002, 1.978487e+003
3.382831e+002, 1.973864e+003
3.387652e+002, 1.969581e+003
3.392473e+002, 1.965331e+003
3.397294e+002, 1.960742e+003
3.402115e+002, 1.957363e+003
3.406936e+002, 1.956174e+003
3.411758e+002, 1.955136e+003
3.416579e+002, 1.953361e+003
3.421400e+002, 1.950807e+003
3.426221e+002, 1.947771e+003
3.431042e+002, 1.944394e+003
3.435863e+002, 1.940669e+003
3.440685e+002, 1.937564e+003
3.445506e+002, 1.935779e+003
3.450327e+002, 1.933941e+003
3.455148e+002, 1.931738e+003
3.459969e+002, 1.929285e+003
3.464790e+002, 1.926933e+003
3.469612e+002, 1.924917e+003
3.474433e+002, 1.922888e+003
3.479254e+002, 1.919442e+003
3.484075e+002, 1.912590e+003
3.488896e+002, 1.907702e+003
3.493717e+002, 1.906360e+003
3.498539e+002, 1.906598e+003
3.503360e+002, 1.906940e+003
3.508181e+002, 1.906880e+003
3.513002e+002, 1.906397e+003
3.517823e+002, 1.905348e+003
3.522644e+002, 1.903488e+003
3.527466e+002, 1.901886e+003
3.532287e+002, 1.901464e+003
3.537108e+002, 1.900608e+003
3.541929e+002, 1.897996e+003
3.546750e+002, 1.893942e+003
3.551571e+002, 1.890061e+003
3.556393e+002, 1.887947e+003
3.561214e+002, 1.887580e+003
3.566035e+002, 1.886690e+003
3.570856e+002, 1.885010e+003
3.575677e+002, 1.883094e+003
3.580498e+002, 1.880937e+003
3.585320e+002, 1.878733e+003
3.590141e+002, 1.876821e+003
3.594962e+002, 1.875470e+003
3.599783e+002, 1.874410e+003
3.604604e+002, 1.872911e+003
3.609425e+002, 1.870754e+003
3.614247e+002, 1.868629e+003
3.619068e+002, 1.866990e+003
3.623889e+002, 1.865334e+003
3.628710e+002, 1.862973e+003
3.633531e+002, 1.859683e+003
3.638352e+002, 1.856516e+003
3.643174e+002, 1.854825e+003
3.647995e+002, 1.854733e+003
3.652816e+002, 1.854829e+003
3.657637e+002, 1.855461e+003
3.662458e+002, 1.855653e+003
3.667279e+002, 1.855022e+003
3.672101e+002, 1.853480e+003
3.676922e+002, 1.850775e+003
3.681743e+002, 1.845838e+003
3.686564e+002, 1.839358e+003
3.691385e+002, 1.834739e+003
3.696206e+002, 1.832872e+003
3.701028e+002, 1.831332e+003
3.705849e+002, 1.828267e+003
3.710670e+002, 1.824543e+003
3.715491e+002, 1.821775e+003
3.720312e+002, 1.820692e+003
3.725133e+002, 1.820642e+003
3.729955e+002, 1.821190e+003
3.734776e+002, 1.822521e+003
3.739597e+002, 1.822564e+003
3.744418e+002, 1.819625e+003
3.749239e+002, 1.815333e+003
3.754060e+002, 1.811659e+003
3.758882e+002, 1.808746e+003
3.763703e+002, 1.806499e+003
3.768524e+002, 1.805097e+003
3.773345e+002, 1.804364e+003
3.778166e+002, 1.803594e+003
3.782987e+002, 1.802696e+003
3.787809e+002, 1.801589e+003
3.792630e+002, 1.800125e+003
3.797451e+002, 1.798344e+003
3.802272e+002, 1.796514e+003
3.807093e+002, 1.794576e+003
3.811914e+002, 1.792715e+003
3.816736e+002, 1.791364e+003
3.821557e+002, 1.790595e+003
3.826378e+002, 1.789513e+003
3.831199e+002, 1.787136e+003
3.836020e+002, 1.783910e+003
3.840841e+002, 1.781808e+003
3.845663e+002, 1.782056e+003
3.850484e+002, 1.782236e+003
3.855305e+002, 1.780486e+003
3.860126e+002, 1.777443e+003
3.864947e+002, 1.775287e+003
3.869768e+002, 1.775151e+003
3.874590e+002, 1.775890e+003
3.879411e+002, 1.774823e+003
3.884232e+002, 1.771114e+003
3.889053e+002, 1.768420e+003
3.893874e+002, 1.768247e+003
3.898695e+002, 1.769088e+003
3.903517e+002, 1.769178e+003
3.908338e+002, 1.768202e+003
3.913159e+002, 1.767091e+003
3.917980e+002, 1.766942e+003
3.922801e+002, 1.767980e+003
3.927622e+002, 1.767664e+003
3.932444e+002, 1.764705e+003
3.937265e+002, 1.761750e+003
3.942086e+002, 1.760277e+003
3.946907e+002, 1.759944e+003
3.951728e+002, 1.759696e+003
3.956549e+002, 1.758966e+003
3.961371e+002, 1.757768e+003
3.966192e+002, 1.756172e+003
3.971013e+002, 1.752829e+003
3.975834e+002, 1.750785e+003
3.980655e+002, 1.751288e+003
3.985476e+002, 1.752675e+003
3.990298e+002, 1.753389e+003
3.995119e+002, 1.752982e+003
3.999940e+002, 1.751854e+003
4.004761e+002, 1.750454e+003
4.009582e+002, 1.748569e+003
4.014403e+002, 1.747188e+003
4.019225e+002, 1.747054e+003
4.024046e+002, 1.746660e+003
4.028867e+002, 1.744827e+003
4.033688e+002, 1.742123e+003
4.038509e+002, 1.740077e+003
4.043330e+002, 1.739859e+003
4.048152e+002, 1.741054e+003
4.052973e+002, 1.741298e+003
4.057794e+002, 1.740031e+003
4.062615e+002, 1.738570e+003
4.067436e+002, 1.736716e+003
4.072257e+002, 1.735026e+003
4.077079e+002, 1.734334e+003
4.081900e+002, 1.734846e+003
4.086721e+002, 1.735464e+003
4.091542e+002, 1.734372e+003
4.096363e+002, 1.731074e+003
4.101184e+002, 1.728836e+003
4.106006e+002, 1.728960e+003
4.110827e+002, 1.729380e+003
4.115648e+002, 1.729257e+003
4.120469e+002, 1.728557e+003
4.125290e+002, 1.727432e+003
4.130111e+002, 1.725960e+003
4.134933e+002, 1.724148e+003
4.139754e+002, 1.721766e+003
4.144575e+002, 1.718309e+003
4.149396e+002, 1.715667e+003
4.154217e+002, 1.715001e+003
4.159038e+002, 1.715576e+003
4.163860e+002, 1.716926e+003
4.168681e+002, 1.719289e+003
4.173502e+002, 1.721310e+003
4.178323e+002, 1.721316e+003
4.183144e+002, 1.719558e+003
4.187965e+002, 1.718300e+003
4.192787e+002, 1.718435e+003
4.197608e+002, 1.718746e+003
4.202429e+002, 1.717726e+003
4.207250e+002, 1.715498e+003
4.212071e+002, 1.713458e+003
4.216892e+002, 1.712233e+003
4.221714e+002, 1.711384e+003
4.226535e+002, 1.710324e+003
4.231356e+002, 1.709006e+003
4.236177e+002, 1.707711e+003
4.240998e+002, 1.706632e+003
4.245819e+002, 1.705731e+003
4.250641e+002, 1.704786e+003
4.255462e+002, 1.703006e+003
4.260283e+002, 1.702165e+003
4.265104e+002, 1.704175e+003
4.269925e+002, 1.707514e+003
4.274746e+002, 1.709134e+003
4.279568e+002, 1.707960e+003
4.284389e+002, 1.705261e+003
4.289210e+002, 1.702873e+003
4.294031e+002, 1.700962e+003
4.298852e+002, 1.698924e+003
4.303673e+002, 1.695809e+003
4.308495e+002, 1.693311e+003
4.313316e+002, 1.693148e+003
4.318137e+002, 1.694871e+003
4.322958e+002, 1.696385e+003
4.327779e+002, 1.696130e+003
4.332600e+002, 1.694365e+003
4.337422e+002, 1.693224e+003
4.342243e+002, 1.693566e+003
4.347064e+002, 1.693510e+003
4.351885e+002, 1.692365e+003
4.356706e+002, 1.690915e+003
4.361527e+002, 1.690097e+003
4.366349e+002, 1.690154e+003
4.371170e+002, 1.690499e+003
4.375991e+002, 1.690203e+003
4.380812e+002, 1.688912e+003
4.385633e+002, 1.688277e+003
4.390454e+002, 1.689299e+003
4.395276e+002, 1.690043e+003
4.400097e+002, 1.689758e+003
4.404918e+002, 1.688578e+003
4.409739e+002, 1.686865e+003
4.414560e+002, 1.684693e+003
4.419381e+002, 1.682343e+003
4.424203e+002, 1.680654e+003
4.429024e+002, 1.679861e+003
4.433845e+002, 1.679149e+003
4.438666e+002, 1.677845e+003
4.443487e+002, 1.676791e+003
4.448308e+002, 1.677016e+003
4.453130e+002, 1.678691e+003
4.457951e+002, 1.680224e+003
4.462772e+002, 1.680053e+003
4.467593e+002, 1.678516e+003
4.472414e+002, 1.677484e+003
4.477235e+002, 1.677555e+003
4.482057e+002, 1.677330e+003
4.486878e+002, 1.674847e+003
4.491699e+002, 1.671202e+003
4.496520e+002, 1.669184e+003
4.501341e+002, 1.670747e+003
4.506162e+002, 1.673034e+003
4.510984e+002, 1.673515e+003
4.515805e+002, 1.672357e+003
4.520626e+002, 1.670423e+003
4.525447e+002, 1.667643e+003
4.530268e+002, 1.664838e+003
4.535089e+002, 1.663757e+003
4.539911e+002, 1.664560e+003
4.544732e+002, 1.665600e+003
4.549553e+002, 1.666955e+003
4.554374e+002, 1.668109e+003
4.559195e+002, 1.668488e+003
4.564016e+002, 1.668056e+003
4.568838e+002, 1.667202e+003
4.573659e+002, 1.666270e+003
4.578480e+002, 1.665223e+003
4.583301e+002, 1.663327e+003
4.588122e+002, 1.659403e+003
4.592943e+002, 1.656152e+003
4.597765e+002, 1.654256e+003
4.602586e+002, 1.653397e+003
4.607407e+002, 1.653503e+003
4.612228e+002, 1.654448e+003
4.617049e+002, 1.655286e+003
4.621870e+002, 1.654474e+003
4.626692e+002, 1.651296e+003
4.631513e+002, 1.648771e+003
4.636334e+002, 1.647072e+003
4.641155e+002, 1.645839e+003
4.645976e+002, 1.644983e+003
4.650797e+002, 1.644490e+003
4.655619e+002, 1.644525e+003
4.660440e+002, 1.645406e+003
4.665261e+002, 1.646434e+003
4.670082e+002, 1.645243e+003
4.674903e+002, 1.640484e+003
4.679724e+002, 1.637184e+003
4.684546e+002, 1.637790e+003
4.689367e+002, 1.639509e+003
4.694188e+002, 1.640432e+003
4.699009e+002, 1.640355e+003
4.703830e+002, 1.640150e+003
4.708651e+002, 1.640641e+003
4.713473e+002, 1.641546e+003
4.718294e+002, 1.641831e+003
4.723115e+002, 1.641353e+003
4.727936e+002, 1.640477e+003
4.732757e+002, 1.639204e+003
4.737578e+002, 1.637724e+003
4.742400e+002, 1.636412e+003
4.747221e+002, 1.635413e+003
4.752042e+002, 1.634436e+003
4.756863e+002, 1.633022e+003
4.761684e+002, 1.631454e+003
4.766505e+002, 1.630781e+003
4.771327e+002, 1.631492e+003
4.776148e+002, 1.632366e+003
4.780969e+002, 1.631775e+003
4.785790e+002, 1.629486e+003
4.790611e+002, 1.627389e+003
4.795432e+002, 1.625317e+003
4.800254e+002, 1.623713e+003
4.805075e+002, 1.623415e+003
4.809896e+002, 1.623890e+003
4.814717e+002, 1.623418e+003
4.819538e+002, 1.620932e+003
4.824359e+002, 1.617427e+003
4.829181e+002, 1.615794e+003
4.834002e+002, 1.618172e+003
4.838823e+002, 1.619334e+003
4.843644e+002, 1.618686e+003
4.848465e+002, 1.617271e+003
4.853286e+002, 1.615512e+003
4.858108e+002, 1.613658e+003
4.862929e+002, 1.612167e+003
4.867750e+002, 1.611609e+003
4.872571e+002, 1.611773e+003
4.877392e+002, 1.610631e+003
4.882213e+002, 1.606590e+003
4.887035e+002, 1.603883e+003
4.891856e+002, 1.604225e+003
4.896677e+002, 1.605944e+003
4.901498e+002, 1.607807e+003
4.906319e+002, 1.609508e+003
4.911140e+002, 1.609998e+003
4.915962e+002, 1.607287e+003
4.920783e+002, 1.601914e+003
4.925604e+002, 1.598594e+003
4.930425e+002, 1.598598e+003
4.935246e+002, 1.599155e+003
4.940067e+002, 1.598004e+003
4.944889e+002, 1.595875e+003
4.949710e+002, 1.594400e+003
4.954531e+002, 1.594264e+003
4.959352e+002, 1.594537e+003
4.964173e+002, 1.594636e+003
4.968994e+002, 1.594552e+003
4.973816e+002, 1.594285e+003
4.978637e+002, 1.593885e+003
4.983458e+002, 1.593152e+003
4.988279e+002, 1.591709e+003
4.993100e+002, 1.589390e+003
4.997921e+002, 1.587179e+003
5.002743e+002, 1.584982e+003
5.007564e+002, 1.583048e+003
5.012385e+002, 1.581694e+003
5.017206e+002, 1.580762e+003
5.022027e+002, 1.579772e+003
5.026848e+002, 1.578424e+003
5.031670e+002, 1.576966e+003
5.036491e+002, 1.576252e+003
5.041312e+002, 1.577804e+003
5.046133e+002, 1.577533e+003
5.050954e+002, 1.573127e+003
5.055775e+002, 1.568775e+003
5.060597e+002, 1.567680e+003
5.065418e+002, 1.569560e+003
5.070239e+002, 1.571894e+003
5.075060e+002, 1.572844e+003
5.079881e+002, 1.572586e+003
5.084702e+002, 1.571910e+003
5.089524e+002, 1.570742e+003
5.094345e+002, 1.569321e+003
5.099166e+002, 1.567435e+003
5.103987e+002, 1.565512e+003
5.108808e+002, 1.564020e+003
5.113629e+002, 1.563033e+003
5.118451e+002, 1.562058e+003
5.123271e+002, 1.560734e+003
5.128093e+002, 1.559149e+003
5.132914e+002, 1.557592e+003
5.137735e+002, 1.556112e+003
5.142556e+002, 1.554509e+003
5.147377e+002, 1.552270e+003
5.152198e+002, 1.549852e+003
5.157020e+002, 1.548715e+003
5.161841e+002, 1.549621e+003
5.166662e+002, 1.550753e+003
5.171483e+002, 1.551517e+003
5.176304e+002, 1.551921e+003
5.181125e+002, 1.552124e+003
5.185947e+002, 1.552144e+003
5.190768e+002, 1.551422e+003
5.195589e+002, 1.549127e+003
5.200410e+002, 1.544924e+003
5.205231e+002, 1.542289e+003
5.210052e+002, 1.542434e+003
5.214874e+002, 1.542521e+003
5.219695e+002, 1.541652e+003
5.224516e+002, 1.540171e+003
5.229337e+002, 1.538528e+003
5.234158e+002, 1.536910e+003
5.238979e+002, 1.535514e+003
5.243801e+002, 1.534626e+003
5.248622e+002, 1.534287e+003
5.253443e+002, 1.534334e+003
5.258264e+002, 1.535830e+003
5.263085e+002, 1.536513e+003
5.267906e+002, 1.534725e+003
5.272728e+002, 1.531565e+003
5.277549e+002, 1.529214e+003
5.282370e+002, 1.528798e+003
5.287191e+002, 1.528964e+003
5.292012e+002, 1.527741e+003
5.296833e+002, 1.525257e+003
5.301655e+002, 1.523531e+003
5.306476e+002, 1.523270e+003
5.311297e+002, 1.523568e+003
5.316118e+002, 1.523367e+003
5.320939e+002, 1.522759e+003
5.325760e+002, 1.522547e+003
5.330582e+002, 1.523619e+003
5.335403e+002, 1.524523e+003
5.340224e+002, 1.523786e+003
5.345045e+002, 1.521910e+003
5.349866e+002, 1.520591e+003
5.354688e+002, 1.520633e+003
5.359509e+002, 1.521234e+003
5.364330e+002, 1.520880e+003
5.369151e+002, 1.519039e+003
5.373972e+002, 1.517492e+003
5.378793e+002, 1.516828e+003
5.383615e+002, 1.515889e+003
5.388436e+002, 1.513444e+003
5.393257e+002, 1.510232e+003
5.398078e+002, 1.508064e+003
5.402899e+002, 1.508023e+003
5.407720e+002, 1.509207e+003
5.412542e+002, 1.509586e+003
5.417363e+002, 1.509004e+003
5.422184e+002, 1.508088e+003
5.427005e+002, 1.506286e+003
5.431826e+002, 1.504718e+003
5.436647e+002, 1.504127e+003
5.441469e+002, 1.504373e+003
5.446290e+002, 1.504810e+003
5.451111e+002, 1.505654e+003
5.455932e+002, 1.506104e+003
5.460753e+002, 1.504405e+003
5.465574e+002, 1.500658e+003
5.470396e+002, 1.497688e+003
5.475217e+002, 1.496604e+003
5.480038e+002, 1.496739e+003
5.484859e+002, 1.497576e+003
5.489680e+002, 1.499372e+003
5.494501e+002, 1.499681e+003
5.499323e+002, 1.496585e+003
5.504144e+002, 1.493049e+003
5.508965e+002, 1.491674e+003
5.513786e+002, 1.492015e+003
5.518607e+002, 1.491979e+003
5.523428e+002, 1.490404e+003
5.528250e+002, 1.487979e+003
5.533071e+002, 1.486408e+003
5.537892e+002, 1.486132e+003
5.542713e+002, 1.485955e+003
5.547534e+002, 1.486292e+003
5.552355e+002, 1.486350e+003
5.557177e+002, 1.485385e+003
5.561998e+002, 1.483751e+003
5.566819e+002, 1.482493e+003
5.571640e+002, 1.482373e+003
5.576461e+002, 1.482710e+003
5.581282e+002, 1.481885e+003
5.586104e+002, 1.479674e+003
5.590925e+002, 1.477727e+003
5.595746e+002, 1.476365e+003
5.600567e+002, 1.475502e+003
5.605388e+002, 1.475196e+003
5.610209e+002, 1.475354e+003
5.615031e+002, 1.475307e+003
5.619852e+002, 1.474819e+003
5.624673e+002, 1.474003e+003
5.629494e+002, 1.472846e+003
5.634315e+002, 1.471420e+003
5.639136e+002, 1.469969e+003
5.643958e+002, 1.468502e+003
5.648779e+002, 1.467334e+003
5.653600e+002, 1.467127e+003
5.658421e+002, 1.468536e+003
5.663242e+002, 1.468968e+003
5.668063e+002, 1.467598e+003
5.672885e+002, 1.466046e+003
5.677706e+002, 1.465415e+003
5.682527e+002, 1.465293e+003
5.687348e+002, 1.464515e+003
5.692169e+002, 1.462482e+003
5.696990e+002, 1.460115e+003
5.701812e+002, 1.459452e+003
5.706633e+002, 1.461149e+003
5.711454e+002, 1.461887e+003
5.716275e+002, 1.460454e+003
5.721096e+002, 1.458998e+003
5.725917e+002, 1.458645e+003
5.730739e+002, 1.459094e+003
5.735560e+002, 1.459625e+003
5.740381e+002, 1.460110e+003
5.745202e+002, 1.460323e+003
5.750023e+002, 1.460060e+003
5.754844e+002, 1.459319e+003
5.759666e+002, 1.457891e+003
5.764487e+002, 1.455478e+003
5.769308e+002, 1.453169e+003
5.774129e+002, 1.452243e+003
5.778950e+002, 1.452744e+003
5.783771e+002, 1.452832e+003
5.788593e+002, 1.452321e+003
5.793414e+002, 1.451536e+003
5.798235e+002, 1.450327e+003
5.803056e+002, 1.449023e+003
5.807877e+002, 1.448113e+003
5.812698e+002, 1.447748e+003
5.817520e+002, 1.447826e+003
5.822341e+002, 1.448393e+003
5.827162e+002, 1.449621e+003
5.831984e+002, 1.449667e+003
5.836805e+002, 1.447751e+003
5.841626e+002, 1.445559e+003
5.846447e+002, 1.443003e+003
5.851268e+002, 1.440687e+003
5.856089e+002, 1.439583e+003
5.860911e+002, 1.439967e+003
5.865732e+002, 1.440398e+003
5.870553e+002, 1.439241e+003
5.875374e+002, 1.436992e+003
5.880195e+002, 1.435707e+003
5.885016e+002, 1.435732e+003
5.889838e+002, 1.435797e+003
5.894659e+002, 1.435053e+003
5.899480e+002, 1.433772e+003
5.904301e+002, 1.432811e+003
5.909122e+002, 1.432322e+003
5.913943e+002, 1.431851e+003
5.918765e+002, 1.431235e+003
5.923586e+002, 1.430586e+003
5.928407e+002, 1.429899e+003
5.933228e+002, 1.429257e+003
5.938049e+002, 1.429120e+003
5.942870e+002, 1.429995e+003
5.947692e+002, 1.431387e+003
5.952513e+002, 1.430815e+003
5.957334e+002, 1.426379e+003
5.962155e+002, 1.423359e+003
5.966976e+002, 1.423083e+003
5.971797e+002, 1.423576e+003
5.976619e+002, 1.423717e+003
5.981440e+002, 1.423399e+003
5.986261e+002, 1.422868e+003
5.991082e+002, 1.422145e+003
5.995903e+002, 1.421411e+003
6.000724e+002, 1.421081e+003
6.005546e+002, 1.421150e+003
6.010367e+002, 1.421120e+003
6.015188e+002, 1.420908e+003
6.020009e+002, 1.420403e+003
6.024830e+002, 1.419271e+003
6.029651e+002, 1.417524e+003
6.034473e+002, 1.416071e+003
6.039294e+002, 1.415213e+003
6.044115e+002, 1.414515e+003
6.048936e+002, 1.413842e+003
6.053757e+002, 1.413115e+003
6.058578e+002, 1.412148e+003
6.063400e+002, 1.410885e+003
6.068221e+002, 1.409583e+003
6.073042e+002, 1.408550e+003
6.077863e+002, 1.407755e+003
6.082684e+002, 1.407547e+003
6.087505e+002, 1.408888e+003
6.092327e+002, 1.409712e+003
6.097148e+002, 1.409242e+003
6.101969e+002, 1.408030e+003
6.106790e+002, 1.406810e+003
6.111611e+002, 1.405791e+003
6.116432e+002, 1.404506e+003
6.121254e+002, 1.402027e+003
6.126075e+002, 1.398944e+003
6.130896e+002, 1.397227e+003
6.135717e+002, 1.397102e+003
6.140538e+002, 1.397672e+003
6.145359e+002, 1.398860e+003
6.150181e+002, 1.400119e+003
6.155002e+002, 1.399709e+003
6.159823e+002, 1.396659e+003
6.164644e+002, 1.394307e+003
6.169465e+002, 1.393635e+003
6.174286e+002, 1.393690e+003
6.179108e+002, 1.393678e+003
6.183929e+002, 1.393610e+003
6.188750e+002, 1.393992e+003
6.193571e+002, 1.395206e+003
6.198392e+002, 1.396760e+003
6.203214e+002, 1.397376e+003
6.208035e+002, 1.396955e+003
6.212856e+002, 1.395900e+003
6.217677e+002, 1.393434e+003
6.222498e+002, 1.391136e+003
6.227319e+002, 1.390191e+003
6.232141e+002, 1.390070e+003
6.236962e+002, 1.389289e+003
6.241783e+002, 1.386881e+003
6.246604e+002, 1.384362e+003
6.251425e+002, 1.383278e+003
6.256246e+002, 1.383314e+003
6.261068e+002, 1.383608e+003
6.265889e+002, 1.384049e+003
6.270710e+002, 1.383994e+003
6.275531e+002, 1.382621e+003
6.280352e+002, 1.380027e+003
6.285173e+002, 1.378435e+003
6.289995e+002, 1.378640e+003
6.294816e+002, 1.378683e+003
6.299637e+002, 1.377781e+003
6.304458e+002, 1.376766e+003
6.309279e+002, 1.376570e+003
6.314100e+002, 1.377208e+003
6.318922e+002, 1.377963e+003
6.323743e+002, 1.378367e+003
6.328564e+002, 1.378330e+003
6.333385e+002, 1.377285e+003
6.338206e+002, 1.374818e+003
6.343027e+002, 1.373007e+003
6.347849e+002, 1.372585e+003
6.352670e+002, 1.372937e+003
6.357491e+002, 1.373719e+003
6.362312e+002, 1.374840e+003
6.367133e+002, 1.375361e+003
6.371954e+002, 1.374917e+003
6.376776e+002, 1.373839e+003
6.381597e+002, 1.371959e+003
6.386418e+002, 1.369695e+003
6.391239e+002, 1.368207e+003
6.396060e+002, 1.367885e+003
6.400881e+002, 1.367753e+003
6.405703e+002, 1.366536e+003
6.410524e+002, 1.364120e+003
6.415345e+002, 1.362135e+003
6.420166e+002, 1.361283e+003
6.424987e+002, 1.360063e+003
6.429808e+002, 1.357375e+003
6.434630e+002, 1.354655e+003
6.439451e+002, 1.353662e+003
6.444272e+002, 1.354578e+003
6.449093e+002, 1.355588e+003
6.453914e+002, 1.355085e+003
6.458735e+002, 1.353663e+003
6.463557e+002, 1.352758e+003
6.468378e+002, 1.352385e+003
6.473199e+002, 1.352284e+003
6.478020e+002, 1.352585e+003
6.482841e+002, 1.352749e+003
6.487662e+002, 1.351650e+003
6.492484e+002, 1.348889e+003
6.497305e+002, 1.347116e+003
6.502126e+002, 1.347532e+003
6.506947e+002, 1.347986e+003
6.511768e+002, 1.347055e+003
6.516589e+002, 1.345386e+003
6.521411e+002, 1.344238e+003
6.526232e+002, 1.344047e+003
6.531053e+002, 1.344274e+003
6.535874e+002, 1.344267e+003
6.540695e+002, 1.344022e+003
6.545516e+002, 1.343821e+003
6.550338e+002, 1.343895e+003
6.555159e+002, 1.343543e+003
6.559980e+002, 1.341852e+003
6.564801e+002, 1.339869e+003
6.569622e+002, 1.338896e+003
6.574443e+002, 1.339168e+003
6.579265e+002, 1.339174e+003
6.584086e+002, 1.337788e+003
6.588907e+002, 1.336112e+003
6.593728e+002, 1.335531e+003
6.598549e+002, 1.335835e+003
6.603370e+002, 1.335908e+003
6.608192e+002, 1.335243e+003
6.613013e+002, 1.334035e+003
6.617834e+002, 1.332523e+003
6.622655e+002, 1.330371e+003
6.627476e+002, 1.329150e+003
6.632297e+002, 1.329888e+003
6.637119e+002, 1.330432e+003
6.641940e+002, 1.330077e+003
6.646761e+002, 1.329172e+003
6.651582e+002, 1.328243e+003
6.656403e+002, 1.327429e+003
6.661224e+002, 1.326395e+003
6.666046e+002, 1.324489e+003
6.670867e+002, 1.322238e+003
6.675688e+002, 1.321001e+003
6.680509e+002, 1.320868e+003
6.685330e+002, 1.320865e+003
6.690151e+002, 1.320529e+003
6.694973e+002, 1.320024e+003
6.699794e+002, 1.319703e+003
6.704615e+002, 1.319753e+003
6.709436e+002, 1.319471e+003
6.714257e+002, 1.318453e+003
6.719078e+002, 1.317499e+003
6.723900e+002, 1.317198e+003
6.728721e+002, 1.317187e+003
6.733542e+002, 1.316791e+003
6.738363e+002, 1.315773e+003
6.743184e+002, 1.314521e+003
6.748005e+002, 1.313278e+003
6.752827e+002, 1.312108e+003
6.757648e+002, 1.311890e+003
6.762469e+002, 1.312981e+003
6.767290e+002, 1.313802e+003
6.772111e+002, 1.313481e+003
6.776932e+002, 1.312503e+003
6.781754e+002, 1.311821e+003
6.786575e+002, 1.311581e+003
6.791396e+002, 1.310863e+003
6.796217e+002, 1.308931e+003
6.801038e+002, 1.306910e+003
6.805859e+002, 1.305559e+003
6.810681e+002, 1.304828e+003
6.815502e+002, 1.304682e+003
6.820323e+002, 1.305074e+003
6.825144e+002, 1.305330e+003
6.829965e+002, 1.304132e+003
6.834786e+002, 1.301290e+003
6.839608e+002, 1.300501e+003
6.844429e+002, 1.303400e+003
6.849250e+002, 1.305394e+003
6.854071e+002, 1.303714e+003
6.858892e+002, 1.300659e+003
6.863713e+002, 1.298658e+003
6.868535e+002, 1.297988e+003
6.873356e+002, 1.297264e+003
6.878177e+002, 1.295137e+003
6.882998e+002, 1.293229e+003
6.887819e+002, 1.293756e+003
6.892640e+002, 1.296014e+003
6.897462e+002, 1.297583e+003
6.902283e+002, 1.297527e+003
6.907104e+002, 1.296448e+003
6.911925e+002, 1.295069e+003
6.916746e+002, 1.293277e+003
6.921567e+002, 1.292265e+003
6.926389e+002, 1.293245e+003
6.931210e+002, 1.293335e+003
6.936031e+002, 1.290580e+003
6.940852e+002, 1.287386e+003
6.945673e+002, 1.286475e+003
6.950494e+002, 1.288061e+003
6.955316e+002, 1.289706e+003
6.960137e+002, 1.290208e+003
6.964958e+002, 1.289824e+003
6.969779e+002, 1.288350e+003
6.974600e+002, 1.286155e+003
6.979421e+002, 1.285123e+003
6.984243e+002, 1.286045e+003
6.989064e+002, 1.287193e+003
6.993885e+002, 1.286274e+003
6.998706e+002, 1.283059e+003
7.003527e+002, 1.280797e+003
7.008348e+002, 1.280054e+003
7.013170e+002, 1.279603e+003
7.017991e+002, 1.279513e+003
7.022812e+002, 1.279444e+003
7.027633e+002, 1.279117e+003
7.032454e+002, 1.278497e+003
7.037275e+002, 1.277672e+003
7.042097e+002, 1.276490e+003
7.046918e+002, 1.275307e+003
7.051739e+002, 1.274856e+003
7.056560e+002, 1.274986e+003
7.061381e+002, 1.274635e+003
7.066202e+002, 1.273404e+003
7.071024e+002, 1.272206e+003
7.075845e+002, 1.272043e+003
7.080666e+002, 1.272887e+003
7.085487e+002, 1.273360e+003
7.090308e+002, 1.273501e+003
7.095129e+002, 1.273221e+003
7.099951e+002, 1.271908e+003
7.104772e+002, 1.270609e+003
7.109593e+002, 1.270393e+003
7.114414e+002, 1.271080e+003
7.119235e+002, 1.271598e+003
7.124056e+002, 1.271308e+003
7.128878e+002, 1.270569e+003
7.133699e+002, 1.269986e+003
7.138520e+002, 1.269491e+003
7.143341e+002, 1.268557e+003
7.148162e+002, 1.267017e+003
7.152983e+002, 1.265356e+003
7.157805e+002, 1.263875e+003
7.162626e+002, 1.262615e+003
7.167447e+002, 1.261805e+003
7.172268e+002, 1.261980e+003
7.177089e+002, 1.261827e+003
7.181910e+002, 1.260842e+003
7.186732e+002, 1.259848e+003
7.191553e+002, 1.259541e+003
7.196374e+002, 1.259717e+003
7.201195e+002, 1.259869e+003
7.206016e+002, 1.259826e+003
7.210837e+002, 1.259210e+003
7.215659e+002, 1.256849e+003
7.220480e+002, 1.253268e+003
7.225301e+002, 1.251614e+003
7.230122e+002, 1.252395e+003
7.234943e+002, 1.253913e+003
7.239764e+002, 1.255503e+003
7.244586e+002, 1.256882e+003
7.249407e+002, 1.257297e+003
7.254228e+002, 1.256413e+003
7.259049e+002, 1.255394e+003
7.263870e+002, 1.253923e+003
7.268691e+002, 1.252705e+003
7.273513e+002, 1.252217e+003
7.278334e+002, 1.252232e+003
7.283155e+002, 1.252524e+003
7.287976e+002, 1.252983e+003
7.292797e+002, 1.253063e+003
7.297618e+002, 1.251786e+003
7.302440e+002, 1.249657e+003
7.307261e+002, 1.248729e+003
7.312082e+002, 1.249157e+003
7.316903e+002, 1.249126e+003
7.321724e+002, 1.247717e+003
7.326545e+002, 1.245816e+003
7.331367e+002, 1.244746e+003
7.336188e+002, 1.244729e+003
7.341009e+002, 1.244311e+003
7.345830e+002, 1.242659e+003
7.350651e+002, 1.241597e+003
7.355472e+002, 1.242506e+003
7.360294e+002, 1.243900e+003
7.365115e+002, 1.243967e+003
7.369936e+002, 1.242540e+003
7.374757e+002, 1.240821e+003
7.379578e+002, 1.239574e+003
7.384399e+002, 1.238733e+003
7.389221e+002, 1.238304e+003
7.394042e+002, 1.238247e+003
7.398863e+002, 1.237823e+003
7.403684e+002, 1.236657e+003
7.408505e+002, 1.235877e+003
7.413326e+002, 1.236836e+003
7.418148e+002, 1.239286e+003
7.422969e+002, 1.240375e+003
7.427790e+002, 1.239420e+003
7.432611e+002, 1.238167e+003
7.437432e+002, 1.236307e+003
7.442253e+002, 1.234647e+003
7.447075e+002, 1.233926e+003
7.451896e+002, 1.233919e+003
7.456717e+002, 1.233917e+003
7.461538e+002, 1.233609e+003
7.466359e+002, 1.233099e+003
7.471180e+002, 1.232507e+003
7.476002e+002, 1.231818e+003
7.480823e+002, 1.230830e+003
7.485644e+002, 1.229496e+003
7.490465e+002, 1.228601e+003
7.495286e+002, 1.228800e+003
7.500107e+002, 1.229439e+003
7.504929e+002, 1.228884e+003
7.509750e+002, 1.226247e+003
7.514571e+002, 1.224619e+003
7.519392e+002, 1.224878e+003
7.524213e+002, 1.225082e+003
7.529034e+002, 1.224082e+003
7.533856e+002, 1.222731e+003
7.538677e+002, 1.222416e+003
7.543498e+002, 1.223395e+003
7.548319e+002, 1.224269e+003
7.553140e+002, 1.224013e+003
7.557961e+002, 1.222985e+003
7.562783e+002, 1.221370e+003
7.567604e+002, 1.219397e+003
7.572425e+002, 1.218335e+003
7.577246e+002, 1.218656e+003
7.582067e+002, 1.219566e+003
7.586888e+002, 1.220200e+003
7.591710e+002, 1.220557e+003
7.596531e+002, 1.220744e+003
7.601352e+002, 1.220780e+003
7.606173e+002, 1.220591e+003
7.610994e+002, 1.220021e+003
7.615815e+002, 1.219356e+003
7.620637e+002, 1.218893e+003
7.625458e+002, 1.218531e+003
7.630279e+002, 1.217801e+003
7.635100e+002, 1.216109e+003
7.639921e+002, 1.214766e+003
7.644742e+002, 1.215446e+003
7.649564e+002, 1.217019e+003
7.654385e+002, 1.217443e+003
7.659206e+002, 1.216503e+003
7.664027e+002, 1.214832e+003
7.668848e+002, 1.212762e+003
7.673669e+002, 1.210581e+003
7.678491e+002, 1.208939e+003
7.683312e+002, 1.207810e+003
7.688133e+002, 1.207376e+003
7.692954e+002, 1.208232e+003
7.697775e+002, 1.208956e+003
7.702596e+002, 1.208860e+003
7.707418e+002, 1.208303e+003
7.712239e+002, 1.207688e+003
7.717060e+002, 1.207039e+003
7.721881e+002, 1.206471e+003
7.726702e+002, 1.206154e+003
7.731523e+002, 1.205818e+003
7.736345e+002, 1.204991e+003
7.741166e+002, 1.204040e+003
7.745987e+002, 1.203906e+003
7.750808e+002, 1.204753e+003
7.755629e+002, 1.205529e+003
7.760450e+002, 1.205163e+003
7.765272e+002, 1.203861e+003
7.770093e+002, 1.202476e+003
7.774914e+002, 1.200917e+003
7.779735e+002, 1.199798e+003
7.784556e+002, 1.199335e+003
7.789377e+002, 1.199240e+003
7.794199e+002, 1.199678e+003
7.799020e+002, 1.200355e+003
7.803841e+002, 1.199811e+003
7.808662e+002, 1.196357e+003
7.813483e+002, 1.194106e+003
7.818304e+002, 1.195008e+003
7.823126e+002, 1.196665e+003
7.827947e+002, 1.197326e+003
7.832768e+002, 1.196988e+003
7.837589e+002, 1.196077e+003
7.842410e+002, 1.194745e+003
7.847231e+002, 1.193561e+003
7.852053e+002, 1.193577e+003
7.856874e+002, 1.194352e+003
7.861695e+002, 1.193864e+003
7.866516e+002, 1.191939e+003
7.871337e+002, 1.190584e+003
7.876158e+002, 1.190815e+003
7.880980e+002, 1.191754e+003
7.885801e+002, 1.192079e+003
7.890622e+002, 1.191672e+003
7.895443e+002, 1.191444e+003
7.900264e+002, 1.191852e+003
7.905085e+002, 1.191865e+003
7.909907e+002, 1.190631e+003
7.914728e+002, 1.189360e+003
7.919549e+002, 1.189552e+003
7.924370e+002, 1.190911e+003
7.929191e+002, 1.191495e+003
7.934012e+002, 1.189895e+003
7.938834e+002, 1.187841e+003
7.943655e+002, 1.187059e+003
7.948476e+002, 1.187068e+003
7.953297e+002, 1.186818e+003
7.958118e+002, 1.186181e+003
7.962939e+002, 1.185670e+003
7.967761e+002, 1.185615e+003
7.972582e+002, 1.185884e+003
7.977403e+002, 1.186351e+003
7.982224e+002, 1.187374e+003
7.987045e+002, 1.186989e+003
7.991866e+002, 1.184312e+003
7.996688e+002, 1.181555e+003
8.001509e+002, 1.179207e+003
8.006330e+002, 1.177606e+003
8.011151e+002, 1.177383e+003
8.015972e+002, 1.178664e+003
8.020793e+002, 1.180193e+003
8.025615e+002, 1.182656e+003
8.030436e+002, 1.184206e+003
8.035257e+002, 1.182764e+003
8.040078e+002, 1.180093e+003
8.044899e+002, 1.179024e+003
8.049720e+002, 1.179872e+003
8.054542e+002, 1.180644e+003
8.059363e+002, 1.179633e+003
8.064184e+002, 1.177799e+003
8.069005e+002, 1.177555e+003
8.073826e+002, 1.178795e+003
8.078647e+002, 1.178996e+003
8.083469e+002, 1.177466e+003
8.088290e+002, 1.176173e+003
8.093111e+002, 1.176816e+003
8.097932e+002, 1.178473e+003
8.102753e+002, 1.178216e+003
8.107574e+002, 1.174115e+003
8.112396e+002, 1.172048e+003
8.117217e+002, 1.173759e+003
8.122038e+002, 1.175500e+003
8.126859e+002, 1.175880e+003
8.131680e+002, 1.175243e+003
8.136501e+002, 1.173864e+003
8.141323e+002, 1.171890e+003
8.146144e+002, 1.170350e+003
8.150965e+002, 1.170468e+003
8.155786e+002, 1.170892e+003
8.160607e+002, 1.169510e+003
8.165428e+002, 1.167213e+003
8.170250e+002, 1.166747e+003
8.175071e+002, 1.168585e+003
8.179892e+002, 1.170283e+003
8.184713e+002, 1.169708e+003
8.189534e+002, 1.167521e+003
8.194355e+002, 1.166142e+003
8.199177e+002, 1.165756e+003
8.203998e+002, 1.165266e+003
8.208819e+002, 1.164439e+003
8.213640e+002, 1.163692e+003
8.218461e+002, 1.163434e+003
8.223282e+002, 1.163376e+003
8.228104e+002, 1.162833e+003
8.232925e+002, 1.161501e+003
8.237746e+002, 1.160838e+003
8.242567e+002, 1.162197e+003
8.247388e+002, 1.163188e+003
8.252209e+002, 1.161965e+003
8.257031e+002, 1.159736e+003
8.261852e+002, 1.158375e+003
8.266673e+002, 1.158193e+003
8.271494e+002, 1.158052e+003
8.276315e+002, 1.157002e+003
8.281136e+002, 1.155573e+003
8.285958e+002, 1.154645e+003
8.290779e+002, 1.154135e+003
8.295600e+002, 1.153714e+003
8.300421e+002, 1.153320e+003
8.305242e+002, 1.152590e+003
8.310063e+002, 1.151033e+003
8.314885e+002, 1.149313e+003
8.319706e+002, 1.149761e+003
8.324527e+002, 1.153998e+003
8.329348e+002, 1.156047e+003
8.334169e+002, 1.154286e+003
8.338990e+002, 1.152297e+003
8.343812e+002, 1.151416e+003
8.348633e+002, 1.151140e+003
8.353454e+002, 1.150872e+003
8.358275e+002, 1.150559e+003
8.363096e+002, 1.150320e+003
8.367917e+002, 1.150049e+003
8.372739e+002, 1.150026e+003
8.377560e+002, 1.151017e+003
8.382381e+002, 1.152068e+003
8.387202e+002, 1.151674e+003
8.392023e+002, 1.149811e+003
8.396844e+002, 1.147596e+003
8.401666e+002, 1.145664e+003
8.406487e+002, 1.144215e+003
8.411308e+002, 1.143822e+003
8.416129e+002, 1.144333e+003
8.420950e+002, 1.144742e+003
8.425771e+002, 1.144953e+003
8.430593e+002, 1.144893e+003
8.435414e+002, 1.144473e+003
8.440235e+002, 1.143870e+003
8.445056e+002, 1.143459e+003
8.449877e+002, 1.143397e+003
8.454698e+002, 1.142749e+003
8.459520e+002, 1.140599e+003
8.464341e+002, 1.139092e+003
8.469162e+002, 1.138952e+003
8.473983e+002, 1.139464e+003
8.478804e+002, 1.140584e+003
8.483625e+002, 1.141930e+003
8.488447e+002, 1.141817e+003
8.493268e+002, 1.138576e+003
8.498089e+002, 1.135546e+003
8.502910e+002, 1.134760e+003
8.507731e+002, 1.135070e+003
8.512552e+002, 1.135418e+003
8.517374e+002, 1.135576e+003
8.522195e+002, 1.135453e+003
8.527016e+002, 1.135005e+003
8.531837e+002, 1.134251e+003
8.536658e+002, 1.132949e+003
8.541479e+002, 1.131327e+003
8.546301e+002, 1.130591e+003
8.551122e+002, 1.130780e+003
8.555943e+002, 1.130954e+003
8.560764e+002, 1.130883e+003
8.565585e+002, 1.130354e+003
8.570406e+002, 1.128989e+003
8.575228e+002, 1.126912e+003
8.580049e+002, 1.125554e+003
8.584870e+002, 1.125374e+003
8.589691e+002, 1.125173e+003
8.594512e+002, 1.125119e+003
8.599333e+002, 1.124769e+003
8.604155e+002, 1.123784e+003
8.608976e+002, 1.122376e+003
8.613797e+002, 1.120782e+003
8.618618e+002, 1.118906e+003
8.623439e+002, 1.117708e+003
8.628260e+002, 1.118219e+003
8.633082e+002, 1.118961e+003
8.637903e+002, 1.118664e+003
8.642724e+002, 1.117797e+003
8.647545e+002, 1.117177e+003
8.652366e+002, 1.117011e+003
8.657188e+002, 1.117213e+003
8.662009e+002, 1.117985e+003
8.666830e+002, 1.118586e+003
8.671651e+002, 1.117118e+003
8.676472e+002, 1.114003e+003
8.681293e+002, 1.112029e+003
8.686115e+002, 1.111640e+003
8.690936e+002, 1.111518e+003
8.695757e+002, 1.110861e+003
8.700578e+002, 1.110016e+003
8.705399e+002, 1.109718e+003
8.710220e+002, 1.110099e+003
8.715042e+002, 1.110408e+003
8.719863e+002, 1.110880e+003
8.724684e+002, 1.110909e+003
8.729505e+002, 1.110119e+003
8.734326e+002, 1.108952e+003
8.739147e+002, 1.107754e+003
8.743969e+002, 1.106527e+003
8.748790e+002, 1.105174e+003
8.753611e+002, 1.103215e+003
8.758432e+002, 1.101807e+003
8.763253e+002, 1.101369e+003
8.768074e+002, 1.101641e+003
8.772896e+002, 1.102929e+003
8.777717e+002, 1.104639e+003
8.782538e+002, 1.105282e+003
8.787359e+002, 1.104336e+003
8.792180e+002, 1.103700e+003
8.797001e+002, 1.106324e+003
8.801823e+002, 1.109839e+003
8.806644e+002, 1.109318e+003
8.811465e+002, 1.105567e+003
8.816286e+002, 1.102150e+003
8.821107e+002, 1.100034e+003
8.825928e+002, 1.098990e+003
8.830750e+002, 1.099010e+003
8.835571e+002, 1.099604e+003
8.840392e+002, 1.099009e+003
8.845213e+002, 1.096991e+003
8.850034e+002, 1.095103e+003
8.854855e+002, 1.093392e+003
8.859677e+002, 1.092033e+003
8.864498e+002, 1.091203e+003
8.869319e+002, 1.090732e+003
8.874140e+002, 1.090382e+003
8.878961e+002, 1.090199e+003
8.883782e+002, 1.089896e+003
8.888604e+002, 1.089128e+003
8.893425e+002, 1.088698e+003
8.898246e+002, 1.089289e+003
8.903067e+002, 1.089956e+003
8.907888e+002, 1.089988e+003
8.912709e+002, 1.089357e+003
8.917531e+002, 1.088172e+003
8.922352e+002, 1.086285e+003
8.927173e+002, 1.084473e+003
8.931994e+002, 1.083228e+003
8.936815e+002, 1.082372e+003
8.941636e+002, 1.081839e+003
8.946458e+002, 1.081493e+003
8.951279e+002, 1.080903e+003
8.956100e+002, 1.079995e+003
8.960921e+002, 1.079579e+003
8.965742e+002, 1.080791e+003
8.970563e+002, 1.082692e+003
8.975385e+002, 1.082536e+003
8.980206e+002, 1.080488e+003
8.985027e+002, 1.078644e+003
8.989848e+002, 1.077308e+003
8.994669e+002, 1.076926e+003
8.999490e+002, 1.078058e+003
9.004312e+002, 1.079775e+003
9.009133e+002, 1.079813e+003
9.013954e+002, 1.077593e+003
9.018775e+002, 1.076372e+003
9.023596e+002, 1.076519e+003
9.028417e+002, 1.077051e+003
9.033239e+002, 1.078198e+003
9.038060e+002, 1.079172e+003
9.042881e+002, 1.079314e+003
9.047702e+002, 1.078647e+003
9.052523e+002, 1.077309e+003
9.057344e+002, 1.074465e+003
9.062166e+002, 1.072224e+003
9.066987e+002, 1.071487e+003
9.071808e+002, 1.071144e+003
9.076629e+002, 1.070320e+003
9.081450e+002, 1.069331e+003
9.086271e+002, 1.069056e+003
9.091093e+002, 1.069679e+003
9.095914e+002, 1.069929e+003
9.100735e+002, 1.068566e+003
9.105556e+002, 1.066702e+003
9.110377e+002, 1.065424e+003
9.115198e+002, 1.064626e+003
9.120020e+002, 1.064204e+003
9.124841e+002, 1.064052e+003
9.129662e+002, 1.063750e+003
9.134483e+002, 1.062995e+003
9.139304e+002, 1.062249e+003
9.144125e+002, 1.062553e+003
9.148947e+002, 1.063699e+003
9.153768e+002, 1.063913e+003
9.158589e+002, 1.063092e+003
9.163410e+002, 1.062071e+003
9.168231e+002, 1.061103e+003
9.173052e+002, 1.060256e+003
9.177874e+002, 1.059608e+003
9.182695e+002, 1.059155e+003
9.187516e+002, 1.058903e+003
9.192337e+002, 1.059185e+003
9.197158e+002, 1.058850e+003
9.201979e+002, 1.057317e+003
9.206801e+002, 1.055756e+003
9.211622e+002, 1.054676e+003
9.216443e+002, 1.054028e+003
9.221264e+002, 1.053894e+003
9.226085e+002, 1.054390e+003
9.230906e+002, 1.054518e+003
9.235728e+002, 1.053523e+003
9.240549e+002, 1.052895e+003
9.245370e+002, 1.053829e+003
9.250191e+002, 1.054878e+003
9.255012e+002, 1.054312e+003
9.259833e+002, 1.052590e+003
9.264655e+002, 1.051609e+003
9.269476e+002, 1.052224e+003
9.274297e+002, 1.053035e+003
9.279118e+002, 1.053368e+003
9.283939e+002, 1.053153e+003
9.288760e+002, 1.051787e+003
9.293582e+002, 1.049923e+003
9.298403e+002, 1.048922e+003
9.303224e+002, 1.049148e+003
9.308045e+002, 1.050349e+003
9.312866e+002, 1.052735e+003
9.317687e+002, 1.055131e+003
9.322509e+002, 1.054665e+003
9.327330e+002, 1.052156e+003
9.332151e+002, 1.051685e+003
9.336972e+002, 1.053596e+003
9.341793e+002, 1.054746e+003
9.346614e+002, 1.053500e+003
9.351436e+002, 1.051442e+003
9.356257e+002, 1.051054e+003
9.361078e+002, 1.052186e+003
9.365899e+002, 1.051363e+003
9.370720e+002, 1.047738e+003
9.375541e+002, 1.045780e+003
9.380363e+002, 1.047186e+003
9.385184e+002, 1.048764e+003
9.390005e+002, 1.047887e+003
9.394826e+002, 1.045599e+003
9.399647e+002, 1.045036e+003
9.404468e+002, 1.047681e+003
9.409290e+002, 1.047957e+003
9.414111e+002, 1.043113e+003
9.418932e+002, 1.039459e+003
9.423753e+002, 1.039861e+003
9.428574e+002, 1.041403e+003
9.433395e+002, 1.041333e+003
9.438217e+002, 1.039847e+003
9.443038e+002, 1.038720e+003
9.447859e+002, 1.038521e+003
9.452680e+002, 1.038393e+003
9.457501e+002, 1.038132e+003
9.462322e+002, 1.037740e+003
9.467144e+002, 1.037195e+003
9.471965e+002, 1.036539e+003
9.476786e+002, 1.035696e+003
9.481607e+002, 1.034725e+003
9.486428e+002, 1.034156e+003
9.491249e+002, 1.034657e+003
9.496071e+002, 1.035275e+003
9.500892e+002, 1.034891e+003
9.505713e+002, 1.034029e+003
9.510534e+002, 1.033448e+003
9.515355e+002, 1.033270e+003
9.520176e+002, 1.033668e+003
9.524998e+002, 1.034697e+003
9.529819e+002, 1.035411e+003
9.534640e+002, 1.034287e+003
9.539461e+002, 1.032114e+003
9.544282e+002, 1.031609e+003
9.549103e+002, 1.032484e+003
9.553925e+002, 1.032216e+003
9.558746e+002, 1.030266e+003
9.563567e+002, 1.028947e+003
9.568388e+002, 1.030041e+003
9.573209e+002, 1.032174e+003
9.578030e+002, 1.032064e+003
9.582852e+002, 1.029383e+003
9.587673e+002, 1.028457e+003
9.592494e+002, 1.029785e+003
9.597315e+002, 1.030943e+003
9.602136e+002, 1.031266e+003
9.606957e+002, 1.031018e+003
9.611779e+002, 1.030377e+003
9.616600e+002, 1.029391e+003
9.621421e+002, 1.028299e+003
9.626242e+002, 1.026702e+003
9.631063e+002, 1.025819e+003
9.635884e+002, 1.026445e+003
9.640706e+002, 1.026806e+003
9.645527e+002, 1.025706e+003
9.650348e+002, 1.024368e+003
9.655169e+002, 1.024375e+003
9.659990e+002, 1.025634e+003
9.664811e+002, 1.026292e+003
9.669633e+002, 1.025675e+003
9.674454e+002, 1.025022e+003
9.679275e+002, 1.024454e+003
9.684096e+002, 1.024080e+003
9.688917e+002, 1.024120e+003
9.693738e+002, 1.024340e+003
9.698560e+002, 1.024522e+003
9.703381e+002, 1.024590e+003
9.708202e+002, 1.023988e+003
9.713023e+002, 1.021316e+003
9.717844e+002, 1.019188e+003
9.722665e+002, 1.020058e+003
9.727487e+002, 1.021950e+003
9.732308e+002, 1.022515e+003
9.737129e+002, 1.021895e+003
9.741950e+002, 1.021392e+003
9.746771e+002, 1.021509e+003
9.751592e+002, 1.021549e+003
9.756414e+002, 1.020613e+003
9.761235e+002, 1.019431e+003
9.766056e+002, 1.019115e+003
9.770877e+002, 1.019370e+003
9.775698e+002, 1.019595e+003
9.780519e+002, 1.019620e+003
9.785341e+002, 1.019214e+003
9.790162e+002, 1.018210e+003
9.794983e+002, 1.017098e+003
9.799804e+002, 1.016645e+003
9.804625e+002, 1.016685e+003
9.809446e+002, 1.016650e+003
9.814268e+002, 1.016518e+003
9.819089e+002, 1.016229e+003
9.823910e+002, 1.015770e+003
9.828731e+002, 1.014909e+003
9.833552e+002, 1.013351e+003
9.838373e+002, 1.011599e+003
9.843195e+002, 1.010963e+003
9.848016e+002, 1.011491e+003
9.852837e+002, 1.012161e+003
9.857658e+002, 1.012962e+003
9.862479e+002, 1.013834e+003
9.867300e+002, 1.014837e+003
9.872122e+002, 1.015727e+003
9.876943e+002, 1.016454e+003
9.881764e+002, 1.016791e+003
9.886585e+002, 1.015255e+003
9.891406e+002, 1.010432e+003
9.896227e+002, 1.007902e+003
9.901049e+002, 1.008871e+003
9.905870e+002, 1.010369e+003
9.910691e+002, 1.011607e+003
9.915512e+002, 1.012374e+003
9.920333e+002, 1.012153e+003
9.925154e+002, 1.010997e+003
9.929976e+002, 1.010612e+003
9.934797e+002, 1.012183e+003
9.939618e+002, 1.012725e+003
9.944439e+002, 1.010905e+003
9.949260e+002, 1.009358e+003
9.954081e+002, 1.009614e+003
9.958903e+002, 1.010733e+003
9.963724e+002, 1.011737e+003
9.968545e+002, 1.012515e+003
9.973366e+002, 1.012096e+003
9.978187e+002, 1.008742e+003
9.983008e+002, 1.006303e+003
9.987830e+002, 1.006283e+003
9.992651e+002, 1.007127e+003
9.997472e+002, 1.008343e+003
1.000229e+003, 1.009356e+003
1.000711e+003, 1.009214e+003
1.001194e+003, 1.007765e+003
1.001676e+003, 1.006373e+003
1.002158e+003, 1.005333e+003
1.002640e+003, 1.004874e+003
1.003122e+003, 1.005851e+003
1.003604e+003, 1.006913e+003
1.004086e+003, 1.006346e+003
1.004568e+003, 1.004721e+003
1.005050e+003, 1.003799e+003
1.005533e+003, 1.004120e+003
1.006015e+003, 1.004324e+003
1.006497e+003, 1.003070e+003
1.006979e+003, 1.001654e+003
1.007461e+003, 1.001376e+003
1.007943e+003, 1.001758e+003
1.008425e+003, 1.002236e+003
1.008907e+003, 1.002621e+003
1.009390e+003, 1.002612e+003
1.009872e+003, 1.002086e+003
1.010354e+003, 1.001557e+003
1.010836e+003, 1.001640e+003
1.011318e+003, 1.001961e+003
1.011800e+003, 1.001803e+003
1.012282e+003, 1.001409e+003
1.012764e+003, 1.001607e+003
1.013246e+003, 1.002327e+003
1.013729e+003, 1.002527e+003
1.014211e+003, 1.001656e+003
1.014693e+003, 1.000114e+003
1.015175e+003, 9.978950e+002
1.015657e+003, 9.955612e+002
1.016139e+003, 9.949964e+002
1.016621e+003, 9.959012e+002
1.017103e+003, 9.969154e+002
1.017586e+003, 9.977233e+002
1.018068e+003, 9.980023e+002
1.018550e+003, 9.975252e+002
1.019032e+003, 9.967010e+002
1.019514e+003, 9.962843e+002
1.019996e+003, 9.961646e+002
1.020478e+003, 9.952455e+002
1.020960e+003, 9.935742e+002
1.021442e+003, 9.932322e+002
1.021925e+003, 9.947801e+002
1.022407e+003, 9.961453e+002
1.022889e+003, 9.958209e+002
1.023371e+003, 9.946821e+002
1.023853e+003, 9.946272e+002
1.024335e+003, 9.956697e+002
1.024817e+003, 9.956259e+002
1.025299e+003, 9.943538e+002
1.025781e+003, 9.928986e+002
1.026264e+003, 9.913318e+002
1.026746e+003, 9.903658e+002
1.027228e+003, 9.906039e+002
1.027710e+003, 9.916770e+002
1.028192e+003, 9.928461e+002
1.028674e+003, 9.942220e+002
1.029156e+003, 9.946008e+002
1.029638e+003, 9.935763e+002
1.030120e+003, 9.930060e+002
1.030603e+003, 9.937219e+002
1.031085e+003, 9.941213e+002
1.031567e+003, 9.925724e+002
1.032049e+003, 9.901424e+002
1.032531e+003, 9.898787e+002
1.033013e+003, 9.926729e+002
1.033495e+003, 9.935344e+002
1.033977e+003, 9.914739e+002
1.034460e+003, 9.895682e+002
1.034942e+003, 9.883875e+002
1.035424e+003, 9.878876e+002
1.035906e+003, 9.884339e+002
1.036388e+003, 9.895024e+002
1.036870e+003, 9.895181e+002
1.037352e+003, 9.880695e+002
1.037834e+003, 9.870026e+002
1.038317e+003, 9.860492e+002
1.038799e+003, 9.859229e+002
1.039281e+003, 9.877868e+002
1.039763e+003, 9.895248e+002
1.040245e+003, 9.892226e+002
1.040727e+003, 9.875885e+002
1.041209e+003, 9.866830e+002
1.041691e+003, 9.868692e+002
1.042173e+003, 9.866320e+002
1.042656e+003, 9.855529e+002
1.043138e+003, 9.845675e+002
1.043620e+003, 9.837023e+002
1.044102e+003, 9.831863e+002
1.044584e+003, 9.834812e+002
1.045066e+003, 9.842057e+002
1.045548e+003, 9.844235e+002
1.046030e+003, 9.840511e+002
1.046512e+003, 9.832502e+002
1.046995e+003, 9.812773e+002
1.047477e+003, 9.798857e+002
1.047959e+003, 9.800295e+002
1.048441e+003, 9.805502e+002
1.048923e+003, 9.805481e+002
1.049405e+003, 9.802015e+002
1.049887e+003, 9.800091e+002
1.050369e+003, 9.800154e+002
1.050852e+003, 9.802745e+002
1.051334e+003, 9.815449e+002
1.051816e+003, 9.820958e+002
1.052298e+003, 9.808275e+002
1.052780e+003, 9.790684e+002
1.053262e+003, 9.774702e+002
1.053744e+003, 9.763434e+002
1.054226e+003, 9.763997e+002
1.054708e+003, 9.779662e+002
1.055191e+003, 9.788641e+002
1.055673e+003, 9.779641e+002
1.056155e+003, 9.770000e+002
1.056637e+003, 9.762160e+002
1.057119e+003, 9.760240e+002
1.057601e+003, 9.773654e+002
1.058083e+003, 9.793552e+002
1.058565e+003, 9.802078e+002
1.059047e+003, 9.795569e+002
1.059530e+003, 9.783539e+002
1.060012e+003, 9.763741e+002
1.060494e+003, 9.746031e+002
1.060976e+003, 9.730479e+002
1.061458e+003, 9.722630e+002
1.061940e+003, 9.730967e+002
1.062422e+003, 9.748951e+002
1.062904e+003, 9.767203e+002
1.063387e+003, 9.783704e+002
1.063869e+003, 9.786688e+002
1.064351e+003, 9.760565e+002
1.064833e+003, 9.734657e+002
1.065315e+003, 9.721660e+002
1.065797e+003, 9.714673e+002
1.066279e+003, 9.709871e+002
1.066761e+003, 9.705963e+002
1.067244e+003, 9.701512e+002
1.067726e+003, 9.696405e+002
1.068208e+003, 9.692816e+002
1.068690e+003, 9.694820e+002
1.069172e+003, 9.694207e+002
1.069654e+003, 9.681976e+002
1.070136e+003, 9.670668e+002
1.070618e+003, 9.672557e+002
1.071100e+003, 9.681491e+002
1.071583e+003, 9.687089e+002
1.072065e+003, 9.687657e+002
1.072547e+003, 9.686822e+002
1.073029e+003, 9.685677e+002
1.073511e+003, 9.683896e+002
1.073993e+003, 9.682706e+002
1.074475e+003, 9.679404e+002
1.074957e+003, 9.670381e+002
1.075439e+003, 9.658720e+002
1.075922e+003, 9.646277e+002
1.076404e+003, 9.635167e+002
1.076886e+003, 9.633753e+002
1.077368e+003, 9.650947e+002
1.077850e+003, 9.665015e+002
1.078332e+003, 9.661910e+002
1.078814e+003, 9.656176e+002
1.079297e+003, 9.661412e+002
1.079779e+003, 9.668572e+002
1.080261e+003, 9.655718e+002
1.080743e+003, 9.630730e+002
1.081225e+003, 9.638857e+002
1.081707e+003, 9.711768e+002
1.082189e+003, 9.762586e+002
1.082671e+003, 9.735443e+002
1.083153e+003, 9.691437e+002
1.083635e+003, 9.663063e+002
1.084118e+003, 9.644873e+002
1.084600e+003, 9.629225e+002
1.085082e+003, 9.615519e+002
1.085564e+003, 9.606144e+002
1.086046e+003, 9.602281e+002
1.086528e+003, 9.600061e+002
1.087010e+003, 9.599914e+002
1.087492e+003, 9.598551e+002
1.087975e+003, 9.591082e+002
1.088457e+003, 9.584016e+002
1.088939e+003, 9.586446e+002
1.089421e+003, 9.594299e+002
1.089903e+003, 9.596174e+002
1.090385e+003, 9.589100e+002
1.090867e+003, 9.581164e+002
1.091349e+003, 9.574380e+002
1.091832e+003, 9.568789e+002
1.092314e+003, 9.563961e+002
1.092796e+003, 9.560757e+002
1.093278e+003, 9.559363e+002
1.093760e+003, 9.560364e+002
1.094242e+003, 9.567404e+002
1.094724e+003, 9.580724e+002
1.095206e+003, 9.585002e+002
1.095688e+003, 9.564946e+002
1.096171e+003, 9.549389e+002
1.096653e+003, 9.555009e+002
1.097135e+003, 9.561617e+002
1.097617e+003, 9.552839e+002
1.098099e+003, 9.537235e+002
1.098581e+003, 9.527553e+002
1.099063e+003, 9.525175e+002
1.099545e+003, 9.526412e+002
1.100027e+003, 9.531654e+002
1.100510e+003, 9.538242e+002
1.100992e+003, 9.552696e+002
1.101474e+003, 9.560106e+002
1.101956e+003, 9.544855e+002
1.102438e+003, 9.523512e+002
1.102920e+003, 9.515634e+002
1.103402e+003, 9.520080e+002
1.103884e+003, 9.523120e+002
1.104367e+003, 9.519759e+002
1.104849e+003, 9.522045e+002
1.105331e+003, 9.541633e+002
1.105813e+003, 9.555091e+002
1.106295e+003, 9.547646e+002
1.106777e+003, 9.535121e+002
1.107259e+003, 9.533163e+002
1.107741e+003, 9.537793e+002
1.108224e+003, 9.536018e+002
1.108706e+003, 9.526023e+002
1.109188e+003, 9.512928e+002
1.109670e+003, 9.490499e+002
1.110152e+003, 9.474335e+002
1.110634e+003, 9.473051e+002
1.111116e+003, 9.474013e+002
1.111598e+003, 9.467653e+002
1.112080e+003, 9.458199e+002
1.112563e+003, 9.454933e+002
1.113045e+003, 9.459231e+002
1.113527e+003, 9.457949e+002
1.114009e+003, 9.443895e+002
1.114491e+003, 9.436157e+002
1.114973e+003, 9.441936e+002
1.115455e+003, 9.447292e+002
1.115937e+003, 9.445916e+002
1.116419e+003, 9.440350e+002
1.116902e+003, 9.431435e+002
1.117384e+003, 9.420266e+002
1.117866e+003, 9.420066e+002
1.118348e+003, 9.437959e+002
1.118830e+003, 9.450094e+002
1.119312e+003, 9.453035e+002
1.119794e+003, 9.455994e+002
1.120276e+003, 9.465540e+002
1.120759e+003, 9.470389e+002
1.121241e+003, 9.456423e+002
1.121723e+003, 9.430973e+002
1.122205e+003, 9.420593e+002
1.122687e+003, 9.428529e+002
1.123169e+003, 9.436940e+002
1.123651e+003, 9.447664e+002
1.124133e+003, 9.451975e+002
1.124615e+003, 9.446055e+002
1.125098e+003, 9.438262e+002
1.125580e+003, 9.434645e+002
1.126062e+003, 9.432137e+002
1.126544e+003, 9.423541e+002
1.127026e+003, 9.409242e+002
1.127508e+003, 9.407779e+002
1.127990e+003, 9.421570e+002
1.128472e+003, 9.425432e+002
1.128954e+003, 9.413263e+002
1.129437e+003, 9.410922e+002
1.129919e+003, 9.433895e+002
1.130401e+003, 9.456249e+002
1.130883e+003, 9.442469e+002
1.131365e+003, 9.405356e+002
1.131847e+003, 9.400862e+002
1.132329e+003, 9.426594e+002
1.132811e+003, 9.435258e+002
1.133294e+003, 9.423698e+002
1.133776e+003, 9.411162e+002
1.134258e+003, 9.404041e+002
1.134740e+003, 9.403033e+002
1.135222e+003, 9.409508e+002
1.135704e+003, 9.419193e+002
1.136186e+003, 9.423547e+002
1.136668e+003, 9.423904e+002
1.137151e+003, 9.426156e+002
1.137633e+003, 9.429543e+002
1.138115e+003, 9.429604e+002
1.138597e+003, 9.425413e+002
1.139079e+003, 9.416584e+002
1.139561e+003, 9.402772e+002
1.140043e+003, 9.390201e+002
1.140525e+003, 9.386699e+002
1.141007e+003, 9.389248e+002
1.141490e+003, 9.393168e+002
1.141972e+003, 9.398141e+002
1.142454e+003, 9.403881e+002
1.142936e+003, 9.409969e+002
1.143418e+003, 9.415508e+002
1.143900e+003, 9.420093e+002
1.144382e+003, 9.423803e+002
1.144864e+003, 9.428400e+002
1.145346e+003, 9.428575e+002
1.145829e+003, 9.411092e+002
1.146311e+003, 9.391799e+002
1.146793e+003, 9.396732e+002
1.147275e+003, 9.413480e+002
1.147757e+003, 9.414626e+002
1.148239e+003, 9.398360e+002
1.148721e+003, 9.382337e+002
1.149203e+003, 9.373525e+002
1.149686e+003, 9.370731e+002
1.150168e+003, 9.378048e+002
1.150650e+003, 9.385862e+002
1.151132e+003, 9.386552e+002
1.151614e+003, 9.384361e+002
1.152096e+003, 9.382581e+002
1.152578e+003, 9.382746e+002
1.153060e+003, 9.389166e+002
1.153542e+003, 9.403171e+002
1.154025e+003, 9.408779e+002
1.154507e+003, 9.391979e+002
1.154989e+003, 9.377617e+002
1.155471e+003, 9.376579e+002
1.155953e+003, 9.378203e+002
1.156435e+003, 9.373784e+002
1.156917e+003, 9.368584e+002
1.157399e+003, 9.371991e+002
1.157881e+003, 9.383132e+002
1.158364e+003, 9.389619e+002
1.158846e+003, 9.389881e+002
1.159328e+003, 9.386091e+002
1.159810e+003, 9.373804e+002
1.160292e+003, 9.363644e+002
1.160774e+003, 9.357568e+002
1.161256e+003, 9.356087e+002
1.161738e+003, 9.362288e+002
1.162221e+003, 9.372202e+002
1.162703e+003, 9.376190e+002
1.163185e+003, 9.373722e+002
1.163667e+003, 9.369902e+002
1.164149e+003, 9.364326e+002
1.164631e+003, 9.357927e+002
1.165113e+003, 9.348310e+002
1.165595e+003, 9.346130e+002
1.166078e+003, 9.359236e+002
1.166560e+003, 9.376140e+002
1.167042e+003, 9.382975e+002
1.167524e+003, 9.381007e+002
1.168006e+003, 9.374382e+002
1.168488e+003, 9.362636e+002
1.168970e+003, 9.358998e+002
1.169452e+003, 9.364385e+002
1.169934e+003, 9.368361e+002
1.170417e+003, 9.367864e+002
1.170899e+003, 9.367761e+002
1.171381e+003, 9.371798e+002
1.171863e+003, 9.377010e+002
1.172345e+003, 9.378942e+002
1.172827e+003, 9.377778e+002
1.173309e+003, 9.372889e+002
1.173791e+003, 9.365463e+002
1.174273e+003, 9.358494e+002
1.174756e+003, 9.353534e+002
1.175238e+003, 9.357283e+002
1.175720e+003, 9.371511e+002
1.176202e+003, 9.382317e+002
1.176684e+003, 9.376464e+002
1.177166e+003, 9.363691e+002
1.177648e+003, 9.353017e+002
1.178130e+003, 9.345552e+002
1.178613e+003, 9.343763e+002
1.179095e+003, 9.346036e+002
1.179577e+003, 9.351260e+002
1.180059e+003, 9.357256e+002
1.180541e+003, 9.356920e+002
1.181023e+003, 9.346144e+002
1.181505e+003, 9.335526e+002
1.181987e+003, 9.332509e+002
1.182469e+003, 9.330583e+002
1.182952e+003, 9.324903e+002
1.183434e+003, 9.318643e+002
1.183916e+003, 9.314289e+002
1.184398e+003, 9.312151e+002
1.184880e+003, 9.311823e+002
1.185362e+003, 9.313326e+002
1.185844e+003, 9.318793e+002
1.186326e+003, 9.333157e+002
1.186808e+003, 9.344540e+002
1.187291e+003, 9.352100e+002
1.187773e+003, 9.354733e+002
1.188255e+003, 9.345354e+002
1.188737e+003, 9.336635e+002
1.189219e+003, 9.346640e+002
1.189701e+003, 9.365486e+002
1.190183e+003, 9.359901e+002
1.190665e+003, 9.320779e+002
1.191148e+003, 9.306055e+002
1.191630e+003, 9.326169e+002
1.192112e+003, 9.341451e+002
1.192594e+003, 9.344492e+002
1.193076e+003, 9.344998e+002
1.193558e+003, 9.349019e+002
1.194040e+003, 9.349451e+002
1.194522e+003, 9.335453e+002
1.195005e+003, 9.312199e+002
1.195487e+003, 9.303044e+002
1.195969e+003, 9.307296e+002
1.196451e+003, 9.301769e+002
1.196933e+003, 9.286271e+002
1.197415e+003, 9.285763e+002
1.197897e+003, 9.305847e+002
1.198379e+003, 9.325024e+002
1.198861e+003, 9.329931e+002
1.199344e+003, 9.324389e+002
1.199826e+003, 9.309548e+002
1.200308e+003, 9.290727e+002
1.200790e+003, 9.274102e+002
1.201272e+003, 9.264005e+002
1.201754e+003, 9.276385e+002
1.202236e+003, 9.303701e+002
1.202718e+003, 9.320594e+002
1.203200e+003, 9.320424e+002
1.203683e+003, 9.313715e+002
1.204165e+003, 9.303604e+002
1.204647e+003, 9.297636e+002
1.205129e+003, 9.305219e+002
1.205611e+003, 9.315437e+002
1.206093e+003, 9.319661e+002
1.206575e+003, 9.320506e+002
1.207057e+003, 9.318171e+002
1.207540e+003, 9.316483e+002
1.208022e+003, 9.329402e+002
1.208504e+003, 9.362614e+002
1.208986e+003, 9.370400e+002
1.209468e+003, 9.307162e+002
1.209950e+003, 9.269375e+002
1.210432e+003, 9.310240e+002
1.210914e+003, 9.343313e+002
1.211396e+003, 9.311055e+002
1.211879e+003, 9.260938e+002
1.212361e+003, 9.239269e+002
1.212843e+003, 9.241581e+002
1.213325e+003, 9.251936e+002
1.213807e+003, 9.274240e+002
1.214289e+003, 9.284764e+002
1.214771e+003, 9.280217e+002
1.215253e+003, 9.277055e+002
1.215735e+003, 9.278506e+002
1.216218e+003, 9.282731e+002
1.216700e+003, 9.289967e+002
1.217182e+003, 9.292772e+002
1.217664e+003, 9.279858e+002
1.218146e+003, 9.258289e+002
1.218628e+003, 9.249841e+002
1.219110e+003, 9.252914e+002
1.219592e+003, 9.260687e+002
1.220075e+003, 9.271913e+002
1.220557e+003, 9.284987e+002
1.221039e+003, 9.298380e+002
1.221521e+003, 9.306854e+002
1.222003e+003, 9.307546e+002
1.222485e+003, 9.300820e+002
1.222967e+003, 9.282241e+002
1.223449e+003, 9.261269e+002
1.223932e+003, 9.248828e+002
1.224414e+003, 9.240627e+002
1.224896e+003, 9.229648e+002
1.225378e+003, 9.218886e+002
1.225860e+003, 9.216504e+002
1.226342e+003, 9.222511e+002
1.226824e+003, 9.227578e+002
1.227306e+003, 9.227181e+002
1.227788e+003, 9.229395e+002
1.228271e+003, 9.241337e+002
1.228753e+003, 9.250693e+002
1.229235e+003, 9.251923e+002
1.229717e+003, 9.248690e+002
1.230199e+003, 9.241569e+002
1.230681e+003, 9.233080e+002
1.231163e+003, 9.226722e+002
1.231645e+003, 9.222543e+002
1.232127e+003, 9.224124e+002
1.232610e+003, 9.235024e+002
1.233092e+003, 9.240148e+002
1.233574e+003, 9.236718e+002
1.234056e+003, 9.235811e+002
1.234538e+003, 9.242131e+002
1.235020e+003, 9.245074e+002
1.235502e+003, 9.236155e+002
1.235984e+003, 9.222249e+002
1.236467e+003, 9.214709e+002
1.236949e+003, 9.212802e+002
1.237431e+003, 9.214938e+002
1.237913e+003, 9.219916e+002
1.238395e+003, 9.220952e+002
1.238877e+003, 9.218937e+002
1.239359e+003, 9.222037e+002
1.239841e+003, 9.231982e+002
1.240323e+003, 9.242272e+002
1.240806e+003, 9.248922e+002
1.241288e+003, 9.253234e+002
1.241770e+003, 9.255721e+002
1.242252e+003, 9.257166e+002
1.242734e+003, 9.261204e+002
1.243216e+003, 9.262374e+002
1.243698e+003, 9.249521e+002
1.244180e+003, 9.229992e+002
1.244662e+003, 9.220154e+002
1.245145e+003, 9.222363e+002
1.245627e+003, 9.226598e+002
1.246109e+003, 9.233896e+002
1.246591e+003, 9.236600e+002
1.247073e+003, 9.228875e+002
1.247555e+003, 9.222674e+002
1.248037e+003, 9.223022e+002
1.248519e+003, 9.225198e+002
1.249002e+003, 9.226764e+002
1.249484e+003, 9.227133e+002
1.249966e+003, 9.224413e+002
1.250448e+003, 9.219077e+002
1.250930e+003, 9.220041e+002
1.251412e+003, 9.228163e+002
1.251894e+003, 9.232476e+002
1.252376e+003, 9.231963e+002
1.252859e+003, 9.232879e+002
1.253341e+003, 9.237072e+002
1.253823e+003, 9.241451e+002
1.254305e+003, 9.243866e+002
1.254787e+003, 9.245543e+002
1.255269e+003, 9.247772e+002
1.255751e+003, 9.250704e+002
1.256233e+003, 9.255649e+002
1.256715e+003, 9.260973e+002
1.257198e+003, 9.262307e+002
1.257680e+003, 9.261776e+002
1.258162e+003, 9.267816e+002
1.258644e+003, 9.279646e+002
1.259126e+003, 9.282363e+002
1.259608e+003, 9.266911e+002
1.260090e+003, 9.252678e+002
1.260572e+003, 9.247448e+002
1.261054e+003, 9.247237e+002
1.261537e+003, 9.258607e+002
1.262019e+003, 9.265811e+002
1.262501e+003, 9.248134e+002
1.262983e+003, 9.223793e+002
1.263465e+003, 9.223442e+002
1.263947e+003, 9.244106e+002
1.264429e+003, 9.262151e+002
1.264911e+003, 9.280007e+002
1.265394e+003, 9.284923e+002
1.265876e+003, 9.272797e+002
1.266358e+003, 9.266945e+002
1.266840e+003, 9.273865e+002
1.267322e+003, 9.276442e+002
1.267804e+003, 9.264376e+002
1.268286e+003, 9.251622e+002
1.268768e+003, 9.256289e+002
1.269250e+003, 9.269875e+002
1.269733e+003, 9.273991e+002
1.270215e+003, 9.271344e+002
1.270697e+003, 9.266335e+002
1.271179e+003, 9.261248e+002
1.271661e+003, 9.261976e+002
1.272143e+003, 9.267630e+002
1.272625e+003, 9.269905e+002
1.273107e+003, 9.265740e+002
1.273589e+003, 9.265870e+002
1.274072e+003, 9.284945e+002
1.274554e+003, 9.298436e+002
1.275036e+003, 9.291301e+002
1.275518e+003, 9.277684e+002
1.276000e+003, 9.260217e+002
1.276482e+003, 9.246437e+002
1.276964e+003, 9.247613e+002
1.277446e+003, 9.259863e+002
1.277929e+003, 9.266317e+002
1.278411e+003, 9.266373e+002
1.278893e+003, 9.267087e+002
1.279375e+003, 9.268800e+002
1.279857e+003, 9.270902e+002
1.280339e+003, 9.273760e+002
1.280821e+003, 9.275458e+002
1.281303e+003, 9.275955e+002
1.281786e+003, 9.277218e+002
1.282268e+003, 9.279620e+002
##END=



