##NAMES=Yeatmanite
##RRUFFID=R141001
##IDEAL CHEMISTRY=Zn^2+^_6_Mn^2+^_9_Sb^5+^_2_O_12_(SiO_4_)_4_
##LOCALITY=1500 foot level, Sterling mine, Sterling Hill, Ogdensburg, Franklin Mining District, Sussex County, New Jersey, USA
##OWNER=RRUFF
##SOURCE=Rock Currier
##DESCRIPTION=Thin brown or grey platy crystals, associated with yellow adelite. Twinned by a 2-fold around (001). Previously published structure is probably incorrect.
##STATUS=The identification of this mineral has been confirmed by single-crystal X-ray diffraction.
##URL=rruff.info/R141001
8.806445e+001, 3.943093e+003
8.854657e+001, 3.812461e+003
8.902869e+001, 3.767254e+003
8.951080e+001, 3.849301e+003
8.999292e+001, 3.997789e+003
9.047504e+001, 4.158022e+003
9.095715e+001, 4.319708e+003
9.143927e+001, 4.477908e+003
9.192139e+001, 4.626357e+003
9.240350e+001, 4.765334e+003
9.288562e+001, 4.899683e+003
9.336774e+001, 4.997468e+003
9.384985e+001, 5.026276e+003
9.433197e+001, 4.988386e+003
9.481409e+001, 4.952861e+003
9.529620e+001, 4.904368e+003
9.577832e+001, 4.859994e+003
9.626044e+001, 4.822753e+003
9.674255e+001, 4.792216e+003
9.722467e+001, 4.768290e+003
9.770679e+001, 4.753094e+003
9.818890e+001, 4.734360e+003
9.867102e+001, 4.702023e+003
9.915314e+001, 4.669122e+003
9.963525e+001, 4.646038e+003
1.001174e+002, 4.637221e+003
1.005995e+002, 4.639262e+003
1.010816e+002, 4.640938e+003
1.015637e+002, 4.646466e+003
1.020458e+002, 4.646081e+003
1.025280e+002, 4.635004e+003
1.030101e+002, 4.616260e+003
1.034922e+002, 4.594539e+003
1.039743e+002, 4.572825e+003
1.044564e+002, 4.550839e+003
1.049385e+002, 4.530908e+003
1.054207e+002, 4.512375e+003
1.059028e+002, 4.495138e+003
1.063849e+002, 4.479263e+003
1.068670e+002, 4.464573e+003
1.073491e+002, 4.450277e+003
1.078312e+002, 4.435364e+003
1.083134e+002, 4.419890e+003
1.087955e+002, 4.406189e+003
1.092776e+002, 4.394968e+003
1.097597e+002, 4.385506e+003
1.102418e+002, 4.376744e+003
1.107239e+002, 4.368378e+003
1.112061e+002, 4.361069e+003
1.116882e+002, 4.355333e+003
1.121703e+002, 4.350939e+003
1.126524e+002, 4.347629e+003
1.131345e+002, 4.345922e+003
1.136166e+002, 4.345656e+003
1.140988e+002, 4.344180e+003
1.145809e+002, 4.339481e+003
1.150630e+002, 4.334803e+003
1.155451e+002, 4.331814e+003
1.160272e+002, 4.330598e+003
1.165093e+002, 4.330380e+003
1.169915e+002, 4.330399e+003
1.174736e+002, 4.330920e+003
1.179557e+002, 4.330730e+003
1.184378e+002, 4.329233e+003
1.189199e+002, 4.327326e+003
1.194020e+002, 4.325514e+003
1.198842e+002, 4.323962e+003
1.203663e+002, 4.322603e+003
1.208484e+002, 4.321309e+003
1.213305e+002, 4.319267e+003
1.218126e+002, 4.318204e+003
1.222947e+002, 4.319444e+003
1.227769e+002, 4.321355e+003
1.232590e+002, 4.321951e+003
1.237411e+002, 4.320220e+003
1.242232e+002, 4.316396e+003
1.247053e+002, 4.311341e+003
1.251874e+002, 4.303498e+003
1.256696e+002, 4.296399e+003
1.261517e+002, 4.291190e+003
1.266338e+002, 4.287786e+003
1.271159e+002, 4.285830e+003
1.275980e+002, 4.286097e+003
1.280801e+002, 4.287461e+003
1.285623e+002, 4.286340e+003
1.290444e+002, 4.280842e+003
1.295265e+002, 4.274075e+003
1.300086e+002, 4.269289e+003
1.304907e+002, 4.266939e+003
1.309728e+002, 4.264397e+003
1.314550e+002, 4.259240e+003
1.319371e+002, 4.252922e+003
1.324192e+002, 4.247399e+003
1.329013e+002, 4.243334e+003
1.333834e+002, 4.240632e+003
1.338655e+002, 4.239344e+003
1.343477e+002, 4.241211e+003
1.348298e+002, 4.241846e+003
1.353119e+002, 4.239216e+003
1.357940e+002, 4.234243e+003
1.362761e+002, 4.228482e+003
1.367582e+002, 4.222409e+003
1.372404e+002, 4.215958e+003
1.377225e+002, 4.212978e+003
1.382046e+002, 4.217956e+003
1.386867e+002, 4.222659e+003
1.391688e+002, 4.224756e+003
1.396509e+002, 4.224190e+003
1.401331e+002, 4.221972e+003
1.406152e+002, 4.218917e+003
1.410973e+002, 4.214530e+003
1.415794e+002, 4.211325e+003
1.420615e+002, 4.210269e+003
1.425436e+002, 4.209442e+003
1.430258e+002, 4.207095e+003
1.435079e+002, 4.203148e+003
1.439900e+002, 4.199525e+003
1.444721e+002, 4.199087e+003
1.449542e+002, 4.203905e+003
1.454363e+002, 4.206538e+003
1.459185e+002, 4.206036e+003
1.464006e+002, 4.203460e+003
1.468827e+002, 4.199354e+003
1.473648e+002, 4.193501e+003
1.478469e+002, 4.187682e+003
1.483290e+002, 4.185426e+003
1.488112e+002, 4.186806e+003
1.492933e+002, 4.188307e+003
1.497754e+002, 4.188307e+003
1.502575e+002, 4.187379e+003
1.507396e+002, 4.187461e+003
1.512217e+002, 4.189975e+003
1.517039e+002, 4.192673e+003
1.521860e+002, 4.192703e+003
1.526681e+002, 4.189811e+003
1.531502e+002, 4.186425e+003
1.536323e+002, 4.184735e+003
1.541144e+002, 4.184852e+003
1.545966e+002, 4.184026e+003
1.550787e+002, 4.180977e+003
1.555608e+002, 4.176969e+003
1.560429e+002, 4.172758e+003
1.565250e+002, 4.168477e+003
1.570071e+002, 4.164033e+003
1.574893e+002, 4.158520e+003
1.579714e+002, 4.150033e+003
1.584535e+002, 4.145928e+003
1.589356e+002, 4.150467e+003
1.594177e+002, 4.157598e+003
1.598998e+002, 4.162942e+003
1.603820e+002, 4.164808e+003
1.608641e+002, 4.164225e+003
1.613462e+002, 4.163627e+003
1.618283e+002, 4.163654e+003
1.623104e+002, 4.162620e+003
1.627925e+002, 4.159455e+003
1.632747e+002, 4.155565e+003
1.637568e+002, 4.152442e+003
1.642389e+002, 4.150855e+003
1.647210e+002, 4.150496e+003
1.652031e+002, 4.150095e+003
1.656852e+002, 4.149767e+003
1.661674e+002, 4.149328e+003
1.666495e+002, 4.148662e+003
1.671316e+002, 4.147894e+003
1.676137e+002, 4.147205e+003
1.680958e+002, 4.146664e+003
1.685779e+002, 4.146322e+003
1.690601e+002, 4.146452e+003
1.695422e+002, 4.147209e+003
1.700243e+002, 4.148157e+003
1.705064e+002, 4.149549e+003
1.709885e+002, 4.151128e+003
1.714706e+002, 4.151840e+003
1.719528e+002, 4.150681e+003
1.724349e+002, 4.148119e+003
1.729170e+002, 4.146547e+003
1.733991e+002, 4.147089e+003
1.738812e+002, 4.147689e+003
1.743633e+002, 4.146676e+003
1.748455e+002, 4.144009e+003
1.753276e+002, 4.140884e+003
1.758097e+002, 4.137378e+003
1.762918e+002, 4.134050e+003
1.767739e+002, 4.131897e+003
1.772560e+002, 4.131025e+003
1.777382e+002, 4.131532e+003
1.782203e+002, 4.134119e+003
1.787024e+002, 4.139576e+003
1.791845e+002, 4.144517e+003
1.796666e+002, 4.147326e+003
1.801487e+002, 4.148549e+003
1.806309e+002, 4.148503e+003
1.811130e+002, 4.146733e+003
1.815951e+002, 4.144131e+003
1.820772e+002, 4.143374e+003
1.825593e+002, 4.146221e+003
1.830414e+002, 4.147963e+003
1.835236e+002, 4.145601e+003
1.840057e+002, 4.141513e+003
1.844878e+002, 4.139209e+003
1.849699e+002, 4.141112e+003
1.854520e+002, 4.146405e+003
1.859341e+002, 4.149874e+003
1.864163e+002, 4.149419e+003
1.868984e+002, 4.149317e+003
1.873805e+002, 4.151720e+003
1.878626e+002, 4.155091e+003
1.883447e+002, 4.156517e+003
1.888268e+002, 4.153592e+003
1.893090e+002, 4.146547e+003
1.897911e+002, 4.142753e+003
1.902732e+002, 4.145493e+003
1.907553e+002, 4.148183e+003
1.912374e+002, 4.149113e+003
1.917195e+002, 4.148586e+003
1.922017e+002, 4.147604e+003
1.926838e+002, 4.146858e+003
1.931659e+002, 4.146333e+003
1.936480e+002, 4.146612e+003
1.941301e+002, 4.150461e+003
1.946122e+002, 4.152381e+003
1.950944e+002, 4.148290e+003
1.955765e+002, 4.139591e+003
1.960586e+002, 4.131393e+003
1.965407e+002, 4.127781e+003
1.970228e+002, 4.129080e+003
1.975049e+002, 4.131449e+003
1.979871e+002, 4.137256e+003
1.984692e+002, 4.142084e+003
1.989513e+002, 4.142610e+003
1.994334e+002, 4.138980e+003
1.999155e+002, 4.134322e+003
2.003976e+002, 4.131118e+003
2.008798e+002, 4.129205e+003
2.013619e+002, 4.126278e+003
2.018440e+002, 4.119899e+003
2.023261e+002, 4.113975e+003
2.028082e+002, 4.113046e+003
2.032903e+002, 4.117552e+003
2.037725e+002, 4.122107e+003
2.042546e+002, 4.122428e+003
2.047367e+002, 4.119456e+003
2.052188e+002, 4.115725e+003
2.057009e+002, 4.111105e+003
2.061830e+002, 4.106228e+003
2.066652e+002, 4.101870e+003
2.071473e+002, 4.098034e+003
2.076294e+002, 4.094807e+003
2.081115e+002, 4.092066e+003
2.085936e+002, 4.089972e+003
2.090757e+002, 4.089069e+003
2.095579e+002, 4.090708e+003
2.100400e+002, 4.093205e+003
2.105221e+002, 4.092585e+003
2.110042e+002, 4.087011e+003
2.114863e+002, 4.082489e+003
2.119685e+002, 4.082947e+003
2.124506e+002, 4.086049e+003
2.129327e+002, 4.088529e+003
2.134148e+002, 4.088800e+003
2.138969e+002, 4.087393e+003
2.143790e+002, 4.085806e+003
2.148612e+002, 4.083527e+003
2.153433e+002, 4.081974e+003
2.158254e+002, 4.082132e+003
2.163075e+002, 4.083095e+003
2.167896e+002, 4.083798e+003
2.172717e+002, 4.083884e+003
2.177539e+002, 4.083091e+003
2.182360e+002, 4.079828e+003
2.187181e+002, 4.069496e+003
2.192002e+002, 4.063018e+003
2.196823e+002, 4.065565e+003
2.201644e+002, 4.072766e+003
2.206466e+002, 4.078611e+003
2.211287e+002, 4.079447e+003
2.216108e+002, 4.076109e+003
2.220929e+002, 4.073320e+003
2.225750e+002, 4.072249e+003
2.230571e+002, 4.070413e+003
2.235393e+002, 4.066045e+003
2.240214e+002, 4.060925e+003
2.245035e+002, 4.057821e+003
2.249856e+002, 4.058534e+003
2.254677e+002, 4.062319e+003
2.259498e+002, 4.064459e+003
2.264320e+002, 4.064357e+003
2.269141e+002, 4.063185e+003
2.273962e+002, 4.059375e+003
2.278783e+002, 4.054875e+003
2.283604e+002, 4.053083e+003
2.288425e+002, 4.056252e+003
2.293247e+002, 4.063031e+003
2.298068e+002, 4.065562e+003
2.302889e+002, 4.059861e+003
2.307710e+002, 4.054777e+003
2.312531e+002, 4.052360e+003
2.317352e+002, 4.051740e+003
2.322174e+002, 4.051128e+003
2.326995e+002, 4.049477e+003
2.331816e+002, 4.047281e+003
2.336637e+002, 4.046884e+003
2.341458e+002, 4.049764e+003
2.346279e+002, 4.052334e+003
2.351101e+002, 4.054062e+003
2.355922e+002, 4.054833e+003
2.360743e+002, 4.054169e+003
2.365564e+002, 4.051575e+003
2.370385e+002, 4.047849e+003
2.375206e+002, 4.045747e+003
2.380028e+002, 4.046210e+003
2.384849e+002, 4.046445e+003
2.389670e+002, 4.045311e+003
2.394491e+002, 4.043278e+003
2.399312e+002, 4.041305e+003
2.404133e+002, 4.039731e+003
2.408955e+002, 4.038609e+003
2.413776e+002, 4.038063e+003
2.418597e+002, 4.038241e+003
2.423418e+002, 4.038521e+003
2.428239e+002, 4.038781e+003
2.433060e+002, 4.038966e+003
2.437882e+002, 4.038771e+003
2.442703e+002, 4.037778e+003
2.447524e+002, 4.036827e+003
2.452345e+002, 4.037613e+003
2.457166e+002, 4.040612e+003
2.461987e+002, 4.042753e+003
2.466809e+002, 4.041853e+003
2.471630e+002, 4.038754e+003
2.476451e+002, 4.036287e+003
2.481272e+002, 4.035412e+003
2.486093e+002, 4.035222e+003
2.490914e+002, 4.034761e+003
2.495736e+002, 4.034060e+003
2.500557e+002, 4.032873e+003
2.505378e+002, 4.030792e+003
2.510199e+002, 4.028038e+003
2.515020e+002, 4.025321e+003
2.519841e+002, 4.022068e+003
2.524663e+002, 4.019982e+003
2.529484e+002, 4.021052e+003
2.534305e+002, 4.024906e+003
2.539126e+002, 4.028331e+003
2.543947e+002, 4.028793e+003
2.548768e+002, 4.027028e+003
2.553590e+002, 4.026683e+003
2.558411e+002, 4.029232e+003
2.563232e+002, 4.031756e+003
2.568053e+002, 4.032175e+003
2.572874e+002, 4.030882e+003
2.577695e+002, 4.029268e+003
2.582516e+002, 4.028856e+003
2.587338e+002, 4.029090e+003
2.592159e+002, 4.026570e+003
2.596980e+002, 4.018707e+003
2.601801e+002, 4.011755e+003
2.606622e+002, 4.009318e+003
2.611443e+002, 4.010161e+003
2.616265e+002, 4.011597e+003
2.621086e+002, 4.012471e+003
2.625907e+002, 4.012672e+003
2.630728e+002, 4.011421e+003
2.635549e+002, 4.007196e+003
2.640370e+002, 4.003853e+003
2.645192e+002, 4.003466e+003
2.650013e+002, 4.004782e+003
2.654834e+002, 4.005606e+003
2.659655e+002, 4.004302e+003
2.664476e+002, 4.001932e+003
2.669297e+002, 4.002823e+003
2.674119e+002, 4.010781e+003
2.678940e+002, 4.015657e+003
2.683761e+002, 4.012296e+003
2.688582e+002, 4.005279e+003
2.693403e+002, 4.000307e+003
2.698224e+002, 4.000328e+003
2.703046e+002, 4.003629e+003
2.707867e+002, 4.005569e+003
2.712688e+002, 4.005704e+003
2.717509e+002, 4.005173e+003
2.722330e+002, 4.004085e+003
2.727151e+002, 4.002667e+003
2.731973e+002, 4.000881e+003
2.736794e+002, 3.998673e+003
2.741615e+002, 3.996678e+003
2.746436e+002, 3.996353e+003
2.751257e+002, 3.998664e+003
2.756078e+002, 4.000778e+003
2.760900e+002, 4.002568e+003
2.765721e+002, 4.003878e+003
2.770542e+002, 4.004480e+003
2.775363e+002, 4.004326e+003
2.780184e+002, 4.003675e+003
2.785005e+002, 4.003108e+003
2.789827e+002, 4.003339e+003
2.794648e+002, 4.001921e+003
2.799469e+002, 3.997895e+003
2.804290e+002, 3.993085e+003
2.809111e+002, 3.988073e+003
2.813932e+002, 3.983281e+003
2.818754e+002, 3.979632e+003
2.823575e+002, 3.978830e+003
2.828396e+002, 3.982789e+003
2.833217e+002, 3.984029e+003
2.838038e+002, 3.979911e+003
2.842859e+002, 3.975649e+003
2.847681e+002, 3.974009e+003
2.852502e+002, 3.975093e+003
2.857323e+002, 3.977567e+003
2.862144e+002, 3.980554e+003
2.866965e+002, 3.984799e+003
2.871786e+002, 3.985010e+003
2.876608e+002, 3.976322e+003
2.881429e+002, 3.968513e+003
2.886250e+002, 3.966692e+003
2.891071e+002, 3.969461e+003
2.895892e+002, 3.971870e+003
2.900714e+002, 3.969663e+003
2.905535e+002, 3.962755e+003
2.910356e+002, 3.958094e+003
2.915177e+002, 3.957167e+003
2.919998e+002, 3.956947e+003
2.924819e+002, 3.957213e+003
2.929641e+002, 3.957567e+003
2.934462e+002, 3.957544e+003
2.939283e+002, 3.956869e+003
2.944104e+002, 3.955522e+003
2.948925e+002, 3.953333e+003
2.953746e+002, 3.949857e+003
2.958568e+002, 3.945948e+003
2.963389e+002, 3.940541e+003
2.968210e+002, 3.935038e+003
2.973031e+002, 3.931262e+003
2.977852e+002, 3.930069e+003
2.982673e+002, 3.931043e+003
2.987495e+002, 3.933030e+003
2.992316e+002, 3.939733e+003
2.997137e+002, 3.942550e+003
3.001958e+002, 3.938321e+003
3.006779e+002, 3.931423e+003
3.011600e+002, 3.926170e+003
3.016422e+002, 3.923975e+003
3.021243e+002, 3.923435e+003
3.026064e+002, 3.922044e+003
3.030885e+002, 3.919079e+003
3.035706e+002, 3.916486e+003
3.040527e+002, 3.914460e+003
3.045349e+002, 3.912647e+003
3.050170e+002, 3.910684e+003
3.054991e+002, 3.908566e+003
3.059812e+002, 3.906777e+003
3.064633e+002, 3.906146e+003
3.069454e+002, 3.907733e+003
3.074276e+002, 3.906600e+003
3.079097e+002, 3.901445e+003
3.083918e+002, 3.895251e+003
3.088739e+002, 3.888344e+003
3.093560e+002, 3.881586e+003
3.098381e+002, 3.877257e+003
3.103203e+002, 3.877808e+003
3.108024e+002, 3.883788e+003
3.112845e+002, 3.886093e+003
3.117666e+002, 3.881039e+003
3.122487e+002, 3.876664e+003
3.127308e+002, 3.877016e+003
3.132130e+002, 3.880243e+003
3.136951e+002, 3.881816e+003
3.141772e+002, 3.878623e+003
3.146593e+002, 3.871555e+003
3.151414e+002, 3.866952e+003
3.156235e+002, 3.867058e+003
3.161057e+002, 3.866977e+003
3.165878e+002, 3.866124e+003
3.170699e+002, 3.864542e+003
3.175520e+002, 3.862032e+003
3.180341e+002, 3.858493e+003
3.185162e+002, 3.854675e+003
3.189984e+002, 3.852578e+003
3.194805e+002, 3.853818e+003
3.199626e+002, 3.854823e+003
3.204447e+002, 3.856171e+003
3.209268e+002, 3.856951e+003
3.214089e+002, 3.856006e+003
3.218911e+002, 3.853154e+003
3.223732e+002, 3.849590e+003
3.228553e+002, 3.846965e+003
3.233374e+002, 3.845310e+003
3.238195e+002, 3.844806e+003
3.243016e+002, 3.847286e+003
3.247838e+002, 3.849347e+003
3.252659e+002, 3.848515e+003
3.257480e+002, 3.844885e+003
3.262301e+002, 3.840414e+003
3.267122e+002, 3.836985e+003
3.271943e+002, 3.834786e+003
3.276765e+002, 3.832044e+003
3.281586e+002, 3.828093e+003
3.286407e+002, 3.824294e+003
3.291228e+002, 3.820498e+003
3.296049e+002, 3.817216e+003
3.300870e+002, 3.815688e+003
3.305692e+002, 3.817012e+003
3.310513e+002, 3.820557e+003
3.315334e+002, 3.821476e+003
3.320155e+002, 3.814999e+003
3.324976e+002, 3.811227e+003
3.329797e+002, 3.813787e+003
3.334619e+002, 3.819221e+003
3.339440e+002, 3.823369e+003
3.344261e+002, 3.824380e+003
3.349082e+002, 3.822809e+003
3.353904e+002, 3.819770e+003
3.358725e+002, 3.813410e+003
3.363546e+002, 3.808617e+003
3.368367e+002, 3.807419e+003
3.373188e+002, 3.806602e+003
3.378009e+002, 3.802780e+003
3.382831e+002, 3.795628e+003
3.387652e+002, 3.788291e+003
3.392473e+002, 3.785336e+003
3.397294e+002, 3.788799e+003
3.402115e+002, 3.790266e+003
3.406936e+002, 3.787863e+003
3.411758e+002, 3.785372e+003
3.416579e+002, 3.784769e+003
3.421400e+002, 3.785824e+003
3.426221e+002, 3.787209e+003
3.431042e+002, 3.787947e+003
3.435863e+002, 3.788024e+003
3.440685e+002, 3.786729e+003
3.445506e+002, 3.781375e+003
3.450327e+002, 3.777323e+003
3.455148e+002, 3.777070e+003
3.459969e+002, 3.778661e+003
3.464790e+002, 3.778749e+003
3.469612e+002, 3.775359e+003
3.474433e+002, 3.769901e+003
3.479254e+002, 3.766928e+003
3.484075e+002, 3.768387e+003
3.488896e+002, 3.769296e+003
3.493717e+002, 3.768142e+003
3.498539e+002, 3.766631e+003
3.503360e+002, 3.766765e+003
3.508181e+002, 3.769012e+003
3.513002e+002, 3.771398e+003
3.517823e+002, 3.770386e+003
3.522644e+002, 3.764113e+003
3.527466e+002, 3.760615e+003
3.532287e+002, 3.762713e+003
3.537108e+002, 3.765688e+003
3.541929e+002, 3.767925e+003
3.546750e+002, 3.768943e+003
3.551571e+002, 3.768326e+003
3.556393e+002, 3.765403e+003
3.561214e+002, 3.760187e+003
3.566035e+002, 3.754833e+003
3.570856e+002, 3.747321e+003
3.575677e+002, 3.742374e+003
3.580498e+002, 3.743007e+003
3.585320e+002, 3.747000e+003
3.590141e+002, 3.750816e+003
3.594962e+002, 3.752879e+003
3.599783e+002, 3.753040e+003
3.604604e+002, 3.750230e+003
3.609425e+002, 3.742378e+003
3.614247e+002, 3.736381e+003
3.619068e+002, 3.735961e+003
3.623889e+002, 3.737246e+003
3.628710e+002, 3.736448e+003
3.633531e+002, 3.732463e+003
3.638352e+002, 3.728130e+003
3.643174e+002, 3.726856e+003
3.647995e+002, 3.728859e+003
3.652816e+002, 3.731774e+003
3.657637e+002, 3.736966e+003
3.662458e+002, 3.741330e+003
3.667279e+002, 3.742945e+003
3.672101e+002, 3.741869e+003
3.676922e+002, 3.739201e+003
3.681743e+002, 3.734738e+003
3.686564e+002, 3.729072e+003
3.691385e+002, 3.725100e+003
3.696206e+002, 3.723523e+003
3.701028e+002, 3.722471e+003
3.705849e+002, 3.720953e+003
3.710670e+002, 3.719137e+003
3.715491e+002, 3.717310e+003
3.720312e+002, 3.715544e+003
3.725133e+002, 3.713826e+003
3.729955e+002, 3.712012e+003
3.734776e+002, 3.710056e+003
3.739597e+002, 3.708477e+003
3.744418e+002, 3.707514e+003
3.749239e+002, 3.707056e+003
3.754060e+002, 3.707068e+003
3.758882e+002, 3.707688e+003
3.763703e+002, 3.708156e+003
3.768524e+002, 3.708292e+003
3.773345e+002, 3.707919e+003
3.778166e+002, 3.705959e+003
3.782987e+002, 3.701337e+003
3.787809e+002, 3.696617e+003
3.792630e+002, 3.695271e+003
3.797451e+002, 3.696823e+003
3.802272e+002, 3.697465e+003
3.807093e+002, 3.695274e+003
3.811914e+002, 3.691814e+003
3.816736e+002, 3.689196e+003
3.821557e+002, 3.687631e+003
3.826378e+002, 3.686047e+003
3.831199e+002, 3.683594e+003
3.836020e+002, 3.680491e+003
3.840841e+002, 3.677794e+003
3.845663e+002, 3.675510e+003
3.850484e+002, 3.673637e+003
3.855305e+002, 3.672575e+003
3.860126e+002, 3.671986e+003
3.864947e+002, 3.670448e+003
3.869768e+002, 3.666902e+003
3.874590e+002, 3.663033e+003
3.879411e+002, 3.663117e+003
3.884232e+002, 3.668860e+003
3.889053e+002, 3.672657e+003
3.893874e+002, 3.671565e+003
3.898695e+002, 3.668429e+003
3.903517e+002, 3.666414e+003
3.908338e+002, 3.666110e+003
3.913159e+002, 3.666464e+003
3.917980e+002, 3.666560e+003
3.922801e+002, 3.666423e+003
3.927622e+002, 3.665335e+003
3.932444e+002, 3.662602e+003
3.937265e+002, 3.659673e+003
3.942086e+002, 3.657981e+003
3.946907e+002, 3.656766e+003
3.951728e+002, 3.653480e+003
3.956549e+002, 3.646317e+003
3.961371e+002, 3.636867e+003
3.966192e+002, 3.631759e+003
3.971013e+002, 3.635392e+003
3.975834e+002, 3.638036e+003
3.980655e+002, 3.638381e+003
3.985476e+002, 3.637734e+003
3.990298e+002, 3.637719e+003
3.995119e+002, 3.638642e+003
3.999940e+002, 3.639121e+003
4.004761e+002, 3.636950e+003
4.009582e+002, 3.630595e+003
4.014403e+002, 3.627071e+003
4.019225e+002, 3.627800e+003
4.024046e+002, 3.629608e+003
4.028867e+002, 3.632370e+003
4.033688e+002, 3.635052e+003
4.038509e+002, 3.635607e+003
4.043330e+002, 3.632315e+003
4.048152e+002, 3.625993e+003
4.052973e+002, 3.621304e+003
4.057794e+002, 3.618539e+003
4.062615e+002, 3.617133e+003
4.067436e+002, 3.618575e+003
4.072257e+002, 3.620356e+003
4.077079e+002, 3.619297e+003
4.081900e+002, 3.614527e+003
4.086721e+002, 3.609230e+003
4.091542e+002, 3.608144e+003
4.096363e+002, 3.612114e+003
4.101184e+002, 3.615521e+003
4.106006e+002, 3.619199e+003
4.110827e+002, 3.620818e+003
4.115648e+002, 3.617999e+003
4.120469e+002, 3.611824e+003
4.125290e+002, 3.605979e+003
4.130111e+002, 3.602875e+003
4.134933e+002, 3.601911e+003
4.139754e+002, 3.601237e+003
4.144575e+002, 3.600950e+003
4.149396e+002, 3.600750e+003
4.154217e+002, 3.600124e+003
4.159038e+002, 3.599660e+003
4.163860e+002, 3.600346e+003
4.168681e+002, 3.602815e+003
4.173502e+002, 3.605119e+003
4.178323e+002, 3.605168e+003
4.183144e+002, 3.603191e+003
4.187965e+002, 3.601077e+003
4.192787e+002, 3.598935e+003
4.197608e+002, 3.597307e+003
4.202429e+002, 3.597204e+003
4.207250e+002, 3.598451e+003
4.212071e+002, 3.598926e+003
4.216892e+002, 3.596827e+003
4.221714e+002, 3.594018e+003
4.226535e+002, 3.593293e+003
4.231356e+002, 3.594853e+003
4.236177e+002, 3.596595e+003
4.240998e+002, 3.597450e+003
4.245819e+002, 3.597258e+003
4.250641e+002, 3.595782e+003
4.255462e+002, 3.590981e+003
4.260283e+002, 3.587492e+003
4.265104e+002, 3.588519e+003
4.269925e+002, 3.592111e+003
4.274746e+002, 3.594679e+003
4.279568e+002, 3.595079e+003
4.284389e+002, 3.593761e+003
4.289210e+002, 3.591225e+003
4.294031e+002, 3.586807e+003
4.298852e+002, 3.583026e+003
4.303673e+002, 3.579620e+003
4.308495e+002, 3.577048e+003
4.313316e+002, 3.575660e+003
4.318137e+002, 3.575411e+003
4.322958e+002, 3.576175e+003
4.327779e+002, 3.578029e+003
4.332600e+002, 3.580708e+003
4.337422e+002, 3.582049e+003
4.342243e+002, 3.581083e+003
4.347064e+002, 3.579831e+003
4.351885e+002, 3.578519e+003
4.356706e+002, 3.577012e+003
4.361527e+002, 3.574539e+003
4.366349e+002, 3.571079e+003
4.371170e+002, 3.568400e+003
4.375991e+002, 3.569566e+003
4.380812e+002, 3.576240e+003
4.385633e+002, 3.580585e+003
4.390454e+002, 3.580503e+003
4.395276e+002, 3.579989e+003
4.400097e+002, 3.581294e+003
4.404918e+002, 3.583414e+003
4.409739e+002, 3.583689e+003
4.414560e+002, 3.580022e+003
4.419381e+002, 3.573996e+003
4.424203e+002, 3.570269e+003
4.429024e+002, 3.569665e+003
4.433845e+002, 3.569272e+003
4.438666e+002, 3.568723e+003
4.443487e+002, 3.567743e+003
4.448308e+002, 3.566030e+003
4.453130e+002, 3.563543e+003
4.457951e+002, 3.560562e+003
4.462772e+002, 3.556083e+003
4.467593e+002, 3.550905e+003
4.472414e+002, 3.549880e+003
4.477235e+002, 3.555335e+003
4.482057e+002, 3.561269e+003
4.486878e+002, 3.562206e+003
4.491699e+002, 3.560084e+003
4.496520e+002, 3.559426e+003
4.501341e+002, 3.562929e+003
4.506162e+002, 3.566880e+003
4.510984e+002, 3.567597e+003
4.515805e+002, 3.565496e+003
4.520626e+002, 3.563056e+003
4.525447e+002, 3.560949e+003
4.530268e+002, 3.559459e+003
4.535089e+002, 3.559539e+003
4.539911e+002, 3.561622e+003
4.544732e+002, 3.562832e+003
4.549553e+002, 3.561854e+003
4.554374e+002, 3.560065e+003
4.559195e+002, 3.558853e+003
4.564016e+002, 3.558357e+003
4.568838e+002, 3.558033e+003
4.573659e+002, 3.557372e+003
4.578480e+002, 3.556429e+003
4.583301e+002, 3.556312e+003
4.588122e+002, 3.557411e+003
4.592943e+002, 3.558718e+003
4.597765e+002, 3.561096e+003
4.602586e+002, 3.563140e+003
4.607407e+002, 3.562618e+003
4.612228e+002, 3.558924e+003
4.617049e+002, 3.554002e+003
4.621870e+002, 3.550753e+003
4.626692e+002, 3.549790e+003
4.631513e+002, 3.548658e+003
4.636334e+002, 3.546735e+003
4.641155e+002, 3.545308e+003
4.645976e+002, 3.545390e+003
4.650797e+002, 3.546418e+003
4.655619e+002, 3.547180e+003
4.660440e+002, 3.547039e+003
4.665261e+002, 3.545989e+003
4.670082e+002, 3.543539e+003
4.674903e+002, 3.538425e+003
4.679724e+002, 3.535354e+003
4.684546e+002, 3.537423e+003
4.689367e+002, 3.540663e+003
4.694188e+002, 3.542292e+003
4.699009e+002, 3.542028e+003
4.703830e+002, 3.541248e+003
4.708651e+002, 3.540965e+003
4.713473e+002, 3.540983e+003
4.718294e+002, 3.540769e+003
4.723115e+002, 3.540455e+003
4.727936e+002, 3.539292e+003
4.732757e+002, 3.535683e+003
4.737578e+002, 3.531063e+003
4.742400e+002, 3.528256e+003
4.747221e+002, 3.528280e+003
4.752042e+002, 3.529171e+003
4.756863e+002, 3.529827e+003
4.761684e+002, 3.530303e+003
4.766505e+002, 3.530778e+003
4.771327e+002, 3.531328e+003
4.776148e+002, 3.531874e+003
4.780969e+002, 3.532687e+003
4.785790e+002, 3.534069e+003
4.790611e+002, 3.533032e+003
4.795432e+002, 3.526684e+003
4.800254e+002, 3.520328e+003
4.805075e+002, 3.517565e+003
4.809896e+002, 3.517740e+003
4.814717e+002, 3.518461e+003
4.819538e+002, 3.518494e+003
4.824359e+002, 3.517926e+003
4.829181e+002, 3.516952e+003
4.834002e+002, 3.514520e+003
4.838823e+002, 3.513278e+003
4.843644e+002, 3.514349e+003
4.848465e+002, 3.515727e+003
4.853286e+002, 3.516288e+003
4.858108e+002, 3.515750e+003
4.862929e+002, 3.513974e+003
4.867750e+002, 3.510519e+003
4.872571e+002, 3.505692e+003
4.877392e+002, 3.502183e+003
4.882213e+002, 3.500199e+003
4.887035e+002, 3.499262e+003
4.891856e+002, 3.499753e+003
4.896677e+002, 3.500760e+003
4.901498e+002, 3.501438e+003
4.906319e+002, 3.501577e+003
4.911140e+002, 3.501270e+003
4.915962e+002, 3.500388e+003
4.920783e+002, 3.499030e+003
4.925604e+002, 3.498308e+003
4.930425e+002, 3.499148e+003
4.935246e+002, 3.499025e+003
4.940067e+002, 3.495335e+003
4.944889e+002, 3.489328e+003
4.949710e+002, 3.483620e+003
4.954531e+002, 3.479076e+003
4.959352e+002, 3.474718e+003
4.964173e+002, 3.469116e+003
4.968994e+002, 3.462906e+003
4.973816e+002, 3.458562e+003
4.978637e+002, 3.457167e+003
4.983458e+002, 3.457182e+003
4.988279e+002, 3.456375e+003
4.993100e+002, 3.454405e+003
4.997921e+002, 3.453422e+003
5.002743e+002, 3.454861e+003
5.007564e+002, 3.456206e+003
5.012385e+002, 3.456190e+003
5.017206e+002, 3.454660e+003
5.022027e+002, 3.451171e+003
5.026848e+002, 3.445258e+003
5.031670e+002, 3.438280e+003
5.036491e+002, 3.434427e+003
5.041312e+002, 3.436068e+003
5.046133e+002, 3.437098e+003
5.050954e+002, 3.435063e+003
5.055775e+002, 3.434196e+003
5.060597e+002, 3.439246e+003
5.065418e+002, 3.448828e+003
5.070239e+002, 3.456553e+003
5.075060e+002, 3.457216e+003
5.079881e+002, 3.452014e+003
5.084702e+002, 3.446201e+003
5.089524e+002, 3.438740e+003
5.094345e+002, 3.433073e+003
5.099166e+002, 3.430177e+003
5.103987e+002, 3.429681e+003
5.108808e+002, 3.432417e+003
5.113629e+002, 3.438530e+003
5.118451e+002, 3.443999e+003
5.123271e+002, 3.444813e+003
5.128093e+002, 3.442702e+003
5.132914e+002, 3.442759e+003
5.137735e+002, 3.445774e+003
5.142556e+002, 3.449208e+003
5.147377e+002, 3.451215e+003
5.152198e+002, 3.452275e+003
5.157020e+002, 3.454163e+003
5.161841e+002, 3.457567e+003
5.166662e+002, 3.460844e+003
5.171483e+002, 3.462961e+003
5.176304e+002, 3.464555e+003
5.181125e+002, 3.466784e+003
5.185947e+002, 3.469920e+003
5.190768e+002, 3.473299e+003
5.195589e+002, 3.476442e+003
5.200410e+002, 3.479563e+003
5.205231e+002, 3.480280e+003
5.210052e+002, 3.476451e+003
5.214874e+002, 3.473020e+003
5.219695e+002, 3.472128e+003
5.224516e+002, 3.472398e+003
5.229337e+002, 3.471965e+003
5.234158e+002, 3.470114e+003
5.238979e+002, 3.467134e+003
5.243801e+002, 3.463487e+003
5.248622e+002, 3.459312e+003
5.253443e+002, 3.453833e+003
5.258264e+002, 3.445445e+003
5.263085e+002, 3.437484e+003
5.267906e+002, 3.431993e+003
5.272728e+002, 3.427865e+003
5.277549e+002, 3.422761e+003
5.282370e+002, 3.415354e+003
5.287191e+002, 3.407444e+003
5.292012e+002, 3.401989e+003
5.296833e+002, 3.398707e+003
5.301655e+002, 3.393050e+003
5.306476e+002, 3.382460e+003
5.311297e+002, 3.371483e+003
5.316118e+002, 3.365995e+003
5.320939e+002, 3.365168e+003
5.325760e+002, 3.363476e+003
5.330582e+002, 3.359177e+003
5.335403e+002, 3.354189e+003
5.340224e+002, 3.349282e+003
5.345045e+002, 3.344870e+003
5.349866e+002, 3.342492e+003
5.354688e+002, 3.343079e+003
5.359509e+002, 3.344578e+003
5.364330e+002, 3.343128e+003
5.369151e+002, 3.337485e+003
5.373972e+002, 3.331690e+003
5.378793e+002, 3.324413e+003
5.383615e+002, 3.318209e+003
5.388436e+002, 3.314834e+003
5.393257e+002, 3.313687e+003
5.398078e+002, 3.313415e+003
5.402899e+002, 3.313380e+003
5.407720e+002, 3.313098e+003
5.412542e+002, 3.311156e+003
5.417363e+002, 3.306774e+003
5.422184e+002, 3.303298e+003
5.427005e+002, 3.301506e+003
5.431826e+002, 3.300544e+003
5.436647e+002, 3.300586e+003
5.441469e+002, 3.301172e+003
5.446290e+002, 3.300722e+003
5.451111e+002, 3.297607e+003
5.455932e+002, 3.293619e+003
5.460753e+002, 3.291859e+003
5.465574e+002, 3.292235e+003
5.470396e+002, 3.291652e+003
5.475217e+002, 3.288330e+003
5.480038e+002, 3.284377e+003
5.484859e+002, 3.283915e+003
5.489680e+002, 3.287498e+003
5.494501e+002, 3.288585e+003
5.499323e+002, 3.284129e+003
5.504144e+002, 3.278286e+003
5.508965e+002, 3.274432e+003
5.513786e+002, 3.272173e+003
5.518607e+002, 3.269063e+003
5.523428e+002, 3.263653e+003
5.528250e+002, 3.257345e+003
5.533071e+002, 3.253771e+003
5.537892e+002, 3.255461e+003
5.542713e+002, 3.255303e+003
5.547534e+002, 3.252417e+003
5.552355e+002, 3.248754e+003
5.557177e+002, 3.244616e+003
5.561998e+002, 3.240647e+003
5.566819e+002, 3.238110e+003
5.571640e+002, 3.237969e+003
5.576461e+002, 3.239297e+003
5.581282e+002, 3.240480e+003
5.586104e+002, 3.241749e+003
5.590925e+002, 3.241315e+003
5.595746e+002, 3.237567e+003
5.600567e+002, 3.233083e+003
5.605388e+002, 3.229987e+003
5.610209e+002, 3.228202e+003
5.615031e+002, 3.227082e+003
5.619852e+002, 3.226659e+003
5.624673e+002, 3.226606e+003
5.629494e+002, 3.226686e+003
5.634315e+002, 3.226853e+003
5.639136e+002, 3.226814e+003
5.643958e+002, 3.226299e+003
5.648779e+002, 3.225998e+003
5.653600e+002, 3.227311e+003
5.658421e+002, 3.231452e+003
5.663242e+002, 3.233545e+003
5.668063e+002, 3.231739e+003
5.672885e+002, 3.229669e+003
5.677706e+002, 3.229703e+003
5.682527e+002, 3.231028e+003
5.687348e+002, 3.231446e+003
5.692169e+002, 3.229844e+003
5.696990e+002, 3.227542e+003
5.701812e+002, 3.227312e+003
5.706633e+002, 3.229824e+003
5.711454e+002, 3.231726e+003
5.716275e+002, 3.232996e+003
5.721096e+002, 3.233319e+003
5.725917e+002, 3.231727e+003
5.730739e+002, 3.229143e+003
5.735560e+002, 3.227744e+003
5.740381e+002, 3.228866e+003
5.745202e+002, 3.230588e+003
5.750023e+002, 3.231143e+003
5.754844e+002, 3.230504e+003
5.759666e+002, 3.228150e+003
5.764487e+002, 3.223479e+003
5.769308e+002, 3.218610e+003
5.774129e+002, 3.216070e+003
5.778950e+002, 3.215908e+003
5.783771e+002, 3.214316e+003
5.788593e+002, 3.209192e+003
5.793414e+002, 3.204774e+003
5.798235e+002, 3.203373e+003
5.803056e+002, 3.203796e+003
5.807877e+002, 3.204363e+003
5.812698e+002, 3.204470e+003
5.817520e+002, 3.203919e+003
5.822341e+002, 3.202376e+003
5.827162e+002, 3.199707e+003
5.831984e+002, 3.197169e+003
5.836805e+002, 3.194990e+003
5.841626e+002, 3.192657e+003
5.846447e+002, 3.189335e+003
5.851268e+002, 3.186086e+003
5.856089e+002, 3.184518e+003
5.860911e+002, 3.185084e+003
5.865732e+002, 3.185843e+003
5.870553e+002, 3.184829e+003
5.875374e+002, 3.182509e+003
5.880195e+002, 3.180867e+003
5.885016e+002, 3.180297e+003
5.889838e+002, 3.179207e+003
5.894659e+002, 3.176327e+003
5.899480e+002, 3.172247e+003
5.904301e+002, 3.168802e+003
5.909122e+002, 3.166129e+003
5.913943e+002, 3.163809e+003
5.918765e+002, 3.162188e+003
5.923586e+002, 3.160576e+003
5.928407e+002, 3.157597e+003
5.933228e+002, 3.153560e+003
5.938049e+002, 3.150915e+003
5.942870e+002, 3.151771e+003
5.947692e+002, 3.155005e+003
5.952513e+002, 3.155228e+003
5.957334e+002, 3.150511e+003
5.962155e+002, 3.146128e+003
5.966976e+002, 3.142990e+003
5.971797e+002, 3.140030e+003
5.976619e+002, 3.135929e+003
5.981440e+002, 3.131158e+003
5.986261e+002, 3.127757e+003
5.991082e+002, 3.127209e+003
5.995903e+002, 3.128521e+003
6.000724e+002, 3.130556e+003
6.005546e+002, 3.133308e+003
6.010367e+002, 3.134280e+003
6.015188e+002, 3.132274e+003
6.020009e+002, 3.128736e+003
6.024830e+002, 3.124933e+003
6.029651e+002, 3.120832e+003
6.034473e+002, 3.117935e+003
6.039294e+002, 3.117343e+003
6.044115e+002, 3.117150e+003
6.048936e+002, 3.115941e+003
6.053757e+002, 3.114310e+003
6.058578e+002, 3.113857e+003
6.063400e+002, 3.115134e+003
6.068221e+002, 3.116617e+003
6.073042e+002, 3.116023e+003
6.077863e+002, 3.112980e+003
6.082684e+002, 3.110502e+003
6.087505e+002, 3.110025e+003
6.092327e+002, 3.108463e+003
6.097148e+002, 3.103479e+003
6.101969e+002, 3.097612e+003
6.106790e+002, 3.094067e+003
6.111611e+002, 3.093751e+003
6.116432e+002, 3.094929e+003
6.121254e+002, 3.096678e+003
6.126075e+002, 3.098684e+003
6.130896e+002, 3.099930e+003
6.135717e+002, 3.100313e+003
6.140538e+002, 3.100049e+003
6.145359e+002, 3.098902e+003
6.150181e+002, 3.097344e+003
6.155002e+002, 3.096825e+003
6.159823e+002, 3.097599e+003
6.164644e+002, 3.098596e+003
6.169465e+002, 3.099681e+003
6.174286e+002, 3.100818e+003
6.179108e+002, 3.101332e+003
6.183929e+002, 3.101762e+003
6.188750e+002, 3.104278e+003
6.193571e+002, 3.110530e+003
6.198392e+002, 3.118308e+003
6.203214e+002, 3.121282e+003
6.208035e+002, 3.117378e+003
6.212856e+002, 3.115110e+003
6.217677e+002, 3.116972e+003
6.222498e+002, 3.119197e+003
6.227319e+002, 3.119655e+003
6.232141e+002, 3.118934e+003
6.236962e+002, 3.118741e+003
6.241783e+002, 3.119960e+003
6.246604e+002, 3.121503e+003
6.251425e+002, 3.122145e+003
6.256246e+002, 3.122224e+003
6.261068e+002, 3.123473e+003
6.265889e+002, 3.126559e+003
6.270710e+002, 3.128162e+003
6.275531e+002, 3.124605e+003
6.280352e+002, 3.116205e+003
6.285173e+002, 3.110128e+003
6.289995e+002, 3.107687e+003
6.294816e+002, 3.105561e+003
6.299637e+002, 3.102824e+003
6.304458e+002, 3.100229e+003
6.309279e+002, 3.099060e+003
6.314100e+002, 3.099068e+003
6.318922e+002, 3.098182e+003
6.323743e+002, 3.094247e+003
6.328564e+002, 3.088414e+003
6.333385e+002, 3.085515e+003
6.338206e+002, 3.086641e+003
6.343027e+002, 3.086042e+003
6.347849e+002, 3.080417e+003
6.352670e+002, 3.073976e+003
6.357491e+002, 3.070470e+003
6.362312e+002, 3.069767e+003
6.367133e+002, 3.070610e+003
6.371954e+002, 3.074501e+003
6.376776e+002, 3.078117e+003
6.381597e+002, 3.078206e+003
6.386418e+002, 3.075965e+003
6.391239e+002, 3.074744e+003
6.396060e+002, 3.075655e+003
6.400881e+002, 3.076365e+003
6.405703e+002, 3.073603e+003
6.410524e+002, 3.066885e+003
6.415345e+002, 3.062722e+003
6.420166e+002, 3.062836e+003
6.424987e+002, 3.063690e+003
6.429808e+002, 3.065810e+003
6.434630e+002, 3.067660e+003
6.439451e+002, 3.067372e+003
6.444272e+002, 3.064775e+003
6.449093e+002, 3.061870e+003
6.453914e+002, 3.059770e+003
6.458735e+002, 3.058608e+003
6.463557e+002, 3.059858e+003
6.468378e+002, 3.063714e+003
6.473199e+002, 3.064246e+003
6.478020e+002, 3.058124e+003
6.482841e+002, 3.048648e+003
6.487662e+002, 3.040825e+003
6.492484e+002, 3.034781e+003
6.497305e+002, 3.029405e+003
6.502126e+002, 3.024785e+003
6.506947e+002, 3.020646e+003
6.511768e+002, 3.016655e+003
6.516589e+002, 3.013067e+003
6.521411e+002, 3.010708e+003
6.526232e+002, 3.009775e+003
6.531053e+002, 3.009008e+003
6.535874e+002, 3.006388e+003
6.540695e+002, 3.001883e+003
6.545516e+002, 2.999457e+003
6.550338e+002, 3.000382e+003
6.555159e+002, 3.000875e+003
6.559980e+002, 2.998946e+003
6.564801e+002, 2.995874e+003
6.569622e+002, 2.992647e+003
6.574443e+002, 2.989237e+003
6.579265e+002, 2.986914e+003
6.584086e+002, 2.986935e+003
6.588907e+002, 2.987861e+003
6.593728e+002, 2.987565e+003
6.598549e+002, 2.986572e+003
6.603370e+002, 2.987862e+003
6.608192e+002, 2.992988e+003
6.613013e+002, 2.999215e+003
6.617834e+002, 3.001332e+003
6.622655e+002, 2.997314e+003
6.627476e+002, 2.996821e+003
6.632297e+002, 3.001656e+003
6.637119e+002, 3.008149e+003
6.641940e+002, 3.016689e+003
6.646761e+002, 3.025647e+003
6.651582e+002, 3.032908e+003
6.656403e+002, 3.037932e+003
6.661224e+002, 3.041915e+003
6.666046e+002, 3.044757e+003
6.670867e+002, 3.047555e+003
6.675688e+002, 3.053100e+003
6.680509e+002, 3.061531e+003
6.685330e+002, 3.071647e+003
6.690151e+002, 3.083553e+003
6.694973e+002, 3.095739e+003
6.699794e+002, 3.104857e+003
6.704615e+002, 3.108708e+003
6.709436e+002, 3.115501e+003
6.714257e+002, 3.127636e+003
6.719078e+002, 3.140363e+003
6.723900e+002, 3.152516e+003
6.728721e+002, 3.163164e+003
6.733542e+002, 3.170736e+003
6.738363e+002, 3.174762e+003
6.743184e+002, 3.177519e+003
6.748005e+002, 3.181813e+003
6.752827e+002, 3.187427e+003
6.757648e+002, 3.192737e+003
6.762469e+002, 3.198489e+003
6.767290e+002, 3.201016e+003
6.772111e+002, 3.198435e+003
6.776932e+002, 3.191469e+003
6.781754e+002, 3.181147e+003
6.786575e+002, 3.166737e+003
6.791396e+002, 3.153121e+003
6.796217e+002, 3.142766e+003
6.801038e+002, 3.132317e+003
6.805859e+002, 3.119177e+003
6.810681e+002, 3.103923e+003
6.815502e+002, 3.088057e+003
6.820323e+002, 3.072274e+003
6.825144e+002, 3.056832e+003
6.829965e+002, 3.042283e+003
6.834786e+002, 3.028661e+003
6.839608e+002, 3.015826e+003
6.844429e+002, 3.004038e+003
6.849250e+002, 2.992642e+003
6.854071e+002, 2.981543e+003
6.858892e+002, 2.970629e+003
6.863713e+002, 2.959281e+003
6.868535e+002, 2.947340e+003
6.873356e+002, 2.937434e+003
6.878177e+002, 2.932560e+003
6.882998e+002, 2.928908e+003
6.887819e+002, 2.921978e+003
6.892640e+002, 2.912768e+003
6.897462e+002, 2.905573e+003
6.902283e+002, 2.902062e+003
6.907104e+002, 2.899221e+003
6.911925e+002, 2.892267e+003
6.916746e+002, 2.880258e+003
6.921567e+002, 2.872648e+003
6.926389e+002, 2.873763e+003
6.931210e+002, 2.873368e+003
6.936031e+002, 2.867075e+003
6.940852e+002, 2.859173e+003
6.945673e+002, 2.854074e+003
6.950494e+002, 2.852260e+003
6.955316e+002, 2.851153e+003
6.960137e+002, 2.849913e+003
6.964958e+002, 2.848125e+003
6.969779e+002, 2.845325e+003
6.974600e+002, 2.841508e+003
6.979421e+002, 2.836322e+003
6.984243e+002, 2.829516e+003
6.989064e+002, 2.822508e+003
6.993885e+002, 2.816970e+003
6.998706e+002, 2.812919e+003
7.003527e+002, 2.810141e+003
7.008348e+002, 2.809481e+003
7.013170e+002, 2.809106e+003
7.017991e+002, 2.809420e+003
7.022812e+002, 2.809414e+003
7.027633e+002, 2.808064e+003
7.032454e+002, 2.805366e+003
7.037275e+002, 2.802171e+003
7.042097e+002, 2.798539e+003
7.046918e+002, 2.795109e+003
7.051739e+002, 2.792743e+003
7.056560e+002, 2.791419e+003
7.061381e+002, 2.791396e+003
7.066202e+002, 2.792950e+003
7.071024e+002, 2.794719e+003
7.075845e+002, 2.795643e+003
7.080666e+002, 2.795683e+003
7.085487e+002, 2.793113e+003
7.090308e+002, 2.784717e+003
7.095129e+002, 2.778074e+003
7.099951e+002, 2.775139e+003
7.104772e+002, 2.773705e+003
7.109593e+002, 2.772307e+003
7.114414e+002, 2.770658e+003
7.119235e+002, 2.768781e+003
7.124056e+002, 2.766539e+003
7.128878e+002, 2.764324e+003
7.133699e+002, 2.762929e+003
7.138520e+002, 2.762206e+003
7.143341e+002, 2.761258e+003
7.148162e+002, 2.760026e+003
7.152983e+002, 2.757929e+003
7.157805e+002, 2.754044e+003
7.162626e+002, 2.748915e+003
7.167447e+002, 2.745612e+003
7.172268e+002, 2.747303e+003
7.177089e+002, 2.746219e+003
7.181910e+002, 2.738072e+003
7.186732e+002, 2.730136e+003
7.191553e+002, 2.728152e+003
7.196374e+002, 2.730755e+003
7.201195e+002, 2.733627e+003
7.206016e+002, 2.734819e+003
7.210837e+002, 2.734806e+003
7.215659e+002, 2.734106e+003
7.220480e+002, 2.732727e+003
7.225301e+002, 2.730553e+003
7.230122e+002, 2.727405e+003
7.234943e+002, 2.724416e+003
7.239764e+002, 2.722359e+003
7.244586e+002, 2.720797e+003
7.249407e+002, 2.718443e+003
7.254228e+002, 2.714199e+003
7.259049e+002, 2.711855e+003
7.263870e+002, 2.712839e+003
7.268691e+002, 2.714532e+003
7.273513e+002, 2.716506e+003
7.278334e+002, 2.717881e+003
7.283155e+002, 2.717030e+003
7.287976e+002, 2.713520e+003
7.292797e+002, 2.709575e+003
7.297618e+002, 2.708011e+003
7.302440e+002, 2.707955e+003
7.307261e+002, 2.705637e+003
7.312082e+002, 2.700749e+003
7.316903e+002, 2.697315e+003
7.321724e+002, 2.697501e+003
7.326545e+002, 2.699058e+003
7.331367e+002, 2.698834e+003
7.336188e+002, 2.696572e+003
7.341009e+002, 2.693648e+003
7.345830e+002, 2.687932e+003
7.350651e+002, 2.684073e+003
7.355472e+002, 2.685618e+003
7.360294e+002, 2.688739e+003
7.365115e+002, 2.688750e+003
7.369936e+002, 2.685235e+003
7.374757e+002, 2.681422e+003
7.379578e+002, 2.679776e+003
7.384399e+002, 2.679327e+003
7.389221e+002, 2.678010e+003
7.394042e+002, 2.675906e+003
7.398863e+002, 2.674163e+003
7.403684e+002, 2.672961e+003
7.408505e+002, 2.672687e+003
7.413326e+002, 2.674332e+003
7.418148e+002, 2.677512e+003
7.422969e+002, 2.677755e+003
7.427790e+002, 2.672400e+003
7.432611e+002, 2.668044e+003
7.437432e+002, 2.666219e+003
7.442253e+002, 2.665015e+003
7.447075e+002, 2.663196e+003
7.451896e+002, 2.660727e+003
7.456717e+002, 2.657803e+003
7.461538e+002, 2.654321e+003
7.466359e+002, 2.651297e+003
7.471180e+002, 2.650298e+003
7.476002e+002, 2.650793e+003
7.480823e+002, 2.650902e+003
7.485644e+002, 2.650417e+003
7.490465e+002, 2.649541e+003
7.495286e+002, 2.648309e+003
7.500107e+002, 2.646883e+003
7.504929e+002, 2.645661e+003
7.509750e+002, 2.644881e+003
7.514571e+002, 2.643695e+003
7.519392e+002, 2.642058e+003
7.524213e+002, 2.640100e+003
7.529034e+002, 2.637257e+003
7.533856e+002, 2.634392e+003
7.538677e+002, 2.633182e+003
7.543498e+002, 2.633860e+003
7.548319e+002, 2.633585e+003
7.553140e+002, 2.628649e+003
7.557961e+002, 2.622254e+003
7.562783e+002, 2.619877e+003
7.567604e+002, 2.621103e+003
7.572425e+002, 2.623489e+003
7.577246e+002, 2.626407e+003
7.582067e+002, 2.628192e+003
7.586888e+002, 2.626407e+003
7.591710e+002, 2.621087e+003
7.596531e+002, 2.618810e+003
7.601352e+002, 2.621804e+003
7.606173e+002, 2.624478e+003
7.610994e+002, 2.627563e+003
7.615815e+002, 2.628776e+003
7.620637e+002, 2.624849e+003
7.625458e+002, 2.617374e+003
7.630279e+002, 2.612062e+003
7.635100e+002, 2.611765e+003
7.639921e+002, 2.613169e+003
7.644742e+002, 2.615161e+003
7.649564e+002, 2.616406e+003
7.654385e+002, 2.613276e+003
7.659206e+002, 2.606051e+003
7.664027e+002, 2.599958e+003
7.668848e+002, 2.598384e+003
7.673669e+002, 2.599831e+003
7.678491e+002, 2.601101e+003
7.683312e+002, 2.602629e+003
7.688133e+002, 2.602302e+003
7.692954e+002, 2.598962e+003
7.697775e+002, 2.595334e+003
7.702596e+002, 2.591883e+003
7.707418e+002, 2.589170e+003
7.712239e+002, 2.588186e+003
7.717060e+002, 2.589156e+003
7.721881e+002, 2.590381e+003
7.726702e+002, 2.592216e+003
7.731523e+002, 2.593146e+003
7.736345e+002, 2.591169e+003
7.741166e+002, 2.587516e+003
7.745987e+002, 2.584643e+003
7.750808e+002, 2.583254e+003
7.755629e+002, 2.582555e+003
7.760450e+002, 2.581788e+003
7.765272e+002, 2.581032e+003
7.770093e+002, 2.580938e+003
7.774914e+002, 2.581892e+003
7.779735e+002, 2.581333e+003
7.784556e+002, 2.578000e+003
7.789377e+002, 2.574015e+003
7.794199e+002, 2.571120e+003
7.799020e+002, 2.569157e+003
7.803841e+002, 2.567241e+003
7.808662e+002, 2.564540e+003
7.813483e+002, 2.563064e+003
7.818304e+002, 2.564343e+003
7.823126e+002, 2.566135e+003
7.827947e+002, 2.566656e+003
7.832768e+002, 2.566060e+003
7.837589e+002, 2.565075e+003
7.842410e+002, 2.563990e+003
7.847231e+002, 2.563287e+003
7.852053e+002, 2.564144e+003
7.856874e+002, 2.565918e+003
7.861695e+002, 2.565654e+003
7.866516e+002, 2.563099e+003
7.871337e+002, 2.561167e+003
7.876158e+002, 2.561259e+003
7.880980e+002, 2.562410e+003
7.885801e+002, 2.563496e+003
7.890622e+002, 2.564891e+003
7.895443e+002, 2.563769e+003
7.900264e+002, 2.557202e+003
7.905085e+002, 2.551991e+003
7.909907e+002, 2.549666e+003
7.914728e+002, 2.549280e+003
7.919549e+002, 2.550950e+003
7.924370e+002, 2.553909e+003
7.929191e+002, 2.555485e+003
7.934012e+002, 2.553848e+003
7.938834e+002, 2.551065e+003
7.943655e+002, 2.548492e+003
7.948476e+002, 2.546434e+003
7.953297e+002, 2.546063e+003
7.958118e+002, 2.547271e+003
7.962939e+002, 2.547760e+003
7.967761e+002, 2.545906e+003
7.972582e+002, 2.542874e+003
7.977403e+002, 2.541974e+003
7.982224e+002, 2.544516e+003
7.987045e+002, 2.543299e+003
7.991866e+002, 2.535242e+003
7.996688e+002, 2.528042e+003
8.001509e+002, 2.524931e+003
8.006330e+002, 2.524774e+003
8.011151e+002, 2.527159e+003
8.015972e+002, 2.532333e+003
8.020793e+002, 2.536199e+003
8.025615e+002, 2.536820e+003
8.030436e+002, 2.536681e+003
8.035257e+002, 2.538035e+003
8.040078e+002, 2.539319e+003
8.044899e+002, 2.537487e+003
8.049720e+002, 2.532511e+003
8.054542e+002, 2.527636e+003
8.059363e+002, 2.525335e+003
8.064184e+002, 2.524915e+003
8.069005e+002, 2.525154e+003
8.073826e+002, 2.526001e+003
8.078647e+002, 2.526875e+003
8.083469e+002, 2.527978e+003
8.088290e+002, 2.527436e+003
8.093111e+002, 2.523099e+003
8.097932e+002, 2.516685e+003
8.102753e+002, 2.513568e+003
8.107574e+002, 2.515709e+003
8.112396e+002, 2.517190e+003
8.117217e+002, 2.517594e+003
8.122038e+002, 2.517843e+003
8.126859e+002, 2.518522e+003
8.131680e+002, 2.519219e+003
8.136501e+002, 2.519133e+003
8.141323e+002, 2.518194e+003
8.146144e+002, 2.517679e+003
8.150965e+002, 2.519000e+003
8.155786e+002, 2.520677e+003
8.160607e+002, 2.520888e+003
8.165428e+002, 2.520052e+003
8.170250e+002, 2.519379e+003
8.175071e+002, 2.519109e+003
8.179892e+002, 2.518510e+003
8.184713e+002, 2.516891e+003
8.189534e+002, 2.514559e+003
8.194355e+002, 2.512859e+003
8.199177e+002, 2.512180e+003
8.203998e+002, 2.509935e+003
8.208819e+002, 2.503952e+003
8.213640e+002, 2.499564e+003
8.218461e+002, 2.502002e+003
8.223282e+002, 2.507570e+003
8.228104e+002, 2.508474e+003
8.232925e+002, 2.502843e+003
8.237746e+002, 2.499276e+003
8.242567e+002, 2.501506e+003
8.247388e+002, 2.504091e+003
8.252209e+002, 2.504583e+003
8.257031e+002, 2.503152e+003
8.261852e+002, 2.499397e+003
8.266673e+002, 2.493830e+003
8.271494e+002, 2.489493e+003
8.276315e+002, 2.489452e+003
8.281136e+002, 2.491227e+003
8.285958e+002, 2.490282e+003
8.290779e+002, 2.487254e+003
8.295600e+002, 2.485458e+003
8.300421e+002, 2.485560e+003
8.305242e+002, 2.485455e+003
8.310063e+002, 2.483199e+003
8.314885e+002, 2.480254e+003
8.319706e+002, 2.481716e+003
8.324527e+002, 2.491010e+003
8.329348e+002, 2.495495e+003
8.334169e+002, 2.491386e+003
8.338990e+002, 2.487069e+003
8.343812e+002, 2.486237e+003
8.348633e+002, 2.486825e+003
8.353454e+002, 2.485793e+003
8.358275e+002, 2.482796e+003
8.363096e+002, 2.481699e+003
8.367917e+002, 2.485541e+003
8.372739e+002, 2.489767e+003
8.377560e+002, 2.492644e+003
8.382381e+002, 2.493582e+003
8.387202e+002, 2.490598e+003
8.392023e+002, 2.484504e+003
8.396844e+002, 2.479885e+003
8.401666e+002, 2.480061e+003
8.406487e+002, 2.482561e+003
8.411308e+002, 2.483247e+003
8.416129e+002, 2.482356e+003
8.420950e+002, 2.481762e+003
8.425771e+002, 2.481758e+003
8.430593e+002, 2.480429e+003
8.435414e+002, 2.476009e+003
8.440235e+002, 2.471253e+003
8.445056e+002, 2.471778e+003
8.449877e+002, 2.479455e+003
8.454698e+002, 2.482947e+003
8.459520e+002, 2.478578e+003
8.464341e+002, 2.474844e+003
8.469162e+002, 2.473631e+003
8.473983e+002, 2.473863e+003
8.478804e+002, 2.475254e+003
8.483625e+002, 2.477372e+003
8.488447e+002, 2.478448e+003
8.493268e+002, 2.477243e+003
8.498089e+002, 2.475939e+003
8.502910e+002, 2.475785e+003
8.507731e+002, 2.476152e+003
8.512552e+002, 2.476375e+003
8.517374e+002, 2.476407e+003
8.522195e+002, 2.476221e+003
8.527016e+002, 2.475801e+003
8.531837e+002, 2.475945e+003
8.536658e+002, 2.478522e+003
8.541479e+002, 2.482659e+003
8.546301e+002, 2.483666e+003
8.551122e+002, 2.481396e+003
8.555943e+002, 2.480369e+003
8.560764e+002, 2.482437e+003
8.565585e+002, 2.484961e+003
8.570406e+002, 2.484822e+003
8.575228e+002, 2.482405e+003
8.580049e+002, 2.482341e+003
8.584870e+002, 2.486358e+003
8.589691e+002, 2.489851e+003
8.594512e+002, 2.493061e+003
8.599333e+002, 2.495083e+003
8.604155e+002, 2.495166e+003
8.608976e+002, 2.493824e+003
8.613797e+002, 2.491497e+003
8.618618e+002, 2.487750e+003
8.623439e+002, 2.486190e+003
8.628260e+002, 2.490573e+003
8.633082e+002, 2.495578e+003
8.637903e+002, 2.496881e+003
8.642724e+002, 2.495833e+003
8.647545e+002, 2.495157e+003
8.652366e+002, 2.495362e+003
8.657188e+002, 2.494929e+003
8.662009e+002, 2.492263e+003
8.666830e+002, 2.488952e+003
8.671651e+002, 2.488620e+003
8.676472e+002, 2.490640e+003
8.681293e+002, 2.491164e+003
8.686115e+002, 2.489585e+003
8.690936e+002, 2.487092e+003
8.695757e+002, 2.484259e+003
8.700578e+002, 2.481269e+003
8.705399e+002, 2.478498e+003
8.710220e+002, 2.476000e+003
8.715042e+002, 2.473441e+003
8.719863e+002, 2.470570e+003
8.724684e+002, 2.468080e+003
8.729505e+002, 2.467666e+003
8.734326e+002, 2.466644e+003
8.739147e+002, 2.462227e+003
8.743969e+002, 2.454859e+003
8.748790e+002, 2.447661e+003
8.753611e+002, 2.440433e+003
8.758432e+002, 2.434630e+003
8.763253e+002, 2.431390e+003
8.768074e+002, 2.429258e+003
8.772896e+002, 2.427388e+003
8.777717e+002, 2.425449e+003
8.782538e+002, 2.422824e+003
8.787359e+002, 2.419301e+003
8.792180e+002, 2.416255e+003
8.797001e+002, 2.416233e+003
8.801823e+002, 2.416873e+003
8.806644e+002, 2.412582e+003
8.811465e+002, 2.404718e+003
8.816286e+002, 2.399684e+003
8.821107e+002, 2.399108e+003
8.825928e+002, 2.399906e+003
8.830750e+002, 2.399699e+003
8.835571e+002, 2.398183e+003
8.840392e+002, 2.393772e+003
8.845213e+002, 2.385654e+003
8.850034e+002, 2.379449e+003
8.854855e+002, 2.375917e+003
8.859677e+002, 2.373804e+003
8.864498e+002, 2.373070e+003
8.869319e+002, 2.372984e+003
8.874140e+002, 2.372520e+003
8.878961e+002, 2.371844e+003
8.883782e+002, 2.369784e+003
8.888604e+002, 2.364242e+003
8.893425e+002, 2.360043e+003
8.898246e+002, 2.359085e+003
8.903067e+002, 2.359573e+003
8.907888e+002, 2.361211e+003
8.912709e+002, 2.362865e+003
8.917531e+002, 2.361409e+003
8.922352e+002, 2.354756e+003
8.927173e+002, 2.348093e+003
8.931994e+002, 2.344875e+003
8.936815e+002, 2.343630e+003
8.941636e+002, 2.342858e+003
8.946458e+002, 2.342527e+003
8.951279e+002, 2.343335e+003
8.956100e+002, 2.345333e+003
8.960921e+002, 2.346881e+003
8.965742e+002, 2.346284e+003
8.970563e+002, 2.344182e+003
8.975385e+002, 2.342271e+003
8.980206e+002, 2.340491e+003
8.985027e+002, 2.338245e+003
8.989848e+002, 2.335415e+003
8.994669e+002, 2.331951e+003
8.999490e+002, 2.327388e+003
9.004312e+002, 2.322956e+003
9.009133e+002, 2.321717e+003
9.013954e+002, 2.324704e+003
9.018775e+002, 2.326104e+003
9.023596e+002, 2.325283e+003
9.028417e+002, 2.323935e+003
9.033239e+002, 2.321659e+003
9.038060e+002, 2.319837e+003
9.042881e+002, 2.320645e+003
9.047702e+002, 2.323421e+003
9.052523e+002, 2.323893e+003
9.057344e+002, 2.319982e+003
9.062166e+002, 2.316066e+003
9.066987e+002, 2.311959e+003
9.071808e+002, 2.309361e+003
9.076629e+002, 2.310636e+003
9.081450e+002, 2.313944e+003
9.086271e+002, 2.316212e+003
9.091093e+002, 2.316584e+003
9.095914e+002, 2.315414e+003
9.100735e+002, 2.312113e+003
9.105556e+002, 2.308083e+003
9.110377e+002, 2.304219e+003
9.115198e+002, 2.301002e+003
9.120020e+002, 2.300108e+003
9.124841e+002, 2.301272e+003
9.129662e+002, 2.301400e+003
9.134483e+002, 2.298365e+003
9.139304e+002, 2.294503e+003
9.144125e+002, 2.293910e+003
9.148947e+002, 2.296230e+003
9.153768e+002, 2.299046e+003
9.158589e+002, 2.302364e+003
9.163410e+002, 2.303653e+003
9.168231e+002, 2.301667e+003
9.173052e+002, 2.298720e+003
9.177874e+002, 2.297646e+003
9.182695e+002, 2.298030e+003
9.187516e+002, 2.295505e+003
9.192337e+002, 2.287781e+003
9.197158e+002, 2.282675e+003
9.201979e+002, 2.281914e+003
9.206801e+002, 2.282609e+003
9.211622e+002, 2.283867e+003
9.216443e+002, 2.285284e+003
9.221264e+002, 2.286364e+003
9.226085e+002, 2.287189e+003
9.230906e+002, 2.286890e+003
9.235728e+002, 2.283842e+003
9.240549e+002, 2.281497e+003
9.245370e+002, 2.281587e+003
9.250191e+002, 2.282601e+003
9.255012e+002, 2.283251e+003
9.259833e+002, 2.283461e+003
9.264655e+002, 2.283726e+003
9.269476e+002, 2.284394e+003
9.274297e+002, 2.284375e+003
9.279118e+002, 2.282263e+003
9.283939e+002, 2.279579e+003
9.288760e+002, 2.277955e+003
9.293582e+002, 2.277191e+003
9.298403e+002, 2.276973e+003
9.303224e+002, 2.277003e+003
9.308045e+002, 2.276079e+003
9.312866e+002, 2.272947e+003
9.317687e+002, 2.268911e+003
9.322509e+002, 2.266171e+003
9.327330e+002, 2.264694e+003
9.332151e+002, 2.264991e+003
9.336972e+002, 2.266970e+003
9.341793e+002, 2.267316e+003
9.346614e+002, 2.264291e+003
9.351436e+002, 2.259572e+003
9.356257e+002, 2.255220e+003
9.361078e+002, 2.251339e+003
9.365899e+002, 2.250682e+003
9.370720e+002, 2.254558e+003
9.375541e+002, 2.256151e+003
9.380363e+002, 2.253175e+003
9.385184e+002, 2.249450e+003
9.390005e+002, 2.247696e+003
9.394826e+002, 2.247247e+003
9.399647e+002, 2.246254e+003
9.404468e+002, 2.244586e+003
9.409290e+002, 2.242680e+003
9.414111e+002, 2.239879e+003
9.418932e+002, 2.237640e+003
9.423753e+002, 2.236827e+003
9.428574e+002, 2.236405e+003
9.433395e+002, 2.235056e+003
9.438217e+002, 2.233120e+003
9.443038e+002, 2.232503e+003
9.447859e+002, 2.234307e+003
9.452680e+002, 2.236171e+003
9.457501e+002, 2.238315e+003
9.462322e+002, 2.239207e+003
9.467144e+002, 2.236844e+003
9.471965e+002, 2.232775e+003
9.476786e+002, 2.229597e+003
9.481607e+002, 2.227821e+003
9.486428e+002, 2.226051e+003
9.491249e+002, 2.223121e+003
9.496071e+002, 2.220194e+003
9.500892e+002, 2.218154e+003
9.505713e+002, 2.217087e+003
9.510534e+002, 2.217532e+003
9.515355e+002, 2.219167e+003
9.520176e+002, 2.221086e+003
9.524998e+002, 2.222846e+003
9.529819e+002, 2.223249e+003
9.534640e+002, 2.219856e+003
9.539461e+002, 2.214346e+003
9.544282e+002, 2.211979e+003
9.549103e+002, 2.212432e+003
9.553925e+002, 2.213672e+003
9.558746e+002, 2.215282e+003
9.563567e+002, 2.215496e+003
9.568388e+002, 2.212855e+003
9.573209e+002, 2.208854e+003
9.578030e+002, 2.206781e+003
9.582852e+002, 2.206805e+003
9.587673e+002, 2.206880e+003
9.592494e+002, 2.207140e+003
9.597315e+002, 2.207009e+003
9.602136e+002, 2.206587e+003
9.606957e+002, 2.205030e+003
9.611779e+002, 2.200706e+003
9.616600e+002, 2.194632e+003
9.621421e+002, 2.192448e+003
9.626242e+002, 2.196937e+003
9.631063e+002, 2.199816e+003
9.635884e+002, 2.200498e+003
9.640706e+002, 2.200214e+003
9.645527e+002, 2.198634e+003
9.650348e+002, 2.196867e+003
9.655169e+002, 2.196388e+003
9.659990e+002, 2.197095e+003
9.664811e+002, 2.197131e+003
9.669633e+002, 2.195443e+003
9.674454e+002, 2.194177e+003
9.679275e+002, 2.194352e+003
9.684096e+002, 2.194541e+003
9.688917e+002, 2.193699e+003
9.693738e+002, 2.192226e+003
9.698560e+002, 2.190878e+003
9.703381e+002, 2.189799e+003
9.708202e+002, 2.188633e+003
9.713023e+002, 2.186819e+003
9.717844e+002, 2.185316e+003
9.722665e+002, 2.185182e+003
9.727487e+002, 2.185438e+003
9.732308e+002, 2.185010e+003
9.737129e+002, 2.183881e+003
9.741950e+002, 2.182089e+003
9.746771e+002, 2.179659e+003
9.751592e+002, 2.178249e+003
9.756414e+002, 2.180791e+003
9.761235e+002, 2.184180e+003
9.766056e+002, 2.183457e+003
9.770877e+002, 2.180150e+003
9.775698e+002, 2.178018e+003
9.780519e+002, 2.177554e+003
9.785341e+002, 2.176921e+003
9.790162e+002, 2.174959e+003
9.794983e+002, 2.173163e+003
9.799804e+002, 2.174717e+003
9.804625e+002, 2.178238e+003
9.809446e+002, 2.177502e+003
9.814268e+002, 2.172971e+003
9.819089e+002, 2.170759e+003
9.823910e+002, 2.172509e+003
9.828731e+002, 2.174285e+003
9.833552e+002, 2.172824e+003
9.838373e+002, 2.169533e+003
9.843195e+002, 2.168090e+003
9.848016e+002, 2.168623e+003
9.852837e+002, 2.167931e+003
9.857658e+002, 2.165474e+003
9.862479e+002, 2.164599e+003
9.867300e+002, 2.167073e+003
9.872122e+002, 2.169719e+003
9.876943e+002, 2.169189e+003
9.881764e+002, 2.166110e+003
9.886585e+002, 2.163927e+003
9.891406e+002, 2.162890e+003
9.896227e+002, 2.161934e+003
9.901049e+002, 2.160478e+003
9.905870e+002, 2.160144e+003
9.910691e+002, 2.162482e+003
9.915512e+002, 2.165419e+003
9.920333e+002, 2.166386e+003
9.925154e+002, 2.165446e+003
9.929976e+002, 2.164690e+003
9.934797e+002, 2.165660e+003
9.939618e+002, 2.164481e+003
9.944439e+002, 2.157735e+003
9.949260e+002, 2.152396e+003
9.954081e+002, 2.153095e+003
9.958903e+002, 2.156437e+003
9.963724e+002, 2.158002e+003
9.968545e+002, 2.157479e+003
9.973366e+002, 2.156310e+003
9.978187e+002, 2.154495e+003
9.983008e+002, 2.152422e+003
9.987830e+002, 2.149138e+003
9.992651e+002, 2.146641e+003
9.997472e+002, 2.147317e+003
1.000229e+003, 2.149428e+003
1.000711e+003, 2.149589e+003
1.001194e+003, 2.147203e+003
1.001676e+003, 2.145476e+003
1.002158e+003, 2.146560e+003
1.002640e+003, 2.147783e+003
1.003122e+003, 2.147741e+003
1.003604e+003, 2.146971e+003
1.004086e+003, 2.145949e+003
1.004568e+003, 2.144722e+003
1.005050e+003, 2.143079e+003
1.005533e+003, 2.140975e+003
1.006015e+003, 2.139124e+003
1.006497e+003, 2.138731e+003
1.006979e+003, 2.138133e+003
1.007461e+003, 2.134610e+003
1.007943e+003, 2.130389e+003
1.008425e+003, 2.129202e+003
1.008907e+003, 2.130781e+003
1.009390e+003, 2.132663e+003
1.009872e+003, 2.133795e+003
1.010354e+003, 2.134635e+003
1.010836e+003, 2.135581e+003
1.011318e+003, 2.136561e+003
1.011800e+003, 2.137892e+003
1.012282e+003, 2.139056e+003
1.012764e+003, 2.138290e+003
1.013246e+003, 2.135771e+003
1.013729e+003, 2.134094e+003
1.014211e+003, 2.134656e+003
1.014693e+003, 2.135458e+003
1.015175e+003, 2.133384e+003
1.015657e+003, 2.129616e+003
1.016139e+003, 2.127658e+003
1.016621e+003, 2.127246e+003
1.017103e+003, 2.127236e+003
1.017586e+003, 2.127335e+003
1.018068e+003, 2.126930e+003
1.018550e+003, 2.125626e+003
1.019032e+003, 2.123875e+003
1.019514e+003, 2.122462e+003
1.019996e+003, 2.121308e+003
1.020478e+003, 2.119411e+003
1.020960e+003, 2.116835e+003
1.021442e+003, 2.116733e+003
1.021925e+003, 2.120029e+003
1.022407e+003, 2.122033e+003
1.022889e+003, 2.119152e+003
1.023371e+003, 2.114247e+003
1.023853e+003, 2.113502e+003
1.024335e+003, 2.116970e+003
1.024817e+003, 2.117698e+003
1.025299e+003, 2.115298e+003
1.025781e+003, 2.112809e+003
1.026264e+003, 2.110708e+003
1.026746e+003, 2.109670e+003
1.027228e+003, 2.110317e+003
1.027710e+003, 2.112157e+003
1.028192e+003, 2.114294e+003
1.028674e+003, 2.116974e+003
1.029156e+003, 2.117715e+003
1.029638e+003, 2.116074e+003
1.030120e+003, 2.113814e+003
1.030603e+003, 2.110819e+003
1.031085e+003, 2.108595e+003
1.031567e+003, 2.108556e+003
1.032049e+003, 2.109974e+003
1.032531e+003, 2.111043e+003
1.033013e+003, 2.111996e+003
1.033495e+003, 2.111530e+003
1.033977e+003, 2.109056e+003
1.034460e+003, 2.106397e+003
1.034942e+003, 2.103549e+003
1.035424e+003, 2.101313e+003
1.035906e+003, 2.100337e+003
1.036388e+003, 2.100476e+003
1.036870e+003, 2.101549e+003
1.037352e+003, 2.104459e+003
1.037834e+003, 2.105092e+003
1.038317e+003, 2.100814e+003
1.038799e+003, 2.098330e+003
1.039281e+003, 2.100344e+003
1.039763e+003, 2.103488e+003
1.040245e+003, 2.105844e+003
1.040727e+003, 2.107278e+003
1.041209e+003, 2.107519e+003
1.041691e+003, 2.106691e+003
1.042173e+003, 2.104249e+003
1.042656e+003, 2.097577e+003
1.043138e+003, 2.092756e+003
1.043620e+003, 2.092015e+003
1.044102e+003, 2.092926e+003
1.044584e+003, 2.094494e+003
1.045066e+003, 2.096140e+003
1.045548e+003, 2.096420e+003
1.046030e+003, 2.094861e+003
1.046512e+003, 2.093452e+003
1.046995e+003, 2.093347e+003
1.047477e+003, 2.092167e+003
1.047959e+003, 2.086897e+003
1.048441e+003, 2.082390e+003
1.048923e+003, 2.083056e+003
1.049405e+003, 2.087359e+003
1.049887e+003, 2.091768e+003
1.050369e+003, 2.096337e+003
1.050852e+003, 2.098476e+003
1.051334e+003, 2.096489e+003
1.051816e+003, 2.093610e+003
1.052298e+003, 2.089590e+003
1.052780e+003, 2.086352e+003
1.053262e+003, 2.086212e+003
1.053744e+003, 2.087823e+003
1.054226e+003, 2.087751e+003
1.054708e+003, 2.085089e+003
1.055191e+003, 2.083754e+003
1.055673e+003, 2.087380e+003
1.056155e+003, 2.089138e+003
1.056637e+003, 2.083613e+003
1.057119e+003, 2.077647e+003
1.057601e+003, 2.078148e+003
1.058083e+003, 2.082260e+003
1.058565e+003, 2.083350e+003
1.059047e+003, 2.080072e+003
1.059530e+003, 2.075865e+003
1.060012e+003, 2.069651e+003
1.060494e+003, 2.065620e+003
1.060976e+003, 2.066594e+003
1.061458e+003, 2.069538e+003
1.061940e+003, 2.073289e+003
1.062422e+003, 2.076606e+003
1.062904e+003, 2.076999e+003
1.063387e+003, 2.074047e+003
1.063869e+003, 2.072721e+003
1.064351e+003, 2.077005e+003
1.064833e+003, 2.080533e+003
1.065315e+003, 2.079855e+003
1.065797e+003, 2.077831e+003
1.066279e+003, 2.077099e+003
1.066761e+003, 2.076711e+003
1.067244e+003, 2.074063e+003
1.067726e+003, 2.068942e+003
1.068208e+003, 2.065374e+003
1.068690e+003, 2.066542e+003
1.069172e+003, 2.067502e+003
1.069654e+003, 2.065824e+003
1.070136e+003, 2.063219e+003
1.070618e+003, 2.060553e+003
1.071100e+003, 2.058173e+003
1.071583e+003, 2.055999e+003
1.072065e+003, 2.054272e+003
1.072547e+003, 2.054879e+003
1.073029e+003, 2.061245e+003
1.073511e+003, 2.065484e+003
1.073993e+003, 2.061892e+003
1.074475e+003, 2.056690e+003
1.074957e+003, 2.053848e+003
1.075439e+003, 2.053029e+003
1.075922e+003, 2.053772e+003
1.076404e+003, 2.055614e+003
1.076886e+003, 2.057004e+003
1.077368e+003, 2.057698e+003
1.077850e+003, 2.057097e+003
1.078332e+003, 2.053206e+003
1.078814e+003, 2.049718e+003
1.079297e+003, 2.050154e+003
1.079779e+003, 2.052108e+003
1.080261e+003, 2.051837e+003
1.080743e+003, 2.049674e+003
1.081225e+003, 2.049367e+003
1.081707e+003, 2.053114e+003
1.082189e+003, 2.055596e+003
1.082671e+003, 2.053047e+003
1.083153e+003, 2.049942e+003
1.083635e+003, 2.049106e+003
1.084118e+003, 2.049383e+003
1.084600e+003, 2.049507e+003
1.085082e+003, 2.049337e+003
1.085564e+003, 2.049220e+003
1.086046e+003, 2.049447e+003
1.086528e+003, 2.048688e+003
1.087010e+003, 2.045568e+003
1.087492e+003, 2.042305e+003
1.087975e+003, 2.039425e+003
1.088457e+003, 2.037586e+003
1.088939e+003, 2.038169e+003
1.089421e+003, 2.040117e+003
1.089903e+003, 2.040895e+003
1.090385e+003, 2.039885e+003
1.090867e+003, 2.038273e+003
1.091349e+003, 2.035870e+003
1.091832e+003, 2.033794e+003
1.092314e+003, 2.033242e+003
1.092796e+003, 2.032612e+003
1.093278e+003, 2.029553e+003
1.093760e+003, 2.025762e+003
1.094242e+003, 2.024886e+003
1.094724e+003, 2.027482e+003
1.095206e+003, 2.029735e+003
1.095688e+003, 2.029859e+003
1.096171e+003, 2.030220e+003
1.096653e+003, 2.032630e+003
1.097135e+003, 2.034522e+003
1.097617e+003, 2.033874e+003
1.098099e+003, 2.031687e+003
1.098581e+003, 2.029267e+003
1.099063e+003, 2.026863e+003
1.099545e+003, 2.024973e+003
1.100027e+003, 2.022913e+003
1.100510e+003, 2.022707e+003
1.100992e+003, 2.026153e+003
1.101474e+003, 2.030105e+003
1.101956e+003, 2.034568e+003
1.102438e+003, 2.037405e+003
1.102920e+003, 2.034856e+003
1.103402e+003, 2.028181e+003
1.103884e+003, 2.024199e+003
1.104367e+003, 2.024681e+003
1.104849e+003, 2.026120e+003
1.105331e+003, 2.030284e+003
1.105813e+003, 2.032309e+003
1.106295e+003, 2.027769e+003
1.106777e+003, 2.022464e+003
1.107259e+003, 2.022473e+003
1.107741e+003, 2.025925e+003
1.108224e+003, 2.026813e+003
1.108706e+003, 2.023983e+003
1.109188e+003, 2.021355e+003
1.109670e+003, 2.019732e+003
1.110152e+003, 2.017704e+003
1.110634e+003, 2.013198e+003
1.111116e+003, 2.009948e+003
1.111598e+003, 2.011869e+003
1.112080e+003, 2.016179e+003
1.112563e+003, 2.017389e+003
1.113045e+003, 2.015022e+003
1.113527e+003, 2.013400e+003
1.114009e+003, 2.013074e+003
1.114491e+003, 2.012611e+003
1.114973e+003, 2.012228e+003
1.115455e+003, 2.011225e+003
1.115937e+003, 2.008913e+003
1.116419e+003, 2.006114e+003
1.116902e+003, 2.003623e+003
1.117384e+003, 2.001532e+003
1.117866e+003, 2.000867e+003
1.118348e+003, 2.002149e+003
1.118830e+003, 2.003708e+003
1.119312e+003, 2.005900e+003
1.119794e+003, 2.007509e+003
1.120276e+003, 2.007853e+003
1.120759e+003, 2.007865e+003
1.121241e+003, 2.008669e+003
1.121723e+003, 2.009699e+003
1.122205e+003, 2.008767e+003
1.122687e+003, 2.005089e+003
1.123169e+003, 2.003064e+003
1.123651e+003, 2.003135e+003
1.124133e+003, 2.003396e+003
1.124615e+003, 2.003551e+003
1.125098e+003, 2.003265e+003
1.125580e+003, 2.002225e+003
1.126062e+003, 2.000748e+003
1.126544e+003, 1.999323e+003
1.127026e+003, 1.997980e+003
1.127508e+003, 1.997948e+003
1.127990e+003, 1.999442e+003
1.128472e+003, 2.000569e+003
1.128954e+003, 2.001107e+003
1.129437e+003, 2.000496e+003
1.129919e+003, 1.998093e+003
1.130401e+003, 1.996649e+003
1.130883e+003, 2.000357e+003
1.131365e+003, 2.006945e+003
1.131847e+003, 2.005767e+003
1.132329e+003, 1.997466e+003
1.132811e+003, 1.995721e+003
1.133294e+003, 2.001344e+003
1.133776e+003, 2.005444e+003
1.134258e+003, 2.005053e+003
1.134740e+003, 2.003404e+003
1.135222e+003, 2.003164e+003
1.135704e+003, 2.003547e+003
1.136186e+003, 2.002981e+003
1.136668e+003, 2.001724e+003
1.137151e+003, 2.000753e+003
1.137633e+003, 2.000068e+003
1.138115e+003, 1.999488e+003
1.138597e+003, 1.998978e+003
1.139079e+003, 1.998608e+003
1.139561e+003, 1.998431e+003
1.140043e+003, 1.998030e+003
1.140525e+003, 1.996223e+003
1.141007e+003, 1.994331e+003
1.141490e+003, 1.995947e+003
1.141972e+003, 1.999061e+003
1.142454e+003, 1.998342e+003
1.142936e+003, 1.994568e+003
1.143418e+003, 1.992891e+003
1.143900e+003, 1.994872e+003
1.144382e+003, 1.997272e+003
1.144864e+003, 1.998043e+003
1.145346e+003, 1.997340e+003
1.145829e+003, 1.994005e+003
1.146311e+003, 1.990339e+003
1.146793e+003, 1.989361e+003
1.147275e+003, 1.990349e+003
1.147757e+003, 1.992042e+003
1.148239e+003, 1.993824e+003
1.148721e+003, 1.994582e+003
1.149203e+003, 1.993657e+003
1.149686e+003, 1.992463e+003
1.150168e+003, 1.991551e+003
1.150650e+003, 1.991136e+003
1.151132e+003, 1.992104e+003
1.151614e+003, 1.993105e+003
1.152096e+003, 1.992248e+003
1.152578e+003, 1.990213e+003
1.153060e+003, 1.988839e+003
1.153542e+003, 1.988533e+003
1.154025e+003, 1.989064e+003
1.154507e+003, 1.992110e+003
1.154989e+003, 1.993503e+003
1.155471e+003, 1.989843e+003
1.155953e+003, 1.986115e+003
1.156435e+003, 1.986119e+003
1.156917e+003, 1.987675e+003
1.157399e+003, 1.987380e+003
1.157881e+003, 1.985299e+003
1.158364e+003, 1.984231e+003
1.158846e+003, 1.984465e+003
1.159328e+003, 1.985667e+003
1.159810e+003, 1.989302e+003
1.160292e+003, 1.991908e+003
1.160774e+003, 1.992404e+003
1.161256e+003, 1.991611e+003
1.161738e+003, 1.989305e+003
1.162221e+003, 1.986622e+003
1.162703e+003, 1.986667e+003
1.163185e+003, 1.990110e+003
1.163667e+003, 1.990635e+003
1.164149e+003, 1.986922e+003
1.164631e+003, 1.984000e+003
1.165113e+003, 1.982218e+003
1.165595e+003, 1.982709e+003
1.166078e+003, 1.986877e+003
1.166560e+003, 1.991518e+003
1.167042e+003, 1.992692e+003
1.167524e+003, 1.990898e+003
1.168006e+003, 1.987828e+003
1.168488e+003, 1.983317e+003
1.168970e+003, 1.982153e+003
1.169452e+003, 1.984675e+003
1.169934e+003, 1.987401e+003
1.170417e+003, 1.989366e+003
1.170899e+003, 1.989969e+003
1.171381e+003, 1.988648e+003
1.171863e+003, 1.986462e+003
1.172345e+003, 1.984632e+003
1.172827e+003, 1.983535e+003
1.173309e+003, 1.985626e+003
1.173791e+003, 1.989656e+003
1.174273e+003, 1.990495e+003
1.174756e+003, 1.987956e+003
1.175238e+003, 1.984566e+003
1.175720e+003, 1.981521e+003
1.176202e+003, 1.980938e+003
1.176684e+003, 1.986142e+003
1.177166e+003, 1.991725e+003
1.177648e+003, 1.989687e+003
1.178130e+003, 1.984570e+003
1.178613e+003, 1.982935e+003
1.179095e+003, 1.983660e+003
1.179577e+003, 1.983520e+003
1.180059e+003, 1.982150e+003
1.180541e+003, 1.981087e+003
1.181023e+003, 1.981009e+003
1.181505e+003, 1.981225e+003
1.181987e+003, 1.981555e+003
1.182469e+003, 1.981760e+003
1.182952e+003, 1.981607e+003
1.183434e+003, 1.981320e+003
1.183916e+003, 1.981357e+003
1.184398e+003, 1.981344e+003
1.184880e+003, 1.980266e+003
1.185362e+003, 1.978045e+003
1.185844e+003, 1.976599e+003
1.186326e+003, 1.976752e+003
1.186808e+003, 1.977123e+003
1.187291e+003, 1.977112e+003
1.187773e+003, 1.977720e+003
1.188255e+003, 1.980794e+003
1.188737e+003, 1.983448e+003
1.189219e+003, 1.982143e+003
1.189701e+003, 1.978434e+003
1.190183e+003, 1.977320e+003
1.190665e+003, 1.979615e+003
1.191148e+003, 1.980151e+003
1.191630e+003, 1.978108e+003
1.192112e+003, 1.976635e+003
1.192594e+003, 1.976416e+003
1.193076e+003, 1.976352e+003
1.193558e+003, 1.975832e+003
1.194040e+003, 1.975388e+003
1.194522e+003, 1.975876e+003
1.195005e+003, 1.976815e+003
1.195487e+003, 1.975825e+003
1.195969e+003, 1.973025e+003
1.196451e+003, 1.971632e+003
1.196933e+003, 1.971772e+003
1.197415e+003, 1.972559e+003
1.197897e+003, 1.973701e+003
1.198379e+003, 1.974231e+003
1.198861e+003, 1.973494e+003
1.199344e+003, 1.972330e+003
1.199826e+003, 1.971842e+003
1.200308e+003, 1.971757e+003
1.200790e+003, 1.971421e+003
1.201272e+003, 1.971078e+003
1.201754e+003, 1.971414e+003
1.202236e+003, 1.972245e+003
1.202718e+003, 1.973014e+003
1.203200e+003, 1.973458e+003
1.203683e+003, 1.972886e+003
1.204165e+003, 1.970202e+003
1.204647e+003, 1.968305e+003
1.205129e+003, 1.970945e+003
1.205611e+003, 1.973642e+003
1.206093e+003, 1.971557e+003
1.206575e+003, 1.968029e+003
1.207057e+003, 1.967568e+003
1.207540e+003, 1.969409e+003
1.208022e+003, 1.970294e+003
1.208504e+003, 1.969538e+003
1.208986e+003, 1.968249e+003
1.209468e+003, 1.965719e+003
1.209950e+003, 1.964107e+003
1.210432e+003, 1.963922e+003
1.210914e+003, 1.964702e+003
1.211396e+003, 1.967470e+003
1.211879e+003, 1.970004e+003
1.212361e+003, 1.969495e+003
1.212843e+003, 1.966904e+003
1.213325e+003, 1.966321e+003
1.213807e+003, 1.968657e+003
1.214289e+003, 1.968229e+003
1.214771e+003, 1.963769e+003
1.215253e+003, 1.962043e+003
1.215735e+003, 1.965036e+003
1.216218e+003, 1.967670e+003
1.216700e+003, 1.967147e+003
1.217182e+003, 1.965274e+003
1.217664e+003, 1.964131e+003
1.218146e+003, 1.963687e+003
1.218628e+003, 1.963917e+003
1.219110e+003, 1.964744e+003
1.219592e+003, 1.965914e+003
1.220075e+003, 1.967323e+003
1.220557e+003, 1.968872e+003
1.221039e+003, 1.970340e+003
1.221521e+003, 1.970333e+003
1.222003e+003, 1.967988e+003
1.222485e+003, 1.965990e+003
1.222967e+003, 1.968324e+003
1.223449e+003, 1.971168e+003
1.223932e+003, 1.970073e+003
1.224414e+003, 1.966839e+003
1.224896e+003, 1.962694e+003
1.225378e+003, 1.958819e+003
1.225860e+003, 1.957320e+003
1.226342e+003, 1.958146e+003
1.226824e+003, 1.958789e+003
1.227306e+003, 1.958534e+003
1.227788e+003, 1.957597e+003
1.228271e+003, 1.954239e+003
1.228753e+003, 1.952573e+003
1.229235e+003, 1.956899e+003
1.229717e+003, 1.961113e+003
1.230199e+003, 1.959436e+003
1.230681e+003, 1.954730e+003
1.231163e+003, 1.952035e+003
1.231645e+003, 1.951347e+003
1.232127e+003, 1.952678e+003
1.232610e+003, 1.957449e+003
1.233092e+003, 1.959715e+003
1.233574e+003, 1.958556e+003
1.234056e+003, 1.957086e+003
1.234538e+003, 1.956075e+003
1.235020e+003, 1.955877e+003
1.235502e+003, 1.956935e+003
1.235984e+003, 1.958211e+003
1.236467e+003, 1.957801e+003
1.236949e+003, 1.956106e+003
1.237431e+003, 1.954598e+003
1.237913e+003, 1.953344e+003
1.238395e+003, 1.952737e+003
1.238877e+003, 1.952704e+003
1.239359e+003, 1.952688e+003
1.239841e+003, 1.952549e+003
1.240323e+003, 1.952615e+003
1.240806e+003, 1.953085e+003
1.241288e+003, 1.953832e+003
1.241770e+003, 1.955322e+003
1.242252e+003, 1.956394e+003
1.242734e+003, 1.955119e+003
1.243216e+003, 1.953350e+003
1.243698e+003, 1.953886e+003
1.244180e+003, 1.955651e+003
1.244662e+003, 1.955906e+003
1.245145e+003, 1.954268e+003
1.245627e+003, 1.952487e+003
1.246109e+003, 1.950448e+003
1.246591e+003, 1.949368e+003
1.247073e+003, 1.950838e+003
1.247555e+003, 1.951445e+003
1.248037e+003, 1.949370e+003
1.248519e+003, 1.946886e+003
1.249002e+003, 1.945180e+003
1.249484e+003, 1.944530e+003
1.249966e+003, 1.945756e+003
1.250448e+003, 1.948664e+003
1.250930e+003, 1.949640e+003
1.251412e+003, 1.948440e+003
1.251894e+003, 1.947850e+003
1.252376e+003, 1.948069e+003
1.252859e+003, 1.949271e+003
1.253341e+003, 1.951492e+003
1.253823e+003, 1.953586e+003
1.254305e+003, 1.954783e+003
1.254787e+003, 1.955289e+003
1.255269e+003, 1.955429e+003
1.255751e+003, 1.955037e+003
1.256233e+003, 1.953018e+003
1.256715e+003, 1.950679e+003
1.257198e+003, 1.950727e+003
1.257680e+003, 1.952545e+003
1.258162e+003, 1.954440e+003
1.258644e+003, 1.955796e+003
1.259126e+003, 1.955671e+003
1.259608e+003, 1.952892e+003
1.260090e+003, 1.951679e+003
1.260572e+003, 1.956414e+003
1.261054e+003, 1.960004e+003
1.261537e+003, 1.957659e+003
1.262019e+003, 1.954326e+003
1.262501e+003, 1.953787e+003
1.262983e+003, 1.954810e+003
1.263465e+003, 1.955337e+003
1.263947e+003, 1.955391e+003
1.264429e+003, 1.955295e+003
1.264911e+003, 1.954918e+003
1.265394e+003, 1.954940e+003
1.265876e+003, 1.955637e+003
1.266358e+003, 1.955295e+003
1.266840e+003, 1.953346e+003
1.267322e+003, 1.951469e+003
1.267804e+003, 1.950509e+003
1.268286e+003, 1.950734e+003
1.268768e+003, 1.952862e+003
1.269250e+003, 1.955618e+003
1.269733e+003, 1.955830e+003
1.270215e+003, 1.954500e+003
1.270697e+003, 1.953426e+003
1.271179e+003, 1.953225e+003
1.271661e+003, 1.956187e+003
1.272143e+003, 1.961312e+003
1.272625e+003, 1.963385e+003
1.273107e+003, 1.960468e+003
1.273589e+003, 1.957643e+003
1.274072e+003, 1.957907e+003
1.274554e+003, 1.959088e+003
1.275036e+003, 1.960668e+003
1.275518e+003, 1.962163e+003
1.276000e+003, 1.964069e+003
1.276482e+003, 1.965019e+003
1.276964e+003, 1.962453e+003
1.277446e+003, 1.958094e+003
1.277929e+003, 1.956971e+003
1.278411e+003, 1.959558e+003
1.278893e+003, 1.960484e+003
1.279375e+003, 1.959105e+003
1.279857e+003, 1.958704e+003
1.280339e+003, 1.959824e+003
1.280821e+003, 1.960913e+003
1.281303e+003, 1.961540e+003
1.281786e+003, 1.962604e+003
1.282268e+003, 1.964549e+003
##END=



